Data from 0283_crown_Reflection__0__205.txt Node

Date: Fri Oct 20 22:23:36 CDT 2023
User: ToomeyLab
Spectrometer: FLMS14357
Trigger mode: 0
Integration Time (sec): 1.000000E-2
Scans to average: 100
Electric dark correction enabled: true
Nonlinearity correction enabled: false
Boxcar width: 0
XAxis mode: Wavelengths
Number of Pixels in Spectrum: 2048
>>>>>Begin Spectral Data<<<<<
189.047	107.05
189.435	107.05
189.823	107.05
190.211	-293.38
190.599	-335.1
190.987	71.43
191.375	40.02
191.763	-0.3
192.151	-23.83
192.538	72.83
192.926	313.35
193.314	143.46
193.702	137.3
194.089	2772.92
194.477	43.83
194.864	402.36
195.252	133.9
195.639	-36.36
196.027	-73.06
196.414	6.28
196.801	178.88
197.189	567468163375000
197.576	223.68
197.963	-2063.75
198.351	25.04
198.738	7.9
199.125	10.07
199.512	-6.38
199.899	-22.36
200.286	-25.48
200.673	36.22
201.06	-5.6
201.447	-23.4
201.833	18.69
202.22	5.85
202.607	4.76
202.994	21.39
203.38	-25.36
203.767	10.57
204.154	25.8
204.54	59.22
204.927	1.04
205.313	13.12
205.699	42.28
206.086	15.54
206.472	43.92
206.858	51.57
207.245	-4.04
207.631	21.75
208.017	15.95
208.403	-5.06
208.789	12.17
209.175	-49.41
209.561	-4.82
209.947	0.31
210.333	-8.32
210.719	22.61
211.105	29.43
211.491	11.39
211.876	-8.01
212.262	-0.49
212.648	7.45
213.034	3.34
213.419	17.07
213.805	-0.29
214.19	-7.64
214.576	-20.14
214.961	14.55
215.346	19.99
215.732	12.06
216.117	-47.74
216.502	21.26
216.888	16.26
217.273	-14.47
217.658	-14.97
218.043	6.84
218.428	-18.05
218.813	-3.63
219.198	-0.87
219.583	-35.16
219.968	-17.68
220.353	-7.26
220.738	3.81
221.122	-10.69
221.507	5.1
221.892	-1.08
222.276	0.09
222.661	16.14
223.046	-6.18
223.43	1.51
223.815	14.34
224.199	14.89
224.583	-10.74
224.968	-6.74
225.352	-10.56
225.736	-6
226.121	3.45
226.505	-3.7
226.889	1.9
227.273	5.82
227.657	0.41
228.041	2.13
228.425	-0.5
228.809	-0.32
229.193	3.71
229.577	6.55
229.961	3.43
230.344	2.87
230.728	1.68
231.112	2.56
231.495	2.48
231.879	2.18
232.263	3.12
232.646	0.62
233.03	1.22
233.413	1.46
233.797	1.69
234.18	2.79
234.563	2.37
234.946	4.49
235.33	3.02
235.713	1.57
236.096	3.43
236.479	4.03
236.862	2.68
237.245	1.75
237.628	1.78
238.011	4
238.394	2.64
238.777	4.3
239.16	1.28
239.543	5.25
239.925	4.71
240.308	3.68
240.691	3.37
241.073	3.97
241.456	4.34
241.838	2.92
242.221	2.41
242.603	3.59
242.986	2.83
243.368	3.32
243.75	2.33
244.133	2.14
244.515	2.33
244.897	2.53
245.279	2.48
245.661	2.22
246.043	1.09
246.425	3.08
246.807	1.85
247.189	2.08
247.571	2.45
247.953	2.45
248.335	2.79
248.717	1.86
249.098	1.99
249.48	2.03
249.862	2.33
250.243	2.24
250.625	2.37
251.006	2.43
251.388	2.23
251.769	2.36
252.151	1.76
252.532	2.78
252.913	1.23
253.295	1.19
253.676	2.4
254.057	2.07
254.438	2.33
254.819	2.27
255.2	1.43
255.581	2.25
255.962	1.88
256.343	2.4
256.724	1.01
257.105	2.59
257.486	2.75
257.867	2.36
258.247	1.33
258.628	2.7
259.009	0.97
259.389	1.46
259.77	0.68
260.15	2.58
260.531	2.01
260.911	2.46
261.292	1.84
261.672	2.43
262.052	2.36
262.432	2.28
262.813	2.03
263.193	1.88
263.573	1.82
263.953	2.06
264.333	2.39
264.713	2.27
265.093	2.68
265.473	3.06
265.853	2.19
266.233	2.42
266.612	2.13
266.992	1.75
267.372	2.11
267.752	1.67
268.131	2.59
268.511	2.63
268.89	2.35
269.27	1.31
269.649	1.83
270.029	2.24
270.408	2.63
270.787	2.31
271.167	2.24
271.546	2.23
271.925	2.77
272.304	2.3
272.683	2.32
273.062	2
273.441	2.15
273.82	2.27
274.199	2.31
274.578	2.09
274.957	2.13
275.336	2.33
275.715	1.86
276.093	2.07
276.472	2.31
276.851	2.48
277.229	2.37
277.608	1.59
277.986	1.54
278.365	2.59
278.743	1.64
279.122	2.06
279.5	1.79
279.878	1.44
280.257	2.07
280.635	2
281.013	1.94
281.391	2.17
281.769	2.01
282.147	1.99
282.525	2.15
282.903	2.12
283.281	1.92
283.659	2.08
284.037	2.05
284.415	1.35
284.792	2.04
285.17	2.04
285.548	1.78
285.925	1.6
286.303	1.7
286.68	1.56
287.058	2.54
287.435	2.16
287.813	1.93
288.19	1.95
288.567	2.18
288.945	2.15
289.322	2.69
289.699	1.16
290.076	2.48
290.453	1.74
290.83	1.95
291.207	2.42
291.584	1.95
291.961	2.08
292.338	1.8
292.715	2.04
293.092	1.72
293.469	2.66
293.845	2
294.222	2.12
294.599	2.03
294.975	2.66
295.352	2.19
295.728	2.14
296.105	2.22
296.481	2.06
296.858	1.77
297.234	2.04
297.61	1.57
297.986	2.13
298.363	1.68
298.739	2.06
299.115	1.87
299.491	2.02
299.867	2.15
300.243	2.03
300.619	2.08
300.995	1.94
301.371	2.24
301.746	1.91
302.122	2.34
302.498	1.87
302.874	1.87
303.249	2.2
303.625	1.97
304	2.26
304.376	1.57
304.751	1.37
305.127	1.77
305.502	2.74
305.878	1.7
306.253	1.98
306.628	2.22
307.003	2.28
307.378	2.1
307.754	2.18
308.129	2.12
308.504	2.56
308.879	2.13
309.254	2.34
309.629	1.46
310.003	1.31
310.378	1.95
310.753	2.32
311.128	2.56
311.502	1.94
311.877	2.33
312.252	1.42
312.626	2.57
313.001	2.1
313.375	2.1
313.75	1.99
314.124	1.95
314.498	2.04
314.873	2.05
315.247	2.54
315.621	1.88
315.995	2.51
316.369	2.38
316.743	2.18
317.117	2.28
317.491	1.64
317.865	2.93
318.239	2.88
318.613	2.22
318.987	1.83
319.361	0.98
319.734	1.58
320.108	1.66
320.482	2.33
320.855	1.93
321.229	2.57
321.602	2.09
321.976	2.33
322.349	2.52
322.723	2
323.096	2.16
323.469	1.58
323.843	2.08
324.216	2.34
324.589	2.04
324.962	2.25
325.335	2.59
325.708	2.39
326.081	2.05
326.454	2.35
326.827	2.54
327.2	2.44
327.573	2.94
327.945	2.13
328.318	1.88
328.691	2.1
329.063	2.43
329.436	1.6
329.809	2.54
330.181	2.66
330.553	2.46
330.926	2.42
331.298	2.06
331.671	1.67
332.043	2.07
332.415	2
332.787	2.53
333.159	2.1
333.532	2.22
333.904	2.42
334.276	1.62
334.648	2.57
335.02	2.12
335.391	1.88
335.763	2.6
336.135	1.94
336.507	2.25
336.879	2.22
337.25	2.25
337.622	2.43
337.993	2.3
338.365	2.07
338.736	2.67
339.108	2.24
339.479	1.93
339.851	1.92
340.222	1.86
340.593	1.85
340.964	2.14
341.336	2.4
341.707	2.02
342.078	2.36
342.449	1.94
342.82	1.96
343.191	2.1
343.562	2.28
343.933	1.78
344.303	1.99
344.674	2.73
345.045	2.45
345.416	2.36
345.786	2.18
346.157	2.13
346.527	2.2
346.898	1.86
347.268	2.57
347.639	2.7
348.009	1.95
348.38	2.28
348.75	2.39
349.12	2.02
349.49	2.08
349.861	2.15
350.231	1.69
350.601	2.05
350.971	2.54
351.341	1.96
351.711	2.64
352.081	2.36
352.45	2.01
352.82	2.22
353.19	2.51
353.56	2.62
353.929	1.99
354.299	2.11
354.669	2.44
355.038	2.26
355.408	2.73
355.777	2.08
356.147	2.34
356.516	2.55
356.885	2.19
357.254	2.4
357.624	2.39
357.993	1.84
358.362	2.24
358.731	1.72
359.1	1.94
359.469	2.17
359.838	2.53
360.207	2.2
360.576	2.51
360.945	1.83
361.314	2.16
361.682	2.23
362.051	2.26
362.42	2.16
362.788	2.43
363.157	2.25
363.525	2.33
363.894	2.3
364.262	2.07
364.631	2.38
364.999	2.27
365.367	2.32
365.735	2.08
366.104	2.25
366.472	2.3
366.84	2.34
367.208	2.47
367.576	2.13
367.944	2.34
368.312	2.06
368.68	2.52
369.048	2.38
369.416	2.56
369.783	2.54
370.151	2.7
370.519	2.45
370.886	2.46
371.254	2.46
371.621	2.49
371.989	2.2
372.356	2.41
372.724	2.28
373.091	2.23
373.458	2.09
373.826	2.1
374.193	2.16
374.56	2.06
374.927	2.49
375.294	2.2
375.661	2.52
376.028	2.45
376.395	2.79
376.762	2.17
377.129	2.1
377.496	2.56
377.863	2.83
378.229	2.76
378.596	2.44
378.963	2.47
379.329	2.39
379.696	2.59
380.062	2.46
380.429	2.39
380.795	1.95
381.161	2.43
381.528	2.73
381.894	2.13
382.26	2.5
382.626	2.55
382.993	2.32
383.359	2.56
383.725	2.53
384.091	2.43
384.457	2.24
384.823	2.31
385.188	2.56
385.554	2.26
385.92	2.23
386.286	2.74
386.651	1.78
387.017	2.58
387.383	2.29
387.748	2.23
388.114	2.32
388.479	2.32
388.845	2.6
389.21	2.41
389.575	2.36
389.94	2.14
390.306	2.74
390.671	2.46
391.036	2.5
391.401	2.73
391.766	2.5
392.131	2.36
392.496	2.19
392.861	2.32
393.226	2.31
393.591	2.24
393.956	2.52
394.32	2.43
394.685	2.33
395.05	2.51
395.414	2.67
395.779	2.23
396.143	2.36
396.508	2.46
396.872	2.16
397.236	2.29
397.601	2.32
397.965	2.36
398.329	2.35
398.694	2.27
399.058	2.15
399.422	2.36
399.786	2.5
400.15	2.18
400.514	2.48
400.878	2.54
401.242	2.62
401.605	2.54
401.969	2.3
402.333	2.34
402.697	2.44
403.06	2.47
403.424	2.38
403.787	2.56
404.151	2.4
404.514	2.54
404.878	2.56
405.241	2.32
405.604	2.48
405.968	2.52
406.331	2.47
406.694	2.6
407.057	2.24
407.42	2.51
407.783	2.4
408.146	2.38
408.509	2.51
408.872	2.6
409.235	2.56
409.598	2.47
409.961	2.56
410.323	2.37
410.686	2.04
411.049	2.35
411.411	2.46
411.774	2.48
412.136	2.45
412.499	2.41
412.861	2.62
413.223	2.53
413.586	2.36
413.948	2.62
414.31	2.64
414.672	2.31
415.035	2.28
415.397	2.61
415.759	2.58
416.121	2.44
416.483	2.52
416.845	2.44
417.206	2.59
417.568	2.58
417.93	2.48
418.292	2.38
418.653	2.45
419.015	2.28
419.377	2.44
419.738	2.37
420.1	2.25
420.461	2.34
420.822	2.32
421.184	2.45
421.545	2.29
421.906	2.43
422.267	2.29
422.629	2.42
422.99	2.33
423.351	2.44
423.712	2.31
424.073	2.38
424.434	2.35
424.795	2.32
425.155	2.54
425.516	2.32
425.877	2.44
426.238	2.28
426.598	2.47
426.959	2.28
427.32	2.35
427.68	2.38
428.041	2.28
428.401	2.38
428.761	2.37
429.122	2.35
429.482	2.54
429.842	2.44
430.202	2.37
430.563	2.42
430.923	2.55
431.283	2.36
431.643	2.5
432.003	2.56
432.363	2.19
432.722	2.47
433.082	2.3
433.442	2.29
433.802	2.6
434.161	2.23
434.521	2.55
434.881	2.53
435.24	2.45
435.6	2.33
435.959	2.4
436.319	2.5
436.678	2.45
437.037	2.39
437.396	2.43
437.756	2.48
438.115	2.3
438.474	2.46
438.833	2.62
439.192	2.18
439.551	2.4
439.91	2.39
440.269	2.54
440.628	2.51
440.987	2.5
441.345	2.33
441.704	2.37
442.063	2.37
442.421	2.34
442.78	2.28
443.138	2.46
443.497	2.53
443.855	2.55
444.214	2.43
444.572	2.34
444.93	2.55
445.288	2.43
445.647	2.62
446.005	2.37
446.363	2.36
446.721	2.33
447.079	2.53
447.437	2.47
447.795	2.33
448.153	2.41
448.51	2.38
448.868	2.4
449.226	2.38
449.584	2.45
449.941	2.31
450.299	2.41
450.656	2.29
451.014	2.37
451.371	2.46
451.729	2.32
452.086	2.42
452.443	2.44
452.801	2.31
453.158	2.48
453.515	2.49
453.872	2.53
454.229	2.59
454.586	2.44
454.943	2.42
455.3	2.28
455.657	2.49
456.014	2.46
456.371	2.46
456.727	2.52
457.084	2.45
457.441	2.36
457.797	2.54
458.154	2.35
458.51	2.47
458.867	2.57
459.223	2.54
459.58	2.47
459.936	2.48
460.292	2.5
460.648	2.35
461.005	2.38
461.361	2.49
461.717	2.33
462.073	2.46
462.429	2.31
462.785	2.45
463.141	2.4
463.496	2.47
463.852	2.47
464.208	2.6
464.564	2.53
464.919	2.37
465.275	2.66
465.631	2.4
465.986	2.51
466.342	2.53
466.697	2.29
467.052	2.37
467.408	2.56
467.763	2.54
468.118	2.7
468.473	2.43
468.829	2.43
469.184	2.39
469.539	2.41
469.894	2.51
470.249	2.48
470.603	2.47
470.958	2.58
471.313	2.52
471.668	2.47
472.023	2.5
472.377	2.39
472.732	2.32
473.086	2.6
473.441	2.6
473.795	2.9
474.15	2.5
474.504	2.37
474.859	2.42
475.213	2.43
475.567	2.45
475.921	2.58
476.275	2.46
476.63	2.71
476.984	2.54
477.338	2.38
477.692	2.33
478.045	2.42
478.399	2.52
478.753	2.39
479.107	2.39
479.461	2.52
479.814	2.66
480.168	2.59
480.521	2.47
480.875	2.48
481.228	2.55
481.582	2.64
481.935	2.38
482.289	2.56
482.642	2.45
482.995	2.41
483.348	2.46
483.701	2.41
484.055	2.52
484.408	2.38
484.761	2.44
485.114	2.33
485.466	2.32
485.819	2.29
486.172	2.25
486.525	2.27
486.878	2.33
487.23	2.37
487.583	2.34
487.936	2.36
488.288	2.4
488.641	2.44
488.993	2.39
489.345	2.34
489.698	2.37
490.05	2.33
490.402	2.34
490.754	2.39
491.107	2.41
491.459	2.44
491.811	2.43
492.163	2.42
492.515	2.43
492.866	2.5
493.218	2.39
493.57	2.37
493.922	2.33
494.274	2.34
494.625	2.35
494.977	2.4
495.328	2.45
495.68	2.53
496.031	2.43
496.383	2.6
496.734	2.54
497.086	2.48
497.437	2.4
497.788	2.41
498.139	2.58
498.49	2.42
498.842	2.33
499.193	2.5
499.544	2.52
499.894	2.51
500.245	2.43
500.596	2.42
500.947	2.58
501.298	2.46
501.648	2.35
501.999	2.59
502.35	2.53
502.7	2.66
503.051	2.57
503.401	2.59
503.752	2.59
504.102	2.65
504.452	2.48
504.803	2.56
505.153	2.56
505.503	2.53
505.853	2.59
506.203	2.43
506.553	2.42
506.903	2.53
507.253	2.59
507.603	2.5
507.953	2.49
508.303	2.31
508.652	2.57
509.002	2.47
509.352	2.54
509.701	2.53
510.051	2.42
510.4	2.53
510.75	2.54
511.099	2.47
511.449	2.6
511.798	2.59
512.147	2.47
512.496	2.5
512.846	2.42
513.195	2.57
513.544	2.57
513.893	2.42
514.242	2.47
514.591	2.52
514.939	2.42
515.288	2.5
515.637	2.6
515.986	2.51
516.334	2.55
516.683	2.51
517.032	2.4
517.38	2.53
517.729	2.51
518.077	2.53
518.426	2.52
518.774	2.32
519.122	2.46
519.47	2.51
519.819	2.37
520.167	2.46
520.515	2.51
520.863	2.45
521.211	2.45
521.559	2.49
521.907	2.52
522.255	2.44
522.602	2.59
522.95	2.52
523.298	2.57
523.645	2.52
523.993	2.53
524.341	2.45
524.688	2.4
525.036	2.54
525.383	2.51
525.73	2.63
526.078	2.4
526.425	2.59
526.772	2.42
527.119	2.46
527.466	2.52
527.814	2.52
528.161	2.36
528.508	2.44
528.854	2.43
529.201	2.51
529.548	2.47
529.895	2.44
530.242	2.42
530.588	2.32
530.935	2.35
531.282	2.4
531.628	2.41
531.975	2.33
532.321	2.48
532.667	2.43
533.014	2.47
533.36	2.42
533.706	2.44
534.052	2.45
534.399	2.36
534.745	2.38
535.091	2.45
535.437	2.44
535.783	2.44
536.129	2.57
536.474	2.45
536.82	2.52
537.166	2.46
537.512	2.5
537.857	2.55
538.203	2.45
538.549	2.56
538.894	2.52
539.239	2.47
539.585	2.51
539.93	2.57
540.276	2.66
540.621	2.63
540.966	2.54
541.311	2.52
541.656	2.55
542.001	2.56
542.346	2.58
542.691	2.42
543.036	2.41
543.381	2.45
543.726	2.42
544.071	2.48
544.415	2.44
544.76	2.47
545.105	2.49
545.449	2.49
545.794	2.57
546.138	2.5
546.483	2.53
546.827	2.61
547.171	2.65
547.516	2.53
547.86	2.63
548.204	2.42
548.548	2.51
548.892	2.52
549.236	2.56
549.58	2.47
549.924	2.48
550.268	2.59
550.612	2.56
550.956	2.73
551.3	2.43
551.643	2.52
551.987	2.64
552.33	2.53
552.674	2.6
553.017	2.57
553.361	2.72
553.704	2.59
554.048	2.56
554.391	2.56
554.734	2.7
555.077	2.56
555.42	2.55
555.764	2.61
556.107	2.65
556.45	2.52
556.793	2.64
557.135	2.45
557.478	2.59
557.821	2.71
558.164	2.84
558.507	2.86
558.849	2.78
559.192	2.73
559.534	2.81
559.877	2.34
560.219	2.76
560.562	2.56
560.904	2.66
561.246	2.55
561.589	2.57
561.931	2.67
562.273	2.78
562.615	2.73
562.957	2.66
563.299	2.71
563.641	2.73
563.983	2.49
564.325	2.59
564.667	2.64
565.008	2.63
565.35	2.64
565.692	2.58
566.033	2.78
566.375	2.68
566.716	2.68
567.058	2.67
567.399	2.85
567.741	2.57
568.082	2.67
568.423	2.67
568.764	2.5
569.105	2.82
569.447	2.54
569.788	2.66
570.129	2.53
570.47	2.6
570.811	2.67
571.151	2.64
571.492	2.66
571.833	2.92
572.174	2.75
572.514	2.75
572.855	2.72
573.195	2.77
573.536	2.48
573.876	2.78
574.217	2.56
574.557	2.59
574.898	2.46
575.238	2.63
575.578	2.6
575.918	2.64
576.258	2.68
576.598	2.77
576.938	2.66
577.278	2.62
577.618	2.57
577.958	2.71
578.298	2.7
578.638	2.64
578.977	2.74
579.317	2.6
579.657	2.65
579.996	2.76
580.336	2.69
580.675	2.64
581.014	2.75
581.354	2.69
581.693	2.61
582.032	2.8
582.372	2.64
582.711	2.74
583.05	3.01
583.389	2.8
583.728	2.77
584.067	2.5
584.406	2.69
584.745	2.7
585.083	2.43
585.422	2.54
585.761	2.68
586.1	2.89
586.438	2.44
586.777	2.71
587.115	2.92
587.454	2.93
587.792	2.89
588.13	2.79
588.469	2.77
588.807	2.46
589.145	2.65
589.483	2.53
589.821	2.67
590.159	2.7
590.497	2.77
590.835	2.81
591.173	2.57
591.511	2.77
591.849	2.42
592.187	2.91
592.524	2.64
592.862	2.78
593.2	2.87
593.537	2.68
593.875	2.69
594.212	2.99
594.55	2.67
594.887	2.84
595.224	2.81
595.561	2.34
595.899	2.63
596.236	2.65
596.573	2.78
596.91	2.62
597.247	2.67
597.584	2.48
597.921	2.62
598.258	2.87
598.594	2.96
598.931	2.55
599.268	2.62
599.604	2.64
599.941	2.62
600.277	2.62
600.614	2.73
600.95	2.74
601.287	2.63
601.623	2.92
601.959	2.65
602.296	2.84
602.632	3
602.968	2.41
603.304	2.91
603.64	2.63
603.976	2.91
604.312	2.76
604.648	2.88
604.984	2.97
605.319	2.63
605.655	2.7
605.991	2.65
606.326	2.75
606.662	2.62
606.998	2.64
607.333	2.7
607.668	2.5
608.004	2.75
608.339	2.64
608.674	2.89
609.01	2.85
609.345	2.93
609.68	3.21
610.015	2.49
610.35	2.62
610.685	3.06
611.02	2.65
611.355	2.76
611.689	2.67
612.024	2.86
612.359	2.85
612.694	2.66
613.028	2.68
613.363	2.7
613.697	2.85
614.032	2.91
614.366	2.81
614.7	2.93
615.035	2.85
615.369	2.82
615.703	2.42
616.037	2.96
616.371	2.69
616.705	2.74
617.039	2.62
617.373	2.84
617.707	3.18
618.041	2.74
618.375	2.43
618.709	2.64
619.042	2.61
619.376	2.98
619.71	3.01
620.043	2.87
620.377	2.58
620.71	2.97
621.043	2.96
621.377	2.61
621.71	2.9
622.043	2.68
622.376	3.08
622.709	2.67
623.043	3.05
623.376	2.56
623.709	2.72
624.041	2.93
624.374	2.98
624.707	2.43
625.04	3.1
625.373	3.07
625.705	2.85
626.038	3.19
626.37	2.56
626.703	2.37
627.035	2.78
627.368	2.86
627.7	2.86
628.032	2.75
628.365	3.02
628.697	2.74
629.029	2.99
629.361	2.72
629.693	2.81
630.025	2.9
630.357	2.72
630.689	2.82
631.021	3.04
631.353	2.96
631.684	2.52
632.016	3.22
632.348	2.64
632.679	2.97
633.011	2.85
633.342	2.54
633.674	2.59
634.005	2.94
634.336	3.06
634.668	2.81
634.999	2.81
635.33	2.51
635.661	3.14
635.992	3.04
636.323	3.08
636.654	2.98
636.985	2.81
637.316	3.01
637.647	3.16
637.977	2.49
638.308	2.61
638.639	3.04
638.969	2.8
639.3	2.43
639.63	2.89
639.961	3.1
640.291	2.91
640.622	3.01
640.952	2.82
641.282	2.9
641.612	2.71
641.943	3.03
642.273	2.64
642.603	3.27
642.933	2.9
643.263	2.7
643.592	2.77
643.922	2.88
644.252	2.42
644.582	2.96
644.911	3.02
645.241	3.37
645.571	3.56
645.9	2.95
646.23	2.92
646.559	2.93
646.888	3.01
647.218	2.7
647.547	2.41
647.876	2.86
648.205	2.97
648.534	2.87
648.863	3.14
649.192	2.3
649.521	3.17
649.85	3.22
650.179	3.08
650.508	2.59
650.837	3.06
651.165	3.14
651.494	2.63
651.822	2.88
652.151	2.91
652.479	2.77
652.808	2.83
653.136	2.41
653.465	2.98
653.793	2.91
654.121	3.27
654.449	3.22
654.777	2.13
655.105	2.81
655.433	3.45
655.761	3.15
656.089	3.25
656.417	2.82
656.745	2.96
657.073	2.85
657.4	3.47
657.728	3.1
658.056	2.62
658.383	2.83
658.711	2.8
659.038	3.04
659.365	3.02
659.693	2.96
660.02	2.8
660.347	3.13
660.674	2.85
661.001	2.73
661.329	2.71
661.656	3
661.982	2.96
662.309	2.74
662.636	2.73
662.963	3.02
663.29	3
663.616	2.99
663.943	2.89
664.27	3
664.596	3.06
664.923	2.58
665.249	2.89
665.576	3.28
665.902	2.81
666.228	3.47
666.554	3.3
666.881	2.18
667.207	3.35
667.533	2.72
667.859	3.24
668.185	3.32
668.511	3.36
668.837	3.39
669.162	3.39
669.488	3.31
669.814	2.66
670.139	3.03
670.465	3.15
670.791	3.33
671.116	2.85
671.442	3.27
671.767	3.1
672.092	3.29
672.418	3.25
672.743	3.29
673.068	3.54
673.393	2.94
673.718	2.71
674.043	2.51
674.368	3.49
674.693	3.27
675.018	3.95
675.343	2.98
675.667	3.21
675.992	3.22
676.317	3.27
676.641	3.78
676.966	3.03
677.29	2.95
677.615	3.32
677.939	2.5
678.264	2.91
678.588	2.38
678.912	3.56
679.236	2.89
679.56	3.54
679.885	3.45
680.209	3.51
680.532	3.29
680.856	2.45
681.18	2.85
681.504	2.92
681.828	3.69
682.152	3.19
682.475	2.6
682.799	3.47
683.122	3.37
683.446	3.21
683.769	3.59
684.093	3.57
684.416	3.65
684.739	2.57
685.062	1.97
685.386	3.03
685.709	2.85
686.032	3.81
686.355	3.78
686.678	3.23
687.001	3.37
687.324	2.49
687.646	3.37
687.969	4.14
688.292	3.53
688.614	3.43
688.937	3.21
689.26	3.13
689.582	3.01
689.904	2.65
690.227	3.5
690.549	3.8
690.871	2.9
691.194	3.11
691.516	3.62
691.838	3.27
692.16	3.41
692.482	2.83
692.804	2.81
693.126	2.3
693.448	4.16
693.769	3.54
694.091	3.59
694.413	2.96
694.735	2.78
695.056	3.49
695.378	3.31
695.699	3.7
696.021	3.81
696.342	3.62
696.663	3.56
696.984	2.57
697.306	4.19
697.627	2.9
697.948	3.75
698.269	2.96
698.59	2.99
698.911	3.59
699.232	3.03
699.553	3.41
699.873	3.63
700.194	3.79
700.515	3.08
700.835	3.2
701.156	3.29
701.477	3.42
701.797	3.24
702.117	3.74
702.438	3.32
702.758	3.22
703.078	3.1
703.398	3.38
703.719	3.45
704.039	3.02
704.359	3.2
704.679	3.83
704.999	3.54
705.319	3.86
705.638	2.63
705.958	3.58
706.278	3.28
706.597	3.79
706.917	2.94
707.237	4.06
707.556	2.78
707.876	2.7
708.195	4.91
708.514	3.02
708.834	4.19
709.153	3.26
709.472	2.33
709.791	4.4
710.11	4.02
710.429	3.29
710.748	3.79
711.067	2.55
711.386	3.12
711.705	3.79
712.023	4.11
712.342	2.65
712.661	2.99
712.979	2.87
713.298	2.84
713.616	2.8
713.935	4
714.253	3.29
714.572	3.41
714.89	3.38
715.208	3.62
715.526	4.16
715.844	3.53
716.162	3.9
716.48	3.51
716.798	3.03
717.116	2.31
717.434	3.06
717.752	2.95
718.069	3.08
718.387	3.13
718.705	3.55
719.022	4.45
719.34	3.69
719.657	3.3
719.975	3.43
720.292	3.4
720.609	3.25
720.927	2.89
721.244	3.01
721.561	4.14
721.878	3.2
722.195	3.08
722.512	4.25
722.829	4.88
723.146	3.71
723.463	2.89
723.779	4.12
724.096	4.11
724.413	2.16
724.729	3.24
725.046	4.38
725.362	3.76
725.679	3.56
725.995	5.34
726.311	4.39
726.628	2.28
726.944	3.8
727.26	3.03
727.576	3.71
727.892	3.93
728.208	4.11
728.524	2.93
728.84	3.41
729.156	4.39
729.472	2.01
729.787	3.07
730.103	2.91
730.419	2.59
730.734	3.65
731.05	3.52
731.365	2.18
731.681	2.9
731.996	4.86
732.311	4.67
732.626	3.07
732.942	2.11
733.257	4.35
733.572	4.59
733.887	3.91
734.202	2.83
734.517	3.53
734.832	3.51
735.146	5.38
735.461	3.14
735.776	3.48
736.091	4.13
736.405	3.39
736.72	4.49
737.034	3.83
737.349	3.76
737.663	2.83
737.977	6.29
738.292	3.45
738.606	3.5
738.92	2.39
739.234	2.63
739.548	4.07
739.862	3.54
740.176	5.24
740.49	2.69
740.804	5.78
741.117	3.49
741.431	4.3
741.745	3.44
742.058	3.85
742.372	3.73
742.685	3.52
742.999	2.82
743.312	5.15
743.626	1.73
743.939	4.69
744.252	1.68
744.565	4.44
744.878	3.36
745.191	3.73
745.505	1.87
745.817	4.31
746.13	3.31
746.443	5.15
746.756	3.77
747.069	2.57
747.381	4.28
747.694	2.6
748.007	4.59
748.319	5.69
748.632	3.17
748.944	3.41
749.256	5.78
749.569	3.16
749.881	6.22
750.193	3.3
750.505	1.4
750.817	3.79
751.129	3.92
751.441	2.78
751.753	2.54
752.065	4.44
752.377	4.8
752.689	5.27
753	4.48
753.312	1.56
753.624	0.58
753.935	5.11
754.247	3.41
754.558	4.65
754.869	5.63
755.181	3.78
755.492	3.42
755.803	3.22
756.114	2.46
756.425	2.66
756.736	4.86
757.047	2.53
757.358	3.21
757.669	3.37
757.98	2.34
758.291	3
758.601	4.63
758.912	5.28
759.223	3.36
759.533	6.03
759.844	6.63
760.154	4.3
760.464	4.42
760.775	4.52
761.085	2.86
761.395	4.44
761.705	2.57
762.016	4.41
762.326	4.91
762.636	4.92
762.945	1.15
763.255	4.92
763.565	3.57
763.875	4.46
764.185	3.08
764.494	4.93
764.804	5.03
765.113	3.53
765.423	3.39
765.732	2.97
766.042	3.68
766.351	4.19
766.66	3.5
766.97	3.26
767.279	3.36
767.588	2.52
767.897	3.45
768.206	3.83
768.515	2.29
768.824	3.81
769.133	4.07
769.441	3.43
769.75	4.17
770.059	4.17
770.367	4.54
770.676	7.08
770.984	3.79
771.293	3.61
771.601	0.32
771.91	2.43
772.218	7.03
772.526	5.47
772.834	3.75
773.142	1.35
773.45	4.49
773.758	3.83
774.066	3.07
774.374	1.59
774.682	3.47
774.99	4.5
775.298	2.31
775.605	3.52
775.913	3.54
776.22	2.38
776.528	0.12
776.835	-0.08
777.143	-0.07
777.45	4.23
777.757	3.53
778.065	2.18
778.372	5.44
778.679	5.98
778.986	2.94
779.293	5.72
779.6	4.96
779.907	5.53
780.214	2.68
780.52	4.45
780.827	3.74
781.134	4.5
781.44	0.95
781.747	2.51
782.053	3.41
782.36	4.97
782.666	2.02
782.973	4.05
783.279	-1.86
783.585	5.98
783.891	0.92
784.197	1.43
784.503	4.9
784.809	0.86
785.115	4.21
785.421	6.63
785.727	7.33
786.033	6.03
786.339	2.99
786.644	2.24
786.95	7.25
787.255	6.3
787.561	5.13
787.866	0.85
788.172	5.97
788.477	3.09
788.782	2.06
789.088	6.35
789.393	1.17
789.698	1.19
790.003	4.27
790.308	2.43
790.613	-0.22
790.918	6.81
791.223	3.6
791.527	1.94
791.832	8.4
792.137	5.76
792.441	3.78
792.746	3.18
793.05	-0.37
793.355	3.05
793.659	3.41
793.963	3.03
794.268	-1
794.572	0.81
794.876	6.32
795.18	2.39
795.484	4.77
795.788	3.68
796.092	2.91
796.396	4.41
796.7	4.29
797.004	1.42
797.307	5.14
797.611	6.27
797.915	1.29
798.218	-2.99
798.522	3.48
798.825	5.84
799.128	5.79
799.432	4
799.735	-0.89
800.038	-0.19
800.341	2.46
800.644	8.28
800.947	3.16
801.25	1.6
801.553	7.65
801.856	4.39
802.159	4.01
802.462	3.1
802.764	0.77
803.067	7.31
803.37	3.86
803.672	5.3
803.975	3.78
804.277	3.59
804.579	-1.94
804.882	6.91
805.184	4.58
805.486	4.29
805.788	6.85
806.09	3.59
806.392	3.43
806.694	4.01
806.996	4.87
807.298	4.4
807.6	3.6
807.902	0.01
808.203	4.96
808.505	9.79
808.807	5.28
809.108	-0.19
809.409	0.58
809.711	-4.09
810.012	5.41
810.313	6.43
810.615	-3.63
810.916	8.25
811.217	5.76
811.518	-2.64
811.819	6.13
812.12	1.85
812.421	5.13
812.722	-1.59
813.023	8.37
813.323	-6.64
813.624	-0.86
813.925	2.61
814.225	3.44
814.526	8.05
814.826	7.28
815.126	6.53
815.427	3.4
815.727	8.09
816.027	-0.48
816.327	9.6
816.627	9.06
816.927	4.24
817.227	3
817.527	-0.91
817.827	6.09
818.127	1.97
818.427	1.78
818.727	4.29
819.026	3.04
819.326	7.53
819.625	4.95
819.925	7.09
820.224	9.5
820.524	9.42
820.823	1.2
821.122	0.7
821.421	1.99
821.72	5.76
822.019	5.51
822.318	1.58
822.617	-0.49
822.916	4.46
823.215	5.84
823.514	5.25
823.813	6.97
824.111	7.91
824.41	6.69
824.709	6.31
825.007	3.46
825.306	5.34
825.604	4.32
825.902	5.11
826.201	5.25
826.499	4.87
826.797	4.3
827.095	4.75
827.393	5.08
827.691	5.08
827.989	6.97
828.287	7.93
828.585	5.96
828.882	3.01
829.18	2.75
829.478	5.14
829.775	3.59
830.073	5.11
830.37	4.32
830.668	5
830.965	5.56
831.263	5.31
831.56	5.89
831.857	4.06
832.154	6.75
832.451	7.32
832.748	7.57
833.045	3.44
833.342	9.95
833.639	5.01
833.936	8.07
834.232	5.37
834.529	10.22
834.826	0.75
835.122	8.3
835.419	6.03
835.715	4.75
836.012	2.19
836.308	1.49
836.604	4.21
836.901	9.12
837.197	6.42
837.493	7.4
837.789	3.67
838.085	1.13
838.381	4.57
838.677	4.88
838.972	9.32
839.268	3.3
839.564	5.55
839.86	8.24
840.155	7.1
840.451	9.5
840.746	4.43
841.042	2.41
841.337	7.05
841.632	12.85
841.928	0.38
842.223	11
842.518	-5.7
842.813	2.39
843.108	2.24
843.403	3.42
843.698	12.5
843.993	6.56
844.287	8.6
844.582	4.61
844.877	6.11
845.171	8.53
845.466	-5.52
845.761	-1.54
846.055	9.02
846.349	12.8
846.644	12.95
846.938	9.31
847.232	10.95
847.526	1.08
847.82	-25.23
848.114	19.45
848.408	7.17
848.702	-9.21
848.996	42.15
849.29	7.93
849.584	-8.63
849.877	11.98
850.171	10.47
850.465	-2.62
850.758	-13.92
851.052	7.69
851.345	13.03
851.638	-2.86
851.932	-8.75
852.225	-2.05
852.518	21.64
852.811	24.14
853.104	30.93
853.397	1.62
853.69	1.45
853.983	-0.98
854.276	-7.79
854.569	32.5
854.861	11.51
855.154	31.91
855.447	6.04
855.739	19.05
856.032	-8.84
856.324	-6.62
856.616	-12.86
856.909	12.86
857.201	1.53
857.493	-9.81
857.785	7.99
858.077	24.98
858.369	20.36
858.661	18.71
858.953	-17.13
859.245	-0.51
859.537	-8.25
859.829	13
860.12	23.11
860.412	9.08
860.703	7.66
860.995	-3.85
861.286	-2.66
861.578	-5.56
861.869	-32.15
862.16	-0.28
862.452	6.4
862.743	18.66
863.034	-3.55
863.325	12.69
863.616	-13.85
863.907	-1.64
864.198	26.14
864.488	19.96
864.779	24.62
865.07	2.63
865.36	8.82
865.651	9.39
865.941	26.99
866.232	0.09
866.522	17.31
866.813	-8.37
867.103	-15.33
867.393	5.11
867.683	11.57
867.973	38.5
868.263	19.46
868.553	0.77
868.843	-15.98
869.133	15.65
869.423	7.15
869.713	13.84
870.002	8.54
870.292	-0.88
870.582	11.63
870.871	-3.43
871.161	15.04
871.45	12.15
871.739	-8.85
872.029	-35.25
872.318	28.97
872.607	21.47
872.896	16.42
873.185	20.41
873.474	6.41
873.763	-6.36
874.052	37.71
874.341	23.78
874.63	-1.5
874.918	-13.07
875.207	12.33
875.496	5.55
875.784	17.8
876.073	14.54
876.361	7.76
876.649	-14.13
876.938	-2.21
877.226	-0.36
877.514	5.37
877.802	-5.79
878.09	-10.4
878.378	36.67
878.666	-21.49
878.954	5.69
879.242	9.88
879.53	30.28
879.817	16.25
880.105	-4.74
880.392	31.36
880.68	22.74
880.967	-13.3
881.255	12.63
881.542	-5.34
881.83	-9.35
882.117	4.56
882.404	-19.13
882.691	-2.61
882.978	14.7
883.265	-11.04
883.552	0.77
883.839	-0.95
884.126	2.28
884.413	4.41
884.699	9.86
884.986	11.09
885.273	10.18
885.559	10.18
885.846	10.18
