Data from 0215_forehead_Reflection__4__219.txt Node

Date: Fri Sep 22 22:34:08 CDT 2023
User: ToomeyLab
Spectrometer: FLMS14357
Trigger mode: 0
Integration Time (sec): 1.000000E-2
Scans to average: 100
Electric dark correction enabled: true
Nonlinearity correction enabled: false
Boxcar width: 0
XAxis mode: Wavelengths
Number of Pixels in Spectrum: 2048
>>>>>Begin Spectral Data<<<<<
189.047	-464.75
189.435	-464.75
189.823	-464.75
190.211	45.08
190.599	-45.89
190.987	-345.99
191.375	92.82
191.763	-263.45
192.151	72.97
192.538	-214.86
192.926	45.97
193.314	27.74
193.702	35.79
194.089	64.13
194.477	37.52
194.864	-311.63
195.252	163.69
195.639	8.13
196.027	102.46
196.414	219.67
196.801	-1192
197.189	-27.22
197.576	551.52
197.963	19
198.351	46.37
198.738	26.85
199.125	79.74
199.512	41.61
199.899	62.98
200.286	97.83
200.673	27.45
201.06	45.23
201.447	40.24
201.833	-8.32
202.22	95.58
202.607	51.02
202.994	56.35
203.38	30.16
203.767	8.52
204.154	41.38
204.54	11.73
204.927	37.7
205.313	54.07
205.699	80.52
206.086	50.86
206.472	54.09
206.858	55.84
207.245	-12.93
207.631	61.86
208.017	56.46
208.403	85.42
208.789	35.45
209.175	67.43
209.561	43.21
209.947	62.6
210.333	57.86
210.719	32.03
211.105	68.94
211.491	72.63
211.876	88.66
212.262	52.15
212.648	36.46
213.034	60.49
213.419	49.03
213.805	27.39
214.19	53.39
214.576	55.93
214.961	61.6
215.346	7.33
215.732	32.98
216.117	10.83
216.502	54.81
216.888	33.55
217.273	45.33
217.658	58.14
218.043	42.17
218.428	48.78
218.813	-0.15
219.198	38.4
219.583	37.5
219.968	12.99
220.353	44.53
220.738	5.05
221.122	21.68
221.507	16.16
221.892	-21.43
222.276	8.06
222.661	-2.23
223.046	24.71
223.43	35.54
223.815	17.82
224.199	17.88
224.583	28.94
224.968	18.68
225.352	11.17
225.736	20.71
226.121	3.34
226.505	7.35
226.889	13.95
227.273	2.06
227.657	16.23
228.041	8.52
228.425	8.27
228.809	9.42
229.193	7.88
229.577	7.98
229.961	5.96
230.344	5.9
230.728	2.9
231.112	4.81
231.495	3.29
231.879	3.4
232.263	2.9
232.646	3.63
233.03	5.69
233.413	5.2
233.797	5.22
234.18	5.76
234.563	7.57
234.946	6.93
235.33	3.23
235.713	3.35
236.096	2.83
236.479	3.49
236.862	6.11
237.245	4.2
237.628	5.33
238.011	5.54
238.394	3.05
238.777	5.73
239.16	5.34
239.543	5.72
239.925	7.17
240.308	5.99
240.691	6.86
241.073	4.41
241.456	5.25
241.838	5.03
242.221	5.35
242.603	4.22
242.986	4.31
243.368	3.63
243.75	4.49
244.133	4.17
244.515	3.98
244.897	3
245.279	3.72
245.661	4.23
246.043	4.1
246.425	3.26
246.807	4.78
247.189	2.82
247.571	5.21
247.953	4.24
248.335	4.23
248.717	3.65
249.098	3.83
249.48	3.47
249.862	3.42
250.243	3.85
250.625	3.5
251.006	3.79
251.388	4.23
251.769	4.47
252.151	3.88
252.532	4.53
252.913	4.6
253.295	4.45
253.676	4.15
254.057	4.7
254.438	4.35
254.819	3.93
255.2	4.34
255.581	4.06
255.962	4.64
256.343	5.07
256.724	3.18
257.105	4.86
257.486	5.02
257.867	4.72
258.247	5.09
258.628	4.6
259.009	4.63
259.389	3.75
259.77	4.98
260.15	4.84
260.531	4.17
260.911	3.93
261.292	3.61
261.672	3.5
262.052	3.64
262.432	3.78
262.813	3.74
263.193	3.58
263.573	4.28
263.953	3.66
264.333	4.59
264.713	3.99
265.093	3.78
265.473	3.65
265.853	3.68
266.233	3.79
266.612	3.83
266.992	4.65
267.372	4.77
267.752	4.67
268.131	3.57
268.511	4.07
268.89	4.29
269.27	3.46
269.649	3.97
270.029	3.95
270.408	4.12
270.787	3.72
271.167	3.7
271.546	3.69
271.925	4.4
272.304	3.31
272.683	3.66
273.062	3.96
273.441	3.47
273.82	4.17
274.199	3.74
274.578	3.81
274.957	3.93
275.336	3.71
275.715	3.6
276.093	3.55
276.472	3.48
276.851	4.08
277.229	3.41
277.608	3.59
277.986	3.72
278.365	4.23
278.743	4.45
279.122	4.11
279.5	4.26
279.878	3.43
280.257	4.27
280.635	3.48
281.013	4.25
281.391	3.15
281.769	3.76
282.147	4.84
282.525	4.02
282.903	4.39
283.281	4.08
283.659	4.1
284.037	3.66
284.415	3.83
284.792	4.11
285.17	4.04
285.548	4.2
285.925	3.7
286.303	4.05
286.68	3.38
287.058	3.74
287.435	3.7
287.813	3.72
288.19	3.35
288.567	4.03
288.945	3.88
289.322	3.82
289.699	3.99
290.076	4.24
290.453	3.81
290.83	3.46
291.207	3.81
291.584	3.7
291.961	3.73
292.338	3.97
292.715	4.43
293.092	4.22
293.469	3.88
293.845	3.73
294.222	4.4
294.599	4.61
294.975	4.3
295.352	4.37
295.728	4.18
296.105	4.64
296.481	4.6
296.858	4.14
297.234	4.38
297.61	4.09
297.986	4.75
298.363	4.34
298.739	4.49
299.115	4.86
299.491	4.68
299.867	4.76
300.243	4.24
300.619	4.79
300.995	4.4
301.371	5.06
301.746	5.29
302.122	5.03
302.498	4.84
302.874	4.66
303.249	5.23
303.625	4.71
304	5.19
304.376	5.32
304.751	5.4
305.127	5.09
305.502	5.7
305.878	5.82
306.253	5.29
306.628	5.24
307.003	5.53
307.378	5.65
307.754	5.77
308.129	5.3
308.504	5.41
308.879	6.21
309.254	5.78
309.629	5.38
310.003	6.22
310.378	5.94
310.753	5.78
311.128	5.98
311.502	5.81
311.877	5.44
312.252	5.62
312.626	5.6
313.001	6.06
313.375	6.34
313.75	6.37
314.124	6.8
314.498	5.74
314.873	6.05
315.247	6.38
315.621	6.62
315.995	6.48
316.369	6.45
316.743	6.83
317.117	6.84
317.491	7.21
317.865	6.28
318.239	7.27
318.613	7.08
318.987	7.03
319.361	7.02
319.734	7.17
320.108	7.23
320.482	6.71
320.855	7.27
321.229	7.7
321.602	6.98
321.976	7.13
322.349	6.91
322.723	7.93
323.096	7.03
323.469	7.26
323.843	7.53
324.216	7.83
324.589	6.77
324.962	7.45
325.335	7.01
325.708	7.25
326.081	7.75
326.454	7.21
326.827	7.63
327.2	7.6
327.573	7.65
327.945	8.08
328.318	7.96
328.691	7.89
329.063	7.59
329.436	8.02
329.809	8.3
330.181	8.05
330.553	7.58
330.926	8.26
331.298	8.36
331.671	9
332.043	8.04
332.415	8.07
332.787	8.39
333.159	8.16
333.532	8.35
333.904	8.33
334.276	8.13
334.648	8.11
335.02	8.4
335.391	8.43
335.763	8.76
336.135	8.77
336.507	8.88
336.879	8.59
337.25	8.5
337.622	9.23
337.993	9.12
338.365	9.63
338.736	9.52
339.108	9.29
339.479	8.7
339.851	8.88
340.222	8.77
340.593	9.17
340.964	8.68
341.336	9.01
341.707	9.24
342.078	9.46
342.449	9.2
342.82	9.02
343.191	9.18
343.562	8.83
343.933	9.43
344.303	9.19
344.674	9.2
345.045	9.88
345.416	9.29
345.786	9.45
346.157	9.64
346.527	9.8
346.898	9.51
347.268	9.61
347.639	9.72
348.009	9.66
348.38	9.69
348.75	10.19
349.12	9.77
349.49	10.33
349.861	9.67
350.231	10.19
350.601	10.16
350.971	10.32
351.341	9.66
351.711	10.29
352.081	10.02
352.45	9.84
352.82	10.59
353.19	10.57
353.56	10.18
353.929	10.06
354.299	10.64
354.669	10.39
355.038	10.14
355.408	10.37
355.777	10.82
356.147	10.3
356.516	10.8
356.885	10.95
357.254	10.86
357.624	10.38
357.993	10.64
358.362	10.89
358.731	10.61
359.1	10.85
359.469	10.94
359.838	10.21
360.207	10.86
360.576	10.95
360.945	11
361.314	11.28
361.682	11.19
362.051	11.17
362.42	11.22
362.788	10.96
363.157	11.25
363.525	10.86
363.894	11.15
364.262	10.98
364.631	11.1
364.999	11.02
365.367	11.28
365.735	11.2
366.104	11.36
366.472	11.99
366.84	11.34
367.208	11.69
367.576	11.83
367.944	11.68
368.312	11.57
368.68	11.91
369.048	11.82
369.416	11.82
369.783	11.91
370.151	11.75
370.519	11.88
370.886	11.8
371.254	12.49
371.621	11.97
371.989	12.14
372.356	12.53
372.724	12.69
373.091	12.13
373.458	12.52
373.826	12.35
374.193	12.5
374.56	12.58
374.927	12.39
375.294	12.49
375.661	12.38
376.028	12.5
376.395	12.76
376.762	12.64
377.129	12.55
377.496	12.93
377.863	12.93
378.229	12.9
378.596	13.06
378.963	13.21
379.329	12.79
379.696	13.05
380.062	12.5
380.429	13.05
380.795	13.1
381.161	13.07
381.528	13.01
381.894	13.02
382.26	13.12
382.626	13.63
382.993	13.57
383.359	13.25
383.725	13.38
384.091	13.56
384.457	13.7
384.823	13.44
385.188	13.76
385.554	13.49
385.92	13.8
386.286	13.79
386.651	13.58
387.017	13.9
387.383	13.69
387.748	13.99
388.114	13.9
388.479	14.04
388.845	13.76
389.21	13.86
389.575	14.35
389.94	13.88
390.306	14.14
390.671	14.22
391.036	13.73
391.401	14.19
391.766	14.3
392.131	14.43
392.496	14.48
392.861	14.46
393.226	14.43
393.591	14.45
393.956	14.38
394.32	14.45
394.685	14.47
395.05	14.65
395.414	14.58
395.779	14.79
396.143	14.77
396.508	14.72
396.872	14.86
397.236	14.67
397.601	14.68
397.965	14.85
398.329	14.83
398.694	14.81
399.058	15.14
399.422	15.19
399.786	15.07
400.15	15.2
400.514	15.1
400.878	15.07
401.242	15.41
401.605	15.47
401.969	15.08
402.333	15.27
402.697	15.53
403.06	15.5
403.424	15.3
403.787	15.48
404.151	15.35
404.514	15.84
404.878	15.37
405.241	15.8
405.604	15.62
405.968	15.48
406.331	15.54
406.694	15.8
407.057	15.65
407.42	15.74
407.783	15.88
408.146	15.99
408.509	15.97
408.872	16.06
409.235	16.03
409.598	16.16
409.961	16.33
410.323	16.23
410.686	16.26
411.049	16.42
411.411	16.64
411.774	16.21
412.136	16.19
412.499	16.32
412.861	16.56
413.223	16.49
413.586	16.39
413.948	16.46
414.31	16.46
414.672	16.58
415.035	16.48
415.397	16.91
415.759	16.9
416.121	16.95
416.483	16.89
416.845	16.69
417.206	16.7
417.568	16.74
417.93	16.66
418.292	17.15
418.653	16.58
419.015	16.95
419.377	16.91
419.738	17.04
420.1	16.9
420.461	16.94
420.822	16.97
421.184	16.83
421.545	16.91
421.906	17.01
422.267	16.93
422.629	17.11
422.99	16.99
423.351	16.82
423.712	16.89
424.073	17.01
424.434	17.22
424.795	17.23
425.155	17.34
425.516	17.12
425.877	17.2
426.238	17.08
426.598	17.17
426.959	17.25
427.32	17.44
427.68	17.26
428.041	17.62
428.401	17.71
428.761	17.75
429.122	17.68
429.482	17.89
429.842	17.89
430.202	17.96
430.563	18.17
430.923	18.26
431.283	18.25
431.643	18.3
432.003	18.38
432.363	18.39
432.722	18.52
433.082	18.41
433.442	18.39
433.802	18.32
434.161	18.3
434.521	18.45
434.881	18.45
435.24	18.5
435.6	18.54
435.959	18.39
436.319	18.2
436.678	18.57
437.037	18.75
437.396	18.6
437.756	19.04
438.115	18.88
438.474	18.83
438.833	19.16
439.192	18.86
439.551	18.87
439.91	19.14
440.269	19.1
440.628	18.86
440.987	19.01
441.345	19.28
441.704	18.99
442.063	19.04
442.421	19.16
442.78	19.1
443.138	19.11
443.497	19.19
443.855	19.33
444.214	19.16
444.572	19.39
444.93	19.5
445.288	19.44
445.647	19.63
446.005	19.64
446.363	19.52
446.721	19.62
447.079	19.6
447.437	19.65
447.795	19.73
448.153	19.54
448.51	19.51
448.868	19.44
449.226	19.5
449.584	19.71
449.941	19.59
450.299	19.85
450.656	19.88
451.014	20.04
451.371	20
451.729	20.15
452.086	20.25
452.443	20.33
452.801	20.46
453.158	20.44
453.515	20.55
453.872	20.5
454.229	20.48
454.586	20.61
454.943	20.69
455.3	20.57
455.657	20.57
456.014	20.76
456.371	20.89
456.727	21.11
457.084	20.86
457.441	20.84
457.797	21
458.154	20.93
458.51	20.9
458.867	21.01
459.223	21.07
459.58	21.27
459.936	21.18
460.292	21.31
460.648	21.2
461.005	21.28
461.361	21.25
461.717	20.99
462.073	20.82
462.429	20.83
462.785	21
463.141	21.21
463.496	21.26
463.852	21.46
464.208	21.63
464.564	21.72
464.919	21.79
465.275	22.12
465.631	22.13
465.986	21.87
466.342	22.07
466.697	22.06
467.052	22.01
467.408	22.31
467.763	22.05
468.118	22.08
468.473	22.19
468.829	22.26
469.184	22.08
469.539	22.38
469.894	22.25
470.249	22.41
470.603	22.18
470.958	22.38
471.313	22.56
471.668	22.58
472.023	22.4
472.377	22.67
472.732	22.51
473.086	22.85
473.441	22.46
473.795	23
474.15	22.58
474.504	22.89
474.859	23
475.213	22.62
475.567	22.55
475.921	22.97
476.275	22.99
476.63	23
476.984	23.14
477.338	23.06
477.692	23.08
478.045	23.35
478.399	23.39
478.753	23.22
479.107	23.14
479.461	23.24
479.814	23.55
480.168	23.26
480.521	23.47
480.875	23.45
481.228	23.37
481.582	23.4
481.935	23.34
482.289	23.51
482.642	23.48
482.995	23.71
483.348	23.52
483.701	23.61
484.055	23.49
484.408	23.48
484.761	23.33
485.114	23.23
485.466	23.04
485.819	22.7
486.172	22.71
486.525	22.8
486.878	22.86
487.23	23.01
487.583	23.2
487.936	23.32
488.288	23.63
488.641	23.64
488.993	23.55
489.345	23.37
489.698	23.35
490.05	23.39
490.402	23.38
490.754	23.57
491.107	23.56
491.459	23.83
491.811	24.03
492.163	24.29
492.515	24.25
492.866	24.29
493.218	24.22
493.57	24.08
493.922	23.75
494.274	23.9
494.625	24
494.977	24.24
495.328	24.58
495.68	24.77
496.031	24.73
496.383	25.06
496.734	25.15
497.086	25.28
497.437	25.24
497.788	25.29
498.139	25.26
498.49	25.22
498.842	25.11
499.193	25.19
499.544	25.31
499.894	25.21
500.245	25.44
500.596	25.49
500.947	25.56
501.298	25.62
501.648	25.46
501.999	25.83
502.35	25.79
502.7	25.88
503.051	25.92
503.401	26.01
503.752	26.02
504.102	26.24
504.452	26.22
504.803	26.05
505.153	26.19
505.503	26.26
505.853	26.31
506.203	26.19
506.553	26.53
506.903	26.31
507.253	26.43
507.603	26.59
507.953	26.59
508.303	26.76
508.652	26.77
509.002	26.82
509.352	26.77
509.701	26.72
510.051	26.82
510.4	26.81
510.75	26.86
511.099	26.73
511.449	26.8
511.798	26.87
512.147	27.01
512.496	26.8
512.846	27.17
513.195	27.08
513.544	27.22
513.893	27.13
514.242	27.19
514.591	27.19
514.939	27.24
515.288	27.19
515.637	27.35
515.986	27.56
516.334	27.51
516.683	27.43
517.032	27.63
517.38	27.66
517.729	27.85
518.077	27.89
518.426	27.87
518.774	27.96
519.122	27.78
519.47	27.87
519.819	27.79
520.167	27.91
520.515	27.7
520.863	27.58
521.211	27.59
521.559	27.71
521.907	27.91
522.255	27.91
522.602	28.08
522.95	28.19
523.298	28.37
523.645	28.43
523.993	28.3
524.341	28.55
524.688	28.57
525.036	28.61
525.383	28.7
525.73	28.72
526.078	28.67
526.425	28.7
526.772	28.89
527.119	28.71
527.466	28.46
527.814	28.54
528.161	28.38
528.508	28.5
528.854	28.55
529.201	28.63
529.548	28.49
529.895	28.49
530.242	28.35
530.588	28.21
530.935	28.15
531.282	28.15
531.628	28.37
531.975	28.41
532.321	28.47
532.667	28.82
533.014	28.91
533.36	29.14
533.706	29.37
534.052	29.35
534.399	29.33
534.745	29.46
535.091	29.16
535.437	29.04
535.783	28.93
536.129	29.13
536.474	29.31
536.82	29.3
537.166	29.59
537.512	29.77
537.857	29.69
538.203	30.07
538.549	29.94
538.894	29.86
539.239	29.92
539.585	29.85
539.93	30.19
540.276	30.3
540.621	30.27
540.966	30.5
541.311	30.76
541.656	30.58
542.001	30.71
542.346	30.81
542.691	30.69
543.036	30.37
543.381	30.04
543.726	30.06
544.071	30.09
544.415	30.15
544.76	30.38
545.105	30.35
545.449	30.45
545.794	30.65
546.138	30.74
546.483	30.97
546.827	30.98
547.171	31.36
547.516	31.26
547.86	31.47
548.204	31.42
548.548	31.49
548.892	31.49
549.236	31.22
549.58	31.41
549.924	31.62
550.268	31.82
550.612	31.92
550.956	31.92
551.3	32.32
551.643	32.02
551.987	32.41
552.33	32.28
552.674	32.38
553.017	32.59
553.361	32.6
553.704	32.58
554.048	32.55
554.391	32.67
554.734	32.61
555.077	32.61
555.42	32.63
555.764	32.72
556.107	32.68
556.45	32.83
556.793	32.81
557.135	32.97
557.478	33.17
557.821	33.19
558.164	33.22
558.507	33.21
558.849	33.12
559.192	33.56
559.534	33.56
559.877	33.51
560.219	33.51
560.562	33.92
560.904	33.55
561.246	33.83
561.589	33.94
561.931	33.37
562.273	33.64
562.615	33.73
562.957	33.76
563.299	33.85
563.641	34.06
563.983	33.72
564.325	33.86
564.667	34.09
565.008	34
565.35	34.23
565.692	34.06
566.033	34.04
566.375	34.41
566.716	34.39
567.058	34.37
567.399	34.32
567.741	34.49
568.082	34.23
568.423	34.44
568.764	34.6
569.105	34.43
569.447	34.57
569.788	34.56
570.129	34.83
570.47	34.79
570.811	34.83
571.151	35.03
571.492	35.12
571.833	35.18
572.174	34.98
572.514	35.22
572.855	35.28
573.195	35.13
573.536	35
573.876	35.16
574.217	35.24
574.557	35.11
574.898	35.15
575.238	35.25
575.578	35.3
575.918	35.3
576.258	35.41
576.598	35.57
576.938	35.55
577.278	35.58
577.618	35.52
577.958	35.58
578.298	35.91
578.638	35.96
578.977	36.15
579.317	36.12
579.657	36.12
579.996	36.12
580.336	36.52
580.675	36.26
581.014	36.28
581.354	36.5
581.693	36.63
582.032	36.64
582.372	36.68
582.711	37.04
583.05	36.66
583.389	36.52
583.728	36.76
584.067	37.11
584.406	37.11
584.745	37.28
585.083	37.05
585.422	37.32
585.761	37
586.1	37.03
586.438	37.41
586.777	37.15
587.115	37.49
587.454	37.15
587.792	37.51
588.13	37.64
588.469	37.34
588.807	37.51
589.145	37.6
589.483	37.52
589.821	37.82
590.159	37.99
590.497	37.75
590.835	37.88
591.173	37.77
591.511	37.97
591.849	37.88
592.187	37.67
592.524	37.82
592.862	37.87
593.2	37.95
593.537	38.17
593.875	37.93
594.212	38.31
594.55	38.32
594.887	38.45
595.224	38.57
595.561	38.64
595.899	38.72
596.236	38.66
596.573	38.6
596.91	38.67
597.247	38.46
597.584	38.87
597.921	38.66
598.258	39.03
598.594	38.67
598.931	38.38
599.268	38.49
599.604	38.41
599.941	38.7
600.277	38.42
600.614	38.66
600.95	38.87
601.287	39.22
601.623	39.14
601.959	39.02
602.296	39.15
602.632	39.05
602.968	39.5
603.304	39.61
603.64	39.28
603.976	39.23
604.312	39.51
604.648	39.65
604.984	39.82
605.319	39.77
605.655	39.64
605.991	39.74
606.326	39.46
606.662	39.31
606.998	39.32
607.333	39.61
607.668	39.59
608.004	39.55
608.339	39.8
608.674	40.04
609.01	39.96
609.345	40.23
609.68	40.19
610.015	40.14
610.35	40.35
610.685	39.84
611.02	40.3
611.355	40.5
611.689	40.23
612.024	40.24
612.359	40.32
612.694	40.36
613.028	40.57
613.363	40.43
613.697	40.81
614.032	40.73
614.366	40.92
614.7	40.57
615.035	40.63
615.369	40.8
615.703	40.81
616.037	40.62
616.371	41.36
616.705	41.49
617.039	41.29
617.373	41.71
617.707	41.46
618.041	41.62
618.375	41.38
618.709	41.77
619.042	41.71
619.376	41.2
619.71	42.01
620.043	41.43
620.377	41.55
620.71	41.55
621.043	41.95
621.377	41.69
621.71	41.62
622.043	41.92
622.376	42.1
622.709	42.19
623.043	41.78
623.376	42.3
623.709	41.97
624.041	42.13
624.374	42.48
624.707	42.08
625.04	42.21
625.373	41.71
625.705	42.17
626.038	42.12
626.37	42.39
626.703	42.11
627.035	42.02
627.368	42.75
627.7	42.15
628.032	42.22
628.365	42.86
628.697	42.5
629.029	42.5
629.361	42.57
629.693	42.74
630.025	42.79
630.357	42.83
630.689	42.96
631.021	42.88
631.353	42.75
631.684	42.97
632.016	43.34
632.348	43.03
632.679	43.15
633.011	43.36
633.342	42.8
633.674	43.9
634.005	43.49
634.336	43.55
634.668	43.38
634.999	43.42
635.33	43.42
635.661	43.55
635.992	43.44
636.323	43.37
636.654	42.94
636.985	43.39
637.316	43.54
637.647	43.48
637.977	43.4
638.308	43.95
638.639	43.58
638.969	43.93
639.3	44.27
639.63	44.21
639.961	44.21
640.291	43.79
640.622	44.3
640.952	43.44
641.282	43.94
641.612	43.89
641.943	44.6
642.273	44.17
642.603	44.27
642.933	44.27
643.263	44.14
643.592	43.92
643.922	44.42
644.252	44.43
644.582	44.92
644.911	44.71
645.241	44.2
645.571	44.79
645.9	44.61
646.23	44.74
646.559	45.03
646.888	44.73
647.218	44.62
647.547	44.89
647.876	44.61
648.205	44.88
648.534	44.99
648.863	44.93
649.192	45.1
649.521	45.51
649.85	45.24
650.179	44.74
650.508	45.34
650.837	45.55
651.165	45.55
651.494	45.14
651.822	45.45
652.151	45.2
652.479	45.28
652.808	45.39
653.136	45.48
653.465	45.24
653.793	45.46
654.121	45.8
654.449	45.47
654.777	45.19
655.105	45.25
655.433	46.1
655.761	46.7
656.089	45.99
656.417	45.75
656.745	46
657.073	46.49
657.4	46.26
657.728	46.35
658.056	46.26
658.383	45.93
658.711	45.94
659.038	46.13
659.365	46.35
659.693	46.54
660.02	46.4
660.347	46.73
660.674	46.25
661.001	46.39
661.329	46.52
661.656	45.94
661.982	46.07
662.309	46.36
662.636	46.3
662.963	46.7
663.29	46.86
663.616	46.62
663.943	47.2
664.27	46.47
664.596	46.48
664.923	46.52
665.249	47.07
665.576	46.81
665.902	46.95
666.228	47.49
666.554	47.4
666.881	47.03
667.207	46.86
667.533	47
667.859	46.88
668.185	47.52
668.511	47.85
668.837	47.09
669.162	47.36
669.488	47.31
669.814	47.77
670.139	46.93
670.465	47.68
670.791	47.49
671.116	47.28
671.442	47.81
671.767	47.36
672.092	48.35
672.418	47.77
672.743	47.71
673.068	47.21
673.393	47.44
673.718	48.54
674.043	48.19
674.368	47.43
674.693	47.76
675.018	48.13
675.343	48.12
675.667	47.77
675.992	48
676.317	48.46
676.641	48.45
676.966	48.51
677.29	48.26
677.615	48.23
677.939	48.85
678.264	48.72
678.588	48.42
678.912	48.67
679.236	48.14
679.56	48.68
679.885	48.04
680.209	48.41
680.532	48.29
680.856	48.52
681.18	48.75
681.504	48.8
681.828	48.28
682.152	48.48
682.475	48.58
682.799	49.02
683.122	48.94
683.446	48.86
683.769	48.24
684.093	48.97
684.416	48.73
684.739	49.37
685.062	49.32
685.386	49.3
685.709	48.98
686.032	48.97
686.355	48.56
686.678	49.5
687.001	49.86
687.324	49.96
687.646	49.02
687.969	49.55
688.292	49.66
688.614	49.12
688.937	49.31
689.26	48.33
689.582	49.57
689.904	49.66
690.227	49.89
690.549	50.26
690.871	49.13
691.194	49.67
691.516	49.14
691.838	50.1
692.16	48.46
692.482	50.4
692.804	49.76
693.126	49.58
693.448	49.79
693.769	49.07
694.091	50.08
694.413	49.83
694.735	49.59
695.056	50.62
695.378	50.23
695.699	50.11
696.021	49.65
696.342	50.96
696.663	49.52
696.984	50.7
697.306	50.81
697.627	49.69
697.948	50.29
698.269	49.42
698.59	50.74
698.911	49.55
699.232	50.46
699.553	50.43
699.873	50.41
700.194	49.78
700.515	50.08
700.835	50.14
701.156	49.85
701.477	50.06
701.797	49.7
702.117	50.85
702.438	50.41
702.758	50.98
703.078	50.74
703.398	50.81
703.719	51.1
704.039	51.87
704.359	51.25
704.679	50.57
704.999	51.07
705.319	51.18
705.638	50.89
705.958	52.15
706.278	52.75
706.597	52.31
706.917	50.74
707.237	51.61
707.556	50.95
707.876	50.12
708.195	52.21
708.514	51.73
708.834	51.2
709.153	51.97
709.472	51.97
709.791	51.31
710.11	51.94
710.429	51.88
710.748	51.88
711.067	51.64
711.386	51.55
711.705	50.76
712.023	52.12
712.342	52.06
712.661	51.57
712.979	51.68
713.298	53.22
713.616	51.68
713.935	52.55
714.253	52.31
714.572	52.41
714.89	51.58
715.208	52.36
715.526	51.73
715.844	52.88
716.162	51.51
716.48	52.26
716.798	52.36
717.116	52.64
717.434	52.34
717.752	50.22
718.069	51.3
718.387	53.19
718.705	52.65
719.022	52.02
719.34	51.74
719.657	50.98
719.975	53.04
720.292	52.54
720.609	52.02
720.927	53.18
721.244	52.29
721.561	53.29
721.878	53.09
722.195	53.09
722.512	53.86
722.829	53.9
723.146	52.99
723.463	51.1
723.779	53.63
724.096	53.14
724.413	54.77
724.729	53.49
725.046	54.11
725.362	52.58
725.679	52.63
725.995	53.12
726.311	52.26
726.628	51.9
726.944	53.17
727.26	53.88
727.576	54.04
727.892	53.17
728.208	52.49
728.524	53.39
728.84	53.01
729.156	53.75
729.472	53.71
729.787	52.93
730.103	53.89
730.419	54.29
730.734	55.14
731.05	51.32
731.365	51.28
731.681	53.6
731.996	52.35
732.311	54.15
732.626	54.25
732.942	52.7
733.257	52.77
733.572	54.34
733.887	54.66
734.202	52.95
734.517	54.19
734.832	53.48
735.146	54.21
735.461	52.61
735.776	53.82
736.091	53.75
736.405	54.05
736.72	54.07
737.034	52.62
737.349	53.3
737.663	54.46
737.977	54.09
738.292	54.34
738.606	53.64
738.92	54.68
739.234	52.72
739.548	55.28
739.862	52.8
740.176	53.15
740.49	52.86
740.804	55.75
741.117	55.08
741.431	54.8
741.745	55.89
742.058	52.19
742.372	53.76
742.685	55.86
742.999	53.82
743.312	55.98
743.626	55.88
743.939	53.99
744.252	54.18
744.565	55.38
744.878	56.11
745.191	54.55
745.505	53.76
745.817	54.6
746.13	56.22
746.443	53.08
746.756	57.17
747.069	53.37
747.381	54
747.694	54.52
748.007	54.01
748.319	56.23
748.632	54.96
748.944	55.93
749.256	56.89
749.569	56.82
749.881	56.75
750.193	53.99
750.505	56.65
750.817	54
751.129	54.9
751.441	56.17
751.753	55.96
752.065	56.5
752.377	56.03
752.689	55.05
753	52.81
753.312	54.24
753.624	55.96
753.935	56.05
754.247	54.93
754.558	54.11
754.869	53.85
755.181	55.97
755.492	56.27
755.803	56.71
756.114	58.67
756.425	57.82
756.736	58.3
757.047	55.73
757.358	55.62
757.669	55.23
757.98	55.74
758.291	56.04
758.601	53.91
758.912	54.15
759.223	58.07
759.533	58.08
759.844	56.14
760.154	57.87
760.464	56.01
760.775	57.54
761.085	56.13
761.395	55.04
761.705	58.26
762.016	55.91
762.326	56.69
762.636	57.51
762.945	55.46
763.255	55.93
763.565	55.86
763.875	56.97
764.185	58.44
764.494	55.12
764.804	57.3
765.113	57.25
765.423	56.59
765.732	55.93
766.042	57.57
766.351	56.07
766.66	56.91
766.97	56.61
767.279	56.69
767.588	56.39
767.897	57.51
768.206	56.38
768.515	57.81
768.824	56.43
769.133	57.36
769.441	58.26
769.75	57.01
770.059	58.89
770.367	55.07
770.676	57.37
770.984	53.75
771.293	57.48
771.601	57.03
771.91	58.46
772.218	58.88
772.526	60.37
772.834	55.24
773.142	59.15
773.45	56.42
773.758	57.17
774.066	57.8
774.374	56.71
774.682	56.13
774.99	56.13
775.298	60.1
775.605	56.2
775.913	59.18
776.22	57.26
776.528	55.31
776.835	54.37
777.143	61.77
777.45	59.64
777.757	57.57
778.065	55.53
778.372	60.2
778.679	60.17
778.986	57.94
779.293	58.7
779.6	57.27
779.907	61.5
780.214	62.48
780.52	57.29
780.827	55.53
781.134	55.39
781.44	56.77
781.747	61.13
782.053	55.99
782.36	59.88
782.666	58.32
782.973	54.96
783.279	60.26
783.585	57.83
783.891	59.5
784.197	57.37
784.503	56.83
784.809	60.04
785.115	58.78
785.421	57.54
785.727	56.98
786.033	56.2
786.339	54.3
786.644	59.32
786.95	57.03
787.255	60.49
787.561	63.7
787.866	59.25
788.172	54.86
788.477	56.96
788.782	59.55
789.088	59.06
789.393	55.12
789.698	61.54
790.003	60.92
790.308	59.23
790.613	57.22
790.918	60.93
791.223	55.81
791.527	57.36
791.832	58.44
792.137	61.15
792.441	60.82
792.746	56.62
793.05	58.47
793.355	58.51
793.659	63.11
793.963	58.53
794.268	54.38
794.572	61.29
794.876	53.48
795.18	62.43
795.484	53.39
795.788	58.82
796.092	58.17
796.396	62.69
796.7	63.35
797.004	57.3
797.307	61.41
797.611	59.62
797.915	61.61
798.218	55.97
798.522	57.15
798.825	62.45
799.128	59.63
799.432	57.63
799.735	61.03
800.038	61.6
800.341	57.81
800.644	60.64
800.947	59.54
801.25	59.39
801.553	66.31
801.856	63.5
802.159	60.74
802.462	63.66
802.764	62.12
803.067	57.97
803.37	62.28
803.672	63.3
803.975	58.08
804.277	61.11
804.579	65.27
804.882	59.86
805.184	56.43
805.486	61.76
805.788	62.04
806.09	60.36
806.392	61.21
806.694	61.24
806.996	59.32
807.298	61.34
807.6	62.96
807.902	60.47
808.203	66.81
808.505	64.6
808.807	61.45
809.108	64.76
809.409	61.04
809.711	66.27
810.012	61.71
810.313	62.35
810.615	59.88
810.916	59.59
811.217	61.13
811.518	59.62
811.819	63.01
812.12	59.22
812.421	54.65
812.722	62.69
813.023	60.53
813.323	57.31
813.624	72.48
813.925	65.77
814.225	62.35
814.526	60.66
814.826	63.51
815.126	58.94
815.427	65.22
815.727	57.92
816.027	56.41
816.327	59.6
816.627	64.09
816.927	68.92
817.227	61.31
817.527	68.13
817.827	65.62
818.127	68.79
818.427	63.55
818.727	64.43
819.026	61.94
819.326	60.36
819.625	64.97
819.925	60.53
820.224	66.67
820.524	62.9
820.823	62.23
821.122	53.44
821.421	65.1
821.72	62.97
822.019	60
822.318	63.74
822.617	67.29
822.916	65.19
823.215	64.99
823.514	63.76
823.813	64.65
824.111	66.49
824.41	62.83
824.709	62.12
825.007	61.51
825.306	61.75
825.604	61.06
825.902	61.86
826.201	61
826.499	60.44
826.797	62.66
827.095	62.46
827.393	61.5
827.691	61.42
827.989	60.55
828.287	60.87
828.585	63.35
828.882	61.59
829.18	61.98
829.478	61.88
829.775	62.54
830.073	59.83
830.37	61.11
830.668	62.05
830.965	62.07
831.263	59.98
831.56	61.54
831.857	59.85
832.154	64.17
832.451	64.44
832.748	62.19
833.045	66.38
833.342	66.83
833.639	65.35
833.936	63.88
834.232	62.41
834.529	61.8
834.826	61.06
835.122	64.18
835.419	64.25
835.715	60.19
836.012	68.36
836.308	59.79
836.604	65.91
836.901	60.45
837.197	61.69
837.493	63.78
837.789	63
838.085	61.69
838.381	61.76
838.677	58.03
838.972	64.9
839.268	63.84
839.564	66.28
839.86	62.72
840.155	62.99
840.451	64.17
840.746	70.75
841.042	56.95
841.337	65.22
841.632	65.29
841.928	58.86
842.223	70.58
842.518	65.77
842.813	63.51
843.108	51.98
843.403	65.19
843.698	62.38
843.993	58.87
844.287	65.7
844.582	60.68
844.877	67.82
845.171	63.57
845.466	54.83
845.761	59.84
846.055	57.79
846.349	68.89
846.644	62.45
846.938	65.2
847.232	67.82
847.526	72.96
847.82	74.06
848.114	59.57
848.408	63.89
848.702	61.49
848.996	75.85
849.29	73.38
849.584	69.66
849.877	54.77
850.171	61.41
850.465	62.22
850.758	48.88
851.052	57.67
851.345	75
851.638	75.34
851.932	60.69
852.225	68.87
852.518	61.4
852.811	69.66
853.104	50.36
853.397	60.34
853.69	62.46
853.983	73.57
854.276	69.76
854.569	57.09
854.861	75.37
855.154	65.5
855.447	70.87
855.739	67.99
856.032	79.29
856.324	51.09
856.616	94.56
856.909	85.81
857.201	85.52
857.493	68.81
857.785	67.13
858.077	68.3
858.369	70.91
858.661	99.4
858.953	76.43
859.245	86.47
859.537	64.62
859.829	72.37
860.12	65.2
860.412	64.86
860.703	69.6
860.995	89.42
861.286	85.15
861.578	87.79
861.869	54.9
862.16	60.32
862.452	46.19
862.743	57.91
863.034	74.71
863.325	78.02
863.616	73.6
863.907	74.91
864.198	67.96
864.488	56.86
864.779	69.63
865.07	66.29
865.36	65.52
865.651	81.79
865.941	73.09
866.232	90.72
866.522	89.46
866.813	100.01
867.103	75.37
867.393	56.9
867.683	93.1
867.973	67.68
868.263	75.14
868.553	68.34
868.843	74.83
869.133	83.98
869.423	83
869.713	59.36
870.002	83.51
870.292	50.35
870.582	74.11
870.871	54.9
871.161	77.09
871.45	85.73
871.739	69.43
872.029	55.73
872.318	74.02
872.607	31.32
872.896	49.6
873.185	70.03
873.474	64.67
873.763	59.35
874.052	86.48
874.341	66.02
874.63	52.35
874.918	96.75
875.207	76.04
875.496	82.43
875.784	36.27
876.073	57.62
876.361	60.87
876.649	59.9
876.938	84.82
877.226	79.97
877.514	64.83
877.802	47.6
878.09	73.85
878.378	82.71
878.666	74.66
878.954	68.19
879.242	58.33
879.53	64.06
879.817	118.79
880.105	28.63
880.392	124.93
880.68	64.52
880.967	80
881.255	88.39
881.542	71.89
881.83	86.19
882.117	59.76
882.404	65.06
882.691	57.48
882.978	61.51
883.265	69
883.552	74.08
883.839	108.76
884.126	62.49
884.413	71.24
884.699	81.96
884.986	67.54
885.273	65.13
885.559	65.13
885.846	65.13
