Data from 0215_forehead_Reflection__1__216.txt Node

Date: Fri Sep 22 22:33:37 CDT 2023
User: ToomeyLab
Spectrometer: FLMS14357
Trigger mode: 0
Integration Time (sec): 1.000000E-2
Scans to average: 100
Electric dark correction enabled: true
Nonlinearity correction enabled: false
Boxcar width: 0
XAxis mode: Wavelengths
Number of Pixels in Spectrum: 2048
>>>>>Begin Spectral Data<<<<<
189.047	-1085.61
189.435	-1085.61
189.823	-1085.61
190.211	-19.55
190.599	-69.97
190.987	-186.07
191.375	126.69
191.763	-120.22
192.151	52.49
192.538	394.74
192.926	49.12
193.314	29.63
193.702	-317.68
194.089	50.55
194.477	-92.61
194.864	-1909.3
195.252	34.46
195.639	-36.21
196.027	178.45
196.414	-269.84
196.801	900
197.189	-55.1
197.576	620.28
197.963	2.09
198.351	-2.17
198.738	58.17
199.125	76.06
199.512	53.02
199.899	57
200.286	87.05
200.673	57.97
201.06	102.91
201.447	48.74
201.833	5.19
202.22	66.95
202.607	33.83
202.994	77.68
203.38	71.43
203.767	28.73
204.154	72.85
204.54	46.72
204.927	68.91
205.313	54.48
205.699	90.77
206.086	39.76
206.472	54.83
206.858	52.43
207.245	49.37
207.631	68.96
208.017	96.1
208.403	93.48
208.789	52.16
209.175	47.99
209.561	36.54
209.947	58.65
210.333	44.05
210.719	8.17
211.105	63.11
211.491	45.77
211.876	50.7
212.262	59.54
212.648	48.79
213.034	40.19
213.419	45.3
213.805	24.54
214.19	47.13
214.576	54.1
214.961	40
215.346	18.44
215.732	42.35
216.117	20.31
216.502	61.25
216.888	40.66
217.273	42.98
217.658	22.12
218.043	38.35
218.428	71.52
218.813	-8.13
219.198	35.9
219.583	32.56
219.968	17.83
220.353	46.41
220.738	5.74
221.122	31.66
221.507	24.5
221.892	12.26
222.276	25.5
222.661	-25.96
223.046	32.96
223.43	29.89
223.815	8.15
224.199	2.52
224.583	30.38
224.968	16.3
225.352	7.67
225.736	17.57
226.121	16.92
226.505	15.06
226.889	15.59
227.273	5.56
227.657	4.75
228.041	9.88
228.425	11.01
228.809	7.68
229.193	7.67
229.577	8.17
229.961	6.27
230.344	6.79
230.728	3.67
231.112	4.75
231.495	4.01
231.879	3.84
232.263	4.51
232.646	4.52
233.03	4.84
233.413	4.85
233.797	4.41
234.18	4.87
234.563	9.27
234.946	9.27
235.33	4.97
235.713	5.43
236.096	5.59
236.479	4.45
236.862	5.98
237.245	5.88
237.628	5.69
238.011	4.84
238.394	4.91
238.777	6.21
239.16	7.47
239.543	9.01
239.925	6.75
240.308	5.7
240.691	6.37
241.073	5.67
241.456	5.04
241.838	5.4
242.221	3.57
242.603	3.76
242.986	3.62
243.368	3.89
243.75	4.33
244.133	4.29
244.515	3.7
244.897	2.85
245.279	3.15
245.661	3.22
246.043	3.56
246.425	3.83
246.807	4.83
247.189	2.47
247.571	4.22
247.953	3.93
248.335	3.56
248.717	3.69
249.098	3.57
249.48	3.3
249.862	3.47
250.243	3.72
250.625	3.74
251.006	3.27
251.388	3.66
251.769	4.61
252.151	4.18
252.532	5.71
252.913	5.41
253.295	5.55
253.676	4.91
254.057	4.36
254.438	4.24
254.819	3.46
255.2	4.1
255.581	4.14
255.962	4.67
256.343	3.8
256.724	4.58
257.105	4.83
257.486	4.5
257.867	4.71
258.247	5.27
258.628	3.94
259.009	3.88
259.389	3.86
259.77	4.72
260.15	5.16
260.531	3.53
260.911	3.51
261.292	3.64
261.672	3.3
262.052	3.56
262.432	3.59
262.813	3.55
263.193	3.26
263.573	3.92
263.953	4.39
264.333	3.51
264.713	3.52
265.093	3.02
265.473	3.98
265.853	3.75
266.233	4
266.612	4.73
266.992	5.82
267.372	4.81
267.752	4.58
268.131	3.69
268.511	3.63
268.89	4.02
269.27	3.28
269.649	3.8
270.029	3.61
270.408	3.27
270.787	3.36
271.167	4.25
271.546	3.52
271.925	3.86
272.304	3.14
272.683	4.14
273.062	4.21
273.441	3.84
273.82	3.85
274.199	4.02
274.578	3.64
274.957	3.75
275.336	3.59
275.715	3.81
276.093	3.24
276.472	2.97
276.851	3.96
277.229	2.87
277.608	3.65
277.986	3.73
278.365	3.89
278.743	3.67
279.122	4.18
279.5	4.22
279.878	3.42
280.257	4.56
280.635	3.79
281.013	4.24
281.391	3.72
281.769	3.96
282.147	3.77
282.525	3.32
282.903	3.75
283.281	4.39
283.659	4.12
284.037	3.58
284.415	3.98
284.792	3.54
285.17	3.82
285.548	4.25
285.925	3.79
286.303	3.6
286.68	3.28
287.058	2.8
287.435	3.86
287.813	3.72
288.19	3.26
288.567	3.61
288.945	3.53
289.322	3.74
289.699	3.65
290.076	3.77
290.453	3.37
290.83	3.65
291.207	3.69
291.584	3.16
291.961	3.93
292.338	3.72
292.715	3.76
293.092	3.49
293.469	3.89
293.845	4
294.222	3.84
294.599	3.92
294.975	4.44
295.352	4.14
295.728	3.96
296.105	4.35
296.481	3.87
296.858	3.83
297.234	4.05
297.61	4.04
297.986	4.05
298.363	3.73
298.739	4.39
299.115	4.08
299.491	4.25
299.867	4.33
300.243	4.28
300.619	4.55
300.995	4.02
301.371	4.67
301.746	4.91
302.122	4.48
302.498	3.94
302.874	4.1
303.249	4.21
303.625	4.58
304	4.74
304.376	4.71
304.751	4.51
305.127	4.48
305.502	5.22
305.878	5.27
306.253	5.05
306.628	4.72
307.003	5.52
307.378	5.03
307.754	4.94
308.129	5.38
308.504	4.78
308.879	5.06
309.254	5.51
309.629	5.56
310.003	5.35
310.378	5.61
310.753	5.64
311.128	5.45
311.502	5.41
311.877	4.74
312.252	5.45
312.626	5.59
313.001	5.94
313.375	5.69
313.75	5.76
314.124	5.72
314.498	5.45
314.873	5.75
315.247	5.87
315.621	6.09
315.995	6.15
316.369	5.95
316.743	6.65
317.117	5.67
317.491	6.35
317.865	6.16
318.239	5.67
318.613	6.19
318.987	6.24
319.361	6.06
319.734	6.1
320.108	6.62
320.482	6.19
320.855	6.31
321.229	7.06
321.602	6.75
321.976	6.56
322.349	6.4
322.723	6.88
323.096	6.57
323.469	7.18
323.843	6.52
324.216	6.99
324.589	7.18
324.962	6.08
325.335	6.47
325.708	6.75
326.081	7.44
326.454	6.57
326.827	7.26
327.2	7.24
327.573	7.55
327.945	7.16
328.318	7.61
328.691	7.61
329.063	6.71
329.436	7.34
329.809	7.39
330.181	7.64
330.553	7.66
330.926	7.32
331.298	7.74
331.671	7.89
332.043	7.6
332.415	7.76
332.787	8.15
333.159	7.66
333.532	7.88
333.904	8.03
334.276	7.17
334.648	7.59
335.02	8.18
335.391	7.65
335.763	8.24
336.135	7.74
336.507	8.08
336.879	7.88
337.25	7.96
337.622	8.24
337.993	8.05
338.365	8.9
338.736	8.27
339.108	7.7
339.479	8.23
339.851	8.11
340.222	7.67
340.593	8.56
340.964	8.38
341.336	8.38
341.707	8.62
342.078	8.24
342.449	8.62
342.82	8.35
343.191	8.28
343.562	8.37
343.933	8.53
344.303	8.57
344.674	8.78
345.045	8.89
345.416	9.5
345.786	8.51
346.157	8.63
346.527	8.89
346.898	8.77
347.268	8.66
347.639	8.93
348.009	8.89
348.38	9.01
348.75	9.37
349.12	8.54
349.49	9.52
349.861	9.04
350.231	9.23
350.601	9.63
350.971	9.15
351.341	8.87
351.711	9.1
352.081	9.58
352.45	9.26
352.82	9.5
353.19	9.79
353.56	9.34
353.929	9.63
354.299	9.86
354.669	9.64
355.038	9.2
355.408	9.57
355.777	9.6
356.147	9.53
356.516	9.75
356.885	9.7
357.254	9.82
357.624	9.29
357.993	10.15
358.362	9.72
358.731	9.55
359.1	9.67
359.469	9.79
359.838	9.79
360.207	9.74
360.576	10.14
360.945	10.18
361.314	9.94
361.682	10.13
362.051	10.25
362.42	10.27
362.788	9.82
363.157	10.26
363.525	9.86
363.894	10.09
364.262	10.25
364.631	10.17
364.999	10.04
365.367	10.39
365.735	10.51
366.104	10.45
366.472	10.65
366.84	10.53
367.208	10.46
367.576	10.53
367.944	10.5
368.312	11.1
368.68	10.85
369.048	10.78
369.416	10.91
369.783	10.44
370.151	10.61
370.519	10.66
370.886	10.95
371.254	11.14
371.621	10.82
371.989	10.78
372.356	11.26
372.724	11.4
373.091	11.16
373.458	11.12
373.826	11.42
374.193	11.5
374.56	11.21
374.927	11.24
375.294	10.89
375.661	10.95
376.028	11.03
376.395	11.58
376.762	11.39
377.129	12.06
377.496	11.82
377.863	11.62
378.229	11.75
378.596	11.75
378.963	12
379.329	11.84
379.696	11.99
380.062	11.65
380.429	11.58
380.795	11.7
381.161	11.71
381.528	12.07
381.894	11.41
382.26	11.85
382.626	11.96
382.993	12.2
383.359	11.86
383.725	12.39
384.091	12.12
384.457	12.15
384.823	12.46
385.188	12.34
385.554	12.57
385.92	12.48
386.286	12.47
386.651	12.26
387.017	12.5
387.383	12.4
387.748	12.23
388.114	12.48
388.479	12.72
388.845	12.58
389.21	12.49
389.575	12.64
389.94	12.67
390.306	12.96
390.671	12.89
391.036	12.6
391.401	12.76
391.766	12.88
392.131	12.9
392.496	12.88
392.861	12.83
393.226	12.97
393.591	13.16
393.956	13.07
394.32	13.06
394.685	13.06
395.05	13.46
395.414	13.13
395.779	13.43
396.143	13.3
396.508	13.23
396.872	13.33
397.236	13.59
397.601	13.34
397.965	13.63
398.329	13.41
398.694	13.22
399.058	13.57
399.422	13.53
399.786	13.75
400.15	14.02
400.514	13.83
400.878	13.79
401.242	14.01
401.605	14
401.969	13.71
402.333	13.95
402.697	13.95
403.06	13.86
403.424	13.88
403.787	14.25
404.151	14.04
404.514	14.46
404.878	14.32
405.241	14.43
405.604	14.09
405.968	14.23
406.331	14.17
406.694	14.3
407.057	14.28
407.42	14.13
407.783	14.34
408.146	14.26
408.509	14.3
408.872	14.27
409.235	14.33
409.598	14.42
409.961	14.65
410.323	14.8
410.686	14.68
411.049	14.58
411.411	14.79
411.774	14.87
412.136	14.6
412.499	14.71
412.861	14.97
413.223	14.85
413.586	14.93
413.948	14.82
414.31	15.04
414.672	15.09
415.035	15.05
415.397	15.22
415.759	15.46
416.121	15.35
416.483	15.18
416.845	15.22
417.206	15.28
417.568	15.16
417.93	15.15
418.292	15.32
418.653	15.11
419.015	15.38
419.377	15.34
419.738	15.44
420.1	15.23
420.461	15.32
420.822	15.24
421.184	15.26
421.545	15.45
421.906	15.35
422.267	15.35
422.629	15.43
422.99	15.46
423.351	15.4
423.712	15.23
424.073	15.3
424.434	15.48
424.795	15.67
425.155	15.74
425.516	15.63
425.877	15.65
426.238	15.45
426.598	15.49
426.959	15.7
427.32	15.79
427.68	15.75
428.041	15.89
428.401	16.03
428.761	16.28
429.122	16.15
429.482	16.11
429.842	16.12
430.202	16.26
430.563	16.2
430.923	16.53
431.283	16.45
431.643	16.62
432.003	16.52
432.363	16.62
432.722	16.72
433.082	16.61
433.442	16.88
433.802	16.89
434.161	16.85
434.521	16.91
434.881	16.81
435.24	16.6
435.6	16.71
435.959	16.77
436.319	16.72
436.678	16.9
437.037	16.94
437.396	17.13
437.756	17.15
438.115	17.14
438.474	17.2
438.833	17.3
439.192	17.4
439.551	17.35
439.91	17.36
440.269	17.35
440.628	17.24
440.987	17.29
441.345	17.41
441.704	17.3
442.063	17.44
442.421	17.35
442.78	17.38
443.138	17.33
443.497	17.37
443.855	17.48
444.214	17.5
444.572	17.74
444.93	17.59
445.288	17.79
445.647	17.99
446.005	17.81
446.363	17.87
446.721	18.02
447.079	17.92
447.437	17.98
447.795	17.98
448.153	17.71
448.51	17.83
448.868	17.83
449.226	17.9
449.584	17.94
449.941	17.78
450.299	18.13
450.656	18.12
451.014	18.13
451.371	18.37
451.729	18.44
452.086	18.56
452.443	18.52
452.801	18.66
453.158	18.56
453.515	18.7
453.872	18.63
454.229	18.72
454.586	18.67
454.943	18.84
455.3	18.93
455.657	18.74
456.014	18.85
456.371	19.01
456.727	19.25
457.084	19.06
457.441	19.05
457.797	19.09
458.154	19.28
458.51	19
458.867	19.25
459.223	19.29
459.58	19.48
459.936	19.34
460.292	19.34
460.648	19.38
461.005	19.4
461.361	19.39
461.717	19.13
462.073	19.12
462.429	19.01
462.785	18.98
463.141	19.37
463.496	19.53
463.852	19.68
464.208	19.58
464.564	19.81
464.919	19.92
465.275	20.21
465.631	20.29
465.986	20.03
466.342	20.01
466.697	20.12
467.052	20.04
467.408	20.07
467.763	20.01
468.118	20.29
468.473	20.28
468.829	20.33
469.184	20.22
469.539	20.37
469.894	20.3
470.249	20.66
470.603	20.44
470.958	20.46
471.313	20.56
471.668	20.58
472.023	20.55
472.377	20.61
472.732	20.61
473.086	20.95
473.441	20.63
473.795	21.01
474.15	20.7
474.504	20.92
474.859	20.95
475.213	20.85
475.567	20.69
475.921	21
476.275	21
476.63	20.94
476.984	21.18
477.338	21.33
477.692	21.23
478.045	21.5
478.399	21.43
478.753	21.2
479.107	21.38
479.461	21.33
479.814	21.41
480.168	21.32
480.521	21.52
480.875	21.37
481.228	21.61
481.582	21.5
481.935	21.44
482.289	21.47
482.642	21.48
482.995	21.54
483.348	21.67
483.701	21.62
484.055	21.64
484.408	21.48
484.761	21.32
485.114	21.31
485.466	21.11
485.819	20.75
486.172	20.82
486.525	20.79
486.878	20.8
487.23	20.91
487.583	21.02
487.936	21.26
488.288	21.47
488.641	21.57
488.993	21.47
489.345	21.36
489.698	21.41
490.05	21.4
490.402	21.35
490.754	21.39
491.107	21.43
491.459	21.76
491.811	21.87
492.163	22.02
492.515	22.13
492.866	22.33
493.218	22.22
493.57	22.05
493.922	21.89
494.274	21.91
494.625	21.9
494.977	22.04
495.328	22.33
495.68	22.69
496.031	22.7
496.383	22.93
496.734	22.98
497.086	23.08
497.437	23.13
497.788	23.13
498.139	23.3
498.49	23.42
498.842	23.02
499.193	23.2
499.544	23.15
499.894	23.22
500.245	23.32
500.596	23.27
500.947	23.4
501.298	23.44
501.648	23.53
501.999	23.56
502.35	23.75
502.7	23.81
503.051	23.95
503.401	24.01
503.752	23.81
504.102	24.02
504.452	23.88
504.803	24.22
505.153	24.12
505.503	24.15
505.853	24.11
506.203	24.11
506.553	24.26
506.903	24.34
507.253	24.21
507.603	24.37
507.953	24.42
508.303	24.42
508.652	24.52
509.002	24.62
509.352	24.66
509.701	24.57
510.051	24.62
510.4	24.65
510.75	24.55
511.099	24.58
511.449	24.47
511.798	24.74
512.147	24.65
512.496	24.69
512.846	24.84
513.195	24.76
513.544	25.03
513.893	24.91
514.242	24.86
514.591	25.05
514.939	24.97
515.288	24.88
515.637	24.9
515.986	25.21
516.334	25.24
516.683	25.23
517.032	25.4
517.38	25.55
517.729	25.54
518.077	25.54
518.426	25.53
518.774	25.69
519.122	25.53
519.47	25.49
519.819	25.65
520.167	25.46
520.515	25.49
520.863	25.4
521.211	25.35
521.559	25.37
521.907	25.49
522.255	25.41
522.602	25.73
522.95	25.78
523.298	26.01
523.645	26.04
523.993	26.09
524.341	26.19
524.688	26.22
525.036	26.14
525.383	26.5
525.73	26.5
526.078	26.38
526.425	26.36
526.772	26.45
527.119	26.21
527.466	26.11
527.814	26.17
528.161	26.07
528.508	26.21
528.854	26.16
529.201	26.23
529.548	26.22
529.895	26.19
530.242	26.11
530.588	25.86
530.935	25.76
531.282	25.92
531.628	25.81
531.975	25.92
532.321	25.94
532.667	26.19
533.014	26.48
533.36	26.58
533.706	26.71
534.052	26.88
534.399	26.75
534.745	26.95
535.091	26.66
535.437	26.74
535.783	26.55
536.129	26.66
536.474	26.65
536.82	26.67
537.166	26.98
537.512	27.17
537.857	27.24
538.203	27.27
538.549	27.48
538.894	27.27
539.239	27.35
539.585	27.28
539.93	27.48
540.276	27.46
540.621	27.76
540.966	27.93
541.311	28.12
541.656	27.97
542.001	28.21
542.346	28.14
542.691	28
543.036	27.84
543.381	27.58
543.726	27.49
544.071	27.55
544.415	27.5
544.76	27.56
545.105	27.62
545.449	27.75
545.794	27.95
546.138	28.11
546.483	28.25
546.827	28.21
547.171	28.42
547.516	28.54
547.86	28.75
548.204	28.81
548.548	28.93
548.892	28.77
549.236	28.54
549.58	28.7
549.924	28.8
550.268	29.03
550.612	29.07
550.956	29.31
551.3	29.21
551.643	29.31
551.987	29.57
552.33	29.72
552.674	29.59
553.017	29.79
553.361	29.73
553.704	30.01
554.048	29.81
554.391	29.96
554.734	29.99
555.077	29.74
555.42	29.75
555.764	29.69
556.107	29.99
556.45	29.96
556.793	29.97
557.135	30.15
557.478	30.34
557.821	30.36
558.164	30.56
558.507	30.45
558.849	30.29
559.192	30.82
559.534	30.66
559.877	30.45
560.219	30.71
560.562	30.59
560.904	30.67
561.246	30.84
561.589	30.89
561.931	30.97
562.273	30.94
562.615	30.86
562.957	31.04
563.299	31
563.641	31.01
563.983	31.09
564.325	31.22
564.667	31.14
565.008	30.92
565.35	31.32
565.692	31.29
566.033	31.4
566.375	31.43
566.716	31.32
567.058	31.29
567.399	31.63
567.741	31.63
568.082	31.5
568.423	31.58
568.764	31.63
569.105	31.33
569.447	31.18
569.788	31.27
570.129	31.83
570.47	31.62
570.811	31.85
571.151	31.97
571.492	31.74
571.833	31.82
572.174	31.88
572.514	32.09
572.855	31.95
573.195	31.73
573.536	31.97
573.876	31.98
574.217	31.89
574.557	31.92
574.898	32.02
575.238	32.02
575.578	32.07
575.918	32.08
576.258	32.16
576.598	32.15
576.938	32.47
577.278	32.5
577.618	32.32
577.958	32.53
578.298	32.66
578.638	32.47
578.977	32.56
579.317	32.59
579.657	32.84
579.996	33.17
580.336	33.2
580.675	32.89
581.014	33.12
581.354	32.96
581.693	33.45
582.032	33.24
582.372	33.43
582.711	33.91
583.05	33.52
583.389	33.27
583.728	33.48
584.067	33.65
584.406	33.69
584.745	33.64
585.083	33.78
585.422	33.88
585.761	33.91
586.1	34.02
586.438	34.02
586.777	33.59
587.115	34.09
587.454	33.96
587.792	34.25
588.13	34.03
588.469	33.88
588.807	34.25
589.145	34.16
589.483	34.28
589.821	34.15
590.159	34.57
590.497	34.36
590.835	34.41
591.173	34.38
591.511	34.57
591.849	34.76
592.187	34.5
592.524	34.61
592.862	34.5
593.2	34.75
593.537	34.7
593.875	34.75
594.212	34.68
594.55	34.89
594.887	34.95
595.224	35.04
595.561	35.06
595.899	35.06
596.236	35.22
596.573	35.23
596.91	34.94
597.247	35.24
597.584	35.3
597.921	35.14
598.258	35.45
598.594	35.15
598.931	34.86
599.268	34.97
599.604	34.82
599.941	35.06
600.277	34.82
600.614	35.05
600.95	35.4
601.287	35.42
601.623	35.55
601.959	35.55
602.296	35.74
602.632	35.71
602.968	36.19
603.304	36.2
603.64	35.58
603.976	35.92
604.312	35.79
604.648	35.89
604.984	35.93
605.319	36.01
605.655	36.08
605.991	35.75
606.326	36.09
606.662	35.76
606.998	35.82
607.333	35.86
607.668	35.57
608.004	35.95
608.339	35.8
608.674	36.28
609.01	36.26
609.345	36.39
609.68	36.32
610.015	36.17
610.35	36.71
610.685	36.34
611.02	36.61
611.355	36.9
611.689	36.46
612.024	36.38
612.359	36.23
612.694	36.42
613.028	36.54
613.363	36.78
613.697	36.83
614.032	37.06
614.366	36.88
614.7	36.8
615.035	37.02
615.369	37.05
615.703	36.66
616.037	36.88
616.371	37.6
616.705	37.78
617.039	37.32
617.373	37.68
617.707	37.4
618.041	37.5
618.375	37.61
618.709	37.23
619.042	37.77
619.376	37.53
619.71	37.9
620.043	37.82
620.377	37.38
620.71	37.59
621.043	37.72
621.377	37.66
621.71	37.58
622.043	37.8
622.376	38.18
622.709	38.3
623.043	38.01
623.376	38.18
623.709	37.8
624.041	37.98
624.374	38.58
624.707	38.5
625.04	38.48
625.373	38.09
625.705	38.45
626.038	38.22
626.37	39.02
626.703	38.36
627.035	38.35
627.368	38.76
627.7	38.62
628.032	38.45
628.365	38.41
628.697	38.93
629.029	38.5
629.361	38.64
629.693	38.53
630.025	38.83
630.357	38.55
630.689	38.68
631.021	38.65
631.353	38.94
631.684	39.04
632.016	38.95
632.348	38.67
632.679	38.91
633.011	38.98
633.342	38.52
633.674	39.64
634.005	39
634.336	39.25
634.668	39.44
634.999	39.07
635.33	38.88
635.661	39.17
635.992	39.47
636.323	39.54
636.654	38.89
636.985	39.22
637.316	39.36
637.647	39.32
637.977	39.14
638.308	39.44
638.639	39.06
638.969	39.34
639.3	39.46
639.63	40.15
639.961	39.5
640.291	39.5
640.622	39.93
640.952	39.72
641.282	39.82
641.612	39.94
641.943	39.91
642.273	39.87
642.603	40.16
642.933	40.08
643.263	40.09
643.592	39.86
643.922	40.14
644.252	40.01
644.582	40.38
644.911	40.17
645.241	40.43
645.571	40.28
645.9	40.41
646.23	40.42
646.559	40.41
646.888	40.74
647.218	39.94
647.547	40.56
647.876	40.42
648.205	40.68
648.534	40.65
648.863	40.49
649.192	40.22
649.521	41.1
649.85	41.05
650.179	40.47
650.508	40.6
650.837	40.49
651.165	41.1
651.494	40.58
651.822	41.16
652.151	40.52
652.479	41.66
652.808	40.77
653.136	41.38
653.465	40.98
653.793	40.4
654.121	40.9
654.449	40.87
654.777	41.13
655.105	40.95
655.433	41.47
655.761	41.52
656.089	41.01
656.417	41.17
656.745	41.34
657.073	41.78
657.4	41.73
657.728	41.61
658.056	41.76
658.383	41.36
658.711	41.72
659.038	41.01
659.365	41.76
659.693	41.94
660.02	42.06
660.347	42.3
660.674	41.23
661.001	41.58
661.329	41.8
661.656	41.53
661.982	41.53
662.309	42.05
662.636	41.35
662.963	42
663.29	42.08
663.616	41.38
663.943	41.96
664.27	42.08
664.596	41.38
664.923	41.84
665.249	42.3
665.576	41.7
665.902	41.87
666.228	42.46
666.554	41.41
666.881	42.89
667.207	41.5
667.533	41.81
667.859	42.45
668.185	42.54
668.511	42.83
668.837	42.1
669.162	42.5
669.488	42.59
669.814	42.92
670.139	42.8
670.465	42.85
670.791	42.76
671.116	42.82
671.442	42.88
671.767	42.06
672.092	42.98
672.418	43.04
672.743	43.5
673.068	42.61
673.393	43.22
673.718	43.21
674.043	43.23
674.368	43.11
674.693	42.58
675.018	42.84
675.343	42.95
675.667	43.51
675.992	42.4
676.317	43.48
676.641	43.01
676.966	43.64
677.29	43.69
677.615	43.62
677.939	43.74
678.264	43.59
678.588	43.54
678.912	43.88
679.236	43.03
679.56	42.91
679.885	43.59
680.209	43.6
680.532	42.89
680.856	43.36
681.18	43.33
681.504	43.54
681.828	43.6
682.152	43.79
682.475	44.03
682.799	43.34
683.122	44.37
683.446	44.49
683.769	43.14
684.093	43.96
684.416	44.18
684.739	44.08
685.062	44.36
685.386	43.75
685.709	43.62
686.032	43.7
686.355	44.44
686.678	43.8
687.001	44.45
687.324	45.06
687.646	43.96
687.969	44.32
688.292	44.69
688.614	44.5
688.937	43.75
689.26	43.73
689.582	44.88
689.904	45.17
690.227	44.36
690.549	43.96
690.871	43.86
691.194	44.25
691.516	44.5
691.838	44.33
692.16	44.54
692.482	45.13
692.804	44.48
693.126	44.76
693.448	44.88
693.769	44.13
694.091	44.61
694.413	44.57
694.735	43.87
695.056	44.94
695.378	45.42
695.699	45.09
696.021	44.88
696.342	45.56
696.663	44.86
696.984	45
697.306	44.56
697.627	44.69
697.948	44.72
698.269	44.57
698.59	45.15
698.911	45.2
699.232	45.63
699.553	45.21
699.873	45.06
700.194	44.64
700.515	44.81
700.835	45.59
701.156	44.96
701.477	45.55
701.797	44.68
702.117	45.39
702.438	45.11
702.758	44.93
703.078	45.32
703.398	45.64
703.719	45.45
704.039	45.68
704.359	44.8
704.679	45.03
704.999	45.87
705.319	45.87
705.638	45.77
705.958	46.12
706.278	46.28
706.597	46.3
706.917	46.48
707.237	45.98
707.556	45.54
707.876	44.75
708.195	46.47
708.514	47.44
708.834	46.92
709.153	46.49
709.472	45.98
709.791	45.89
710.11	46.01
710.429	45.86
710.748	46.5
711.067	46.48
711.386	46.19
711.705	45.67
712.023	47.01
712.342	47.21
712.661	46.67
712.979	45.26
713.298	46.38
713.616	45.54
713.935	46.87
714.253	46.81
714.572	47.24
714.89	47.05
715.208	45.99
715.526	46.72
715.844	46.93
716.162	45.99
716.48	46.94
716.798	46.36
717.116	46.93
717.434	46.59
717.752	46.8
718.069	46.01
718.387	46.78
718.705	47.29
719.022	46.68
719.34	46.7
719.657	45.84
719.975	46.97
720.292	46.36
720.609	47.4
720.927	46.7
721.244	46.97
721.561	47.43
721.878	46.84
722.195	46.98
722.512	47.4
722.829	47.77
723.146	47.43
723.463	46.7
723.779	46.49
724.096	46.24
724.413	47.98
724.729	48.91
725.046	48.11
725.362	47.4
725.679	47.79
725.995	48.89
726.311	46.17
726.628	46.4
726.944	46.77
727.26	49.06
727.576	46.88
727.892	46.8
728.208	46.71
728.524	48.34
728.84	47.74
729.156	47.88
729.472	48.25
729.787	46.59
730.103	46.8
730.419	48.51
730.734	47.7
731.05	46.57
731.365	46.92
731.681	47.01
731.996	47.22
732.311	48.86
732.626	46.79
732.942	48.94
733.257	48.36
733.572	48.16
733.887	48.16
734.202	47.69
734.517	47.97
734.832	47.86
735.146	47.67
735.461	48.31
735.776	48.16
736.091	47.07
736.405	48.07
736.72	46.98
737.034	47.59
737.349	48.88
737.663	46.05
737.977	48.23
738.292	48.62
738.606	48.17
738.92	47.91
739.234	47.66
739.548	48.48
739.862	46.5
740.176	47.01
740.49	48.12
740.804	49.35
741.117	48.92
741.431	47.77
741.745	50.45
742.058	48.44
742.372	47.56
742.685	49.33
742.999	46.61
743.312	51.3
743.626	47.72
743.939	47.13
744.252	47.87
744.565	47.95
744.878	50.02
745.191	49.15
745.505	48.92
745.817	48.96
746.13	49.8
746.443	47.81
746.756	48.58
747.069	50.27
747.381	48.7
747.694	51.81
748.007	48.47
748.319	49.22
748.632	49.52
748.944	49.34
749.256	51.07
749.569	48.72
749.881	49.33
750.193	48.74
750.505	50.13
750.817	48.8
751.129	49.76
751.441	50.94
751.753	49.63
752.065	48.96
752.377	49.62
752.689	46.83
753	47.56
753.312	47
753.624	48.33
753.935	50.02
754.247	48.69
754.558	48.78
754.869	49.03
755.181	49.64
755.492	48.44
755.803	50.75
756.114	49.91
756.425	49.89
756.736	50.38
757.047	50.01
757.358	48.17
757.669	48.47
757.98	50.2
758.291	49.21
758.601	50.56
758.912	50.99
759.223	51.07
759.533	50.57
759.844	51.35
760.154	50.57
760.464	49.74
760.775	50.44
761.085	49.41
761.395	52.24
761.705	50.02
762.016	49.04
762.326	47.89
762.636	49.55
762.945	47.27
763.255	51.67
763.565	49.73
763.875	49.83
764.185	51.59
764.494	49.82
764.804	48.17
765.113	50.27
765.423	50.56
765.732	49.48
766.042	49.4
766.351	49.91
766.66	51.86
766.97	50.05
767.279	49.46
767.588	49.24
767.897	50.18
768.206	49.89
768.515	49.14
768.824	51.35
769.133	50.95
769.441	50.9
769.75	51.2
770.059	51.97
770.367	48.84
770.676	50.78
770.984	49.28
771.293	50.65
771.601	51.93
771.91	52.29
772.218	52.34
772.526	49.92
772.834	54.28
773.142	50.95
773.45	52.49
773.758	50.48
774.066	48.86
774.374	51.33
774.682	50.46
774.99	47.79
775.298	51.93
775.605	51.69
775.913	50.55
776.22	50.34
776.528	48.46
776.835	51.44
777.143	54.41
777.45	49.51
777.757	48.99
778.065	53.82
778.372	53.68
778.679	49.73
778.986	50.62
779.293	50.12
779.6	53.28
779.907	53.64
780.214	52.6
780.52	51.9
780.827	52.05
781.134	51.57
781.44	48.6
781.747	49.91
782.053	51
782.36	54.89
782.666	53.61
782.973	51.8
783.279	53.24
783.585	51.66
783.891	52.55
784.197	53.01
784.503	50.74
784.809	48.69
785.115	49.3
785.421	53.17
785.727	50.15
786.033	53.58
786.339	53.47
786.644	51.39
786.95	51.6
787.255	53.93
787.561	53.24
787.866	51.99
788.172	49.88
788.477	52.32
788.782	48.9
789.088	50.67
789.393	49.22
789.698	54.95
790.003	56.48
790.308	50.45
790.613	52.29
790.918	57.21
791.223	51.88
791.527	51.29
791.832	50.05
792.137	49.62
792.441	52.52
792.746	50.31
793.05	51.45
793.355	53.82
793.659	53.64
793.963	56.16
794.268	50.88
794.572	51.8
794.876	50.96
795.18	53.28
795.484	50.2
795.788	52.34
796.092	47.88
796.396	48.48
796.7	54.15
797.004	54.11
797.307	51.55
797.611	49.8
797.915	50.35
798.218	51.28
798.522	53.17
798.825	54.49
799.128	51.49
799.432	57.12
799.735	47.77
800.038	54.5
800.341	54.31
800.644	53.59
800.947	56.7
801.25	55.33
801.553	53.4
801.856	52.88
802.159	50.42
802.462	53.26
802.764	49.32
803.067	52.49
803.37	55.99
803.672	56.24
803.975	49.21
804.277	56.66
804.579	52.69
804.882	53.27
805.184	52.38
805.486	54.44
805.788	55.03
806.09	58.68
806.392	50.4
806.694	53.67
806.996	48.35
807.298	54.57
807.6	53.19
807.902	54.85
808.203	49.37
808.505	50.26
808.807	53.98
809.108	59.67
809.409	55.6
809.711	54.56
810.012	52.25
810.313	52.97
810.615	56.61
810.916	52.26
811.217	51.63
811.518	55.66
811.819	55.76
812.12	46.88
812.421	56
812.722	49.38
813.023	49.78
813.323	50.96
813.624	54.51
813.925	63.22
814.225	53.01
814.526	49.41
814.826	60.35
815.126	53.83
815.427	57.75
815.727	52.19
816.027	52.07
816.327	54.92
816.627	49.94
816.927	54.79
817.227	56.37
817.527	50.42
817.827	47.44
818.127	58.7
818.427	54.1
818.727	51.97
819.026	62.31
819.326	59.5
819.625	54.7
819.925	55.38
820.224	58.16
820.524	52.67
820.823	53.76
821.122	49.68
821.421	57.12
821.72	55.09
822.019	51.67
822.318	60.49
822.617	54.8
822.916	55
823.215	52.97
823.514	53.58
823.813	53.98
824.111	54.81
824.41	51.72
824.709	51.09
825.007	53.62
825.306	53.1
825.604	53
825.902	52.83
826.201	52.14
826.499	51.54
826.797	51.41
827.095	51.59
827.393	50.95
827.691	51.88
827.989	49.75
828.287	51.63
828.585	52.04
828.882	52.61
829.18	55.46
829.478	50.36
829.775	53.88
830.073	52.77
830.37	52.5
830.668	51.21
830.965	52.76
831.263	51.48
831.56	49.64
831.857	50.87
832.154	51.43
832.451	50.31
832.748	51.07
833.045	56.47
833.342	52.22
833.639	54.38
833.936	56.57
834.232	57.36
834.529	49.64
834.826	55.68
835.122	59.02
835.419	53.56
835.715	53.68
836.012	53.42
836.308	50.86
836.604	53.2
836.901	54.5
837.197	54.31
837.493	57.67
837.789	53.07
838.085	55.86
838.381	53.61
838.677	51.01
838.972	56.91
839.268	58
839.564	57.39
839.86	52.06
840.155	57.27
840.451	58.14
840.746	53.55
841.042	64.4
841.337	60.3
841.632	49.75
841.928	49.03
842.223	52.04
842.518	55.17
842.813	62.36
843.108	50.68
843.403	55.53
843.698	56.1
843.993	51.71
844.287	61.37
844.582	52.86
844.877	54.29
845.171	69.23
845.466	51.46
845.761	54.32
846.055	47.23
846.349	55.32
846.644	56.33
846.938	48.38
847.232	58.5
847.526	73.93
847.82	64.46
848.114	56.92
848.408	72.85
848.702	52.65
848.996	66.74
849.29	63.6
849.584	56.16
849.877	64.69
850.171	50.44
850.465	69.29
850.758	52.89
851.052	53.49
851.345	77.17
851.638	72.34
851.932	57.53
852.225	56.09
852.518	67.27
852.811	70.36
853.104	55.99
853.397	53.71
853.69	50.62
853.983	66.1
854.276	52.85
854.569	54.45
854.861	48.51
855.154	65.23
855.447	72.67
855.739	57.71
856.032	67.54
856.324	67.71
856.616	63.22
856.909	62.77
857.201	74.22
857.493	58.79
857.785	42.04
858.077	62.92
858.369	75.25
858.661	71.73
858.953	63.06
859.245	79.31
859.537	82.42
859.829	69.73
860.12	84.66
860.412	67.11
860.703	63.69
860.995	66.16
861.286	83.42
861.578	75.42
861.869	56.05
862.16	44.61
862.452	38.18
862.743	67.46
863.034	70.7
863.325	77.03
863.616	41.88
863.907	51.03
864.198	62.85
864.488	81.97
864.779	41.74
865.07	53.79
865.36	81.25
865.651	57.67
865.941	42.32
866.232	36.65
866.522	71.35
866.813	83.81
867.103	71.92
867.393	53.6
867.683	84.46
867.973	50.39
868.263	39.3
868.553	55.3
868.843	64.58
869.133	98.57
869.423	82.57
869.713	51.04
870.002	50.58
870.292	44.42
870.582	59.7
870.871	53.91
871.161	60.14
871.45	57.17
871.739	63.25
872.029	80.4
872.318	75.35
872.607	86.53
872.896	48.66
873.185	46.72
873.474	62.71
873.763	49.68
874.052	62.11
874.341	53.62
874.63	50.13
874.918	50.2
875.207	83.62
875.496	79.24
875.784	52.13
876.073	48.61
876.361	52.8
876.649	68.25
876.938	70.54
877.226	49.65
877.514	70.48
877.802	59.16
878.09	56.79
878.378	61.77
878.666	68.49
878.954	62.96
879.242	76.66
879.53	83.85
879.817	90.11
880.105	65.56
880.392	135.32
880.68	66.14
880.967	75.38
881.255	74.29
881.542	65.65
881.83	80.37
882.117	50.77
882.404	51.88
882.691	57.89
882.978	50.58
883.265	47.7
883.552	64.44
883.839	78.97
884.126	61.53
884.413	88
884.699	60.35
884.986	55.04
885.273	52.38
885.559	52.38
885.846	52.38
