Data from 1710-1_crown_Reflection__2__22.txt Node

Date: Fri Oct 07 15:14:48 CDT 2022
User: ToomeyLab
Spectrometer: FLMS14357
Trigger mode: 0
Integration Time (sec): 1.000000E-2
Scans to average: 100
Electric dark correction enabled: true
Nonlinearity correction enabled: false
Boxcar width: 0
XAxis mode: Wavelengths
Number of Pixels in Spectrum: 2048
>>>>>Begin Spectral Data<<<<<
189.047	-94.3
189.435	-94.3
189.823	-94.3
190.211	97.18
190.599	3389.66
190.987	160.57
191.375	106.5
191.763	-197.81
192.151	47.06
192.538	151.33
192.926	717.04
193.314	173.31
193.702	-2136.75
194.089	111.56
194.477	-21.04
194.864	143.27
195.252	833.33
195.639	-77.24
196.027	59.72
196.414	165.41
196.801	-41.45
197.189	125.73
197.576	-4963.77
197.963	34.59
198.351	49.18
198.738	19.95
199.125	46.2
199.512	13.4
199.899	13.27
200.286	37.89
200.673	-27.26
201.06	50.63
201.447	19.22
201.833	12.44
202.22	12.29
202.607	32.55
202.994	30.3
203.38	-15.84
203.767	52.03
204.154	-6.73
204.54	35.54
204.927	15.4
205.313	25.91
205.699	7.33
206.086	16.84
206.472	24.46
206.858	23.53
207.245	30.46
207.631	5.6
208.017	18.64
208.403	33.27
208.789	4.27
209.175	-10.63
209.561	45.9
209.947	26.46
210.333	22.18
210.719	2.31
211.105	30.17
211.491	25.2
211.876	21.89
212.262	29.57
212.648	32.2
213.034	19.72
213.419	-15.2
213.805	10.33
214.19	24.45
214.576	13.88
214.961	7.79
215.346	-19.01
215.732	12.38
216.117	31.22
216.502	22.16
216.888	-31.54
217.273	12.3
217.658	35.6
218.043	7.58
218.428	19.09
218.813	22.47
219.198	32.27
219.583	25.52
219.968	3.24
220.353	-3.94
220.738	0.95
221.122	0.42
221.507	-0.99
221.892	4.4
222.276	11.55
222.661	16.09
223.046	18.48
223.43	5.01
223.815	24.13
224.199	3.97
224.583	16.99
224.968	4
225.352	8.57
225.736	8.32
226.121	16.09
226.505	11.15
226.889	14.43
227.273	17.73
227.657	6.22
228.041	7.47
228.425	7.76
228.809	6.79
229.193	7.83
229.577	6.01
229.961	8.5
230.344	7.18
230.728	7.44
231.112	6.61
231.495	7.48
231.879	7.44
232.263	7.36
232.646	7.04
233.03	6.71
233.413	7.61
233.797	7.28
234.18	5.8
234.563	7.19
234.946	6.93
235.33	5.85
235.713	6.09
236.096	6.68
236.479	6.51
236.862	6.29
237.245	7.19
237.628	7.95
238.011	7.38
238.394	7.95
238.777	6.51
239.16	7.49
239.543	8.06
239.925	8.8
240.308	6.63
240.691	6.28
241.073	6.46
241.456	6.4
241.838	7.26
242.221	7.36
242.603	7.24
242.986	7.11
243.368	5.98
243.75	6.21
244.133	6.37
244.515	6.47
244.897	6.41
245.279	6.3
245.661	6.5
246.043	6.05
246.425	6.62
246.807	6.9
247.189	6.88
247.571	6.78
247.953	6.42
248.335	6.21
248.717	5.84
249.098	5.65
249.48	5.56
249.862	5.72
250.243	6.08
250.625	5.58
251.006	5.67
251.388	5.92
251.769	5.52
252.151	6.41
252.532	6.48
252.913	5.4
253.295	7.16
253.676	6.28
254.057	5.89
254.438	5.39
254.819	5.99
255.2	6.02
255.581	5.55
255.962	5.84
256.343	6.43
256.724	5.88
257.105	5.87
257.486	5.89
257.867	5.75
258.247	5.48
258.628	4.85
259.009	5.37
259.389	5.61
259.77	5.71
260.15	5.2
260.531	5.82
260.911	5.43
261.292	5.5
261.672	5.42
262.052	4.96
262.432	4.65
262.813	5.41
263.193	5.45
263.573	5.43
263.953	5.93
264.333	5.55
264.713	4.91
265.093	5.66
265.473	5.7
265.853	4.48
266.233	5.49
266.612	6.05
266.992	5.57
267.372	4.55
267.752	5.13
268.131	5.34
268.511	5.14
268.89	4.68
269.27	4.75
269.649	4.82
270.029	5.05
270.408	4.71
270.787	5.4
271.167	4.92
271.546	5.44
271.925	4.95
272.304	4.87
272.683	4.62
273.062	5.06
273.441	4.86
273.82	4.84
274.199	4.81
274.578	4.98
274.957	4.81
275.336	4.98
275.715	4.59
276.093	5.16
276.472	4.63
276.851	4.75
277.229	4.32
277.608	5.28
277.986	4.95
278.365	5.3
278.743	4.92
279.122	5.13
279.5	4.84
279.878	4.85
280.257	4.9
280.635	5.33
281.013	4.84
281.391	5.18
281.769	4.85
282.147	4.53
282.525	4.75
282.903	4.84
283.281	4.79
283.659	5.16
284.037	5.48
284.415	5.11
284.792	4.69
285.17	4.37
285.548	4.53
285.925	4.97
286.303	4.67
286.68	4.43
287.058	4.68
287.435	4.62
287.813	4.5
288.19	4.8
288.567	4.64
288.945	4.34
289.322	4.4
289.699	4.71
290.076	5.14
290.453	4.58
290.83	4.92
291.207	5.15
291.584	5.25
291.961	4.54
292.338	4.55
292.715	4.93
293.092	4.77
293.469	4.72
293.845	5.26
294.222	5.11
294.599	4.6
294.975	4.01
295.352	4.86
295.728	4.62
296.105	5.06
296.481	4.47
296.858	4.77
297.234	4.56
297.61	5.08
297.986	4.6
298.363	4.81
298.739	4.68
299.115	4.78
299.491	4.42
299.867	4.27
300.243	4.46
300.619	4.73
300.995	4.46
301.371	4.51
301.746	4.85
302.122	4.78
302.498	4.86
302.874	4.54
303.249	4.72
303.625	4.67
304	4.75
304.376	5.01
304.751	4.78
305.127	4.69
305.502	4.79
305.878	4.72
306.253	4.55
306.628	5.13
307.003	4.89
307.378	5.4
307.754	4.29
308.129	4.97
308.504	4.35
308.879	4.56
309.254	4.2
309.629	4.57
310.003	4.73
310.378	4.52
310.753	4.64
311.128	4.65
311.502	4.63
311.877	4.72
312.252	4.94
312.626	4.36
313.001	4.46
313.375	4.44
313.75	4.58
314.124	4.49
314.498	4.51
314.873	4.51
315.247	4.65
315.621	4.62
315.995	4.57
316.369	4.36
316.743	4.49
317.117	4.79
317.491	5.19
317.865	4.75
318.239	4.28
318.613	5.22
318.987	5.36
319.361	4.89
319.734	4.32
320.108	4.55
320.482	5.48
320.855	5.26
321.229	5.32
321.602	5.15
321.976	4.85
322.349	4.74
322.723	4.53
323.096	4.69
323.469	5.85
323.843	5.26
324.216	4.7
324.589	5.22
324.962	5.1
325.335	4.82
325.708	4.87
326.081	4.68
326.454	5.01
326.827	5.07
327.2	5.28
327.573	5.22
327.945	5.11
328.318	4.55
328.691	5
329.063	4.83
329.436	4.92
329.809	5.41
330.181	5.13
330.553	4.93
330.926	4.97
331.298	4.78
331.671	4.79
332.043	5.12
332.415	5.29
332.787	4.77
333.159	4.83
333.532	5.43
333.904	5.08
334.276	5.49
334.648	5.09
335.02	4.74
335.391	5.22
335.763	5.48
336.135	5.21
336.507	5.77
336.879	5.46
337.25	4.82
337.622	5.44
337.993	5.16
338.365	5.75
338.736	5.05
339.108	5.31
339.479	4.94
339.851	4.76
340.222	5.26
340.593	4.98
340.964	5.21
341.336	4.69
341.707	5.39
342.078	5.33
342.449	5.04
342.82	5.24
343.191	5.16
343.562	4.65
343.933	5.35
344.303	5.46
344.674	5.03
345.045	5.56
345.416	5.36
345.786	5.44
346.157	5.46
346.527	4.96
346.898	5.5
347.268	4.96
347.639	4.86
348.009	5.51
348.38	5.1
348.75	5.39
349.12	5.65
349.49	4.9
349.861	5.07
350.231	5.2
350.601	5.21
350.971	5.51
351.341	5.52
351.711	5.06
352.081	5.76
352.45	5.17
352.82	5.25
353.19	5.39
353.56	5
353.929	4.96
354.299	5.37
354.669	4.97
355.038	5.27
355.408	5.5
355.777	5.02
356.147	5.28
356.516	5.34
356.885	5.55
357.254	5.41
357.624	5.45
357.993	5.31
358.362	5.4
358.731	5.25
359.1	5.37
359.469	5.52
359.838	5.18
360.207	5.33
360.576	4.68
360.945	5.72
361.314	5.63
361.682	5.4
362.051	5.33
362.42	5.46
362.788	5.45
363.157	5.48
363.525	5.29
363.894	5.27
364.262	5.29
364.631	5.24
364.999	5.41
365.367	5.13
365.735	5.47
366.104	5.29
366.472	5.38
366.84	5.12
367.208	5.27
367.576	5.29
367.944	5.41
368.312	5.5
368.68	5.23
369.048	5.52
369.416	5.76
369.783	5.25
370.151	5.46
370.519	5.39
370.886	5.44
371.254	5.44
371.621	5.55
371.989	5.6
372.356	5.62
372.724	5.83
373.091	5.8
373.458	5.61
373.826	4.93
374.193	5.64
374.56	5.34
374.927	5.57
375.294	5.63
375.661	5.6
376.028	5.51
376.395	5.51
376.762	5.69
377.129	5.49
377.496	5.56
377.863	5.99
378.229	5.84
378.596	5.94
378.963	5.73
379.329	5.65
379.696	5.59
380.062	5.42
380.429	5.8
380.795	6.01
381.161	5.47
381.528	5.55
381.894	6.04
382.26	5.35
382.626	5.57
382.993	5.81
383.359	5.48
383.725	5.7
384.091	5.45
384.457	5.69
384.823	5.35
385.188	5.41
385.554	5.74
385.92	5.83
386.286	5.43
386.651	5.6
387.017	5.58
387.383	5.46
387.748	5.37
388.114	5.59
388.479	5.74
388.845	5.57
389.21	5.57
389.575	5.54
389.94	5.5
390.306	5.37
390.671	6.07
391.036	5.78
391.401	5.56
391.766	5.6
392.131	5.73
392.496	5.62
392.861	5.41
393.226	5.72
393.591	5.49
393.956	5.57
394.32	5.29
394.685	5.73
395.05	5.39
395.414	5.84
395.779	5.76
396.143	5.33
396.508	5.47
396.872	5.57
397.236	5.49
397.601	5.55
397.965	5.78
398.329	5.65
398.694	5.76
399.058	5.58
399.422	5.53
399.786	5.47
400.15	5.68
400.514	5.72
400.878	5.85
401.242	5.54
401.605	5.79
401.969	5.45
402.333	5.41
402.697	5.43
403.06	5.9
403.424	5.63
403.787	5.96
404.151	5.94
404.514	5.57
404.878	5.68
405.241	5.62
405.604	5.94
405.968	5.7
406.331	5.58
406.694	5.51
407.057	5.75
407.42	5.63
407.783	5.54
408.146	5.57
408.509	5.73
408.872	5.53
409.235	5.59
409.598	5.74
409.961	5.68
410.323	5.7
410.686	5.62
411.049	5.64
411.411	5.86
411.774	5.91
412.136	5.55
412.499	5.77
412.861	5.44
413.223	5.48
413.586	5.57
413.948	5.76
414.31	5.66
414.672	5.64
415.035	5.59
415.397	5.89
415.759	5.63
416.121	5.81
416.483	5.67
416.845	5.35
417.206	5.65
417.568	5.75
417.93	5.41
418.292	5.5
418.653	5.78
419.015	5.53
419.377	5.63
419.738	5.53
420.1	5.6
420.461	5.66
420.822	5.6
421.184	5.53
421.545	5.55
421.906	5.53
422.267	5.49
422.629	5.46
422.99	5.49
423.351	5.45
423.712	5.43
424.073	5.43
424.434	5.42
424.795	5.42
425.155	5.58
425.516	5.52
425.877	5.52
426.238	5.52
426.598	5.4
426.959	5.4
427.32	5.57
427.68	5.44
428.041	5.61
428.401	5.52
428.761	5.58
429.122	5.58
429.482	5.56
429.842	5.49
430.202	5.67
430.563	5.69
430.923	5.64
431.283	5.53
431.643	5.61
432.003	5.53
432.363	5.85
432.722	5.77
433.082	5.45
433.442	5.42
433.802	5.79
434.161	5.71
434.521	5.64
434.881	5.58
435.24	5.68
435.6	5.52
435.959	5.48
436.319	5.42
436.678	5.53
437.037	5.44
437.396	5.58
437.756	5.55
438.115	5.62
438.474	5.57
438.833	5.63
439.192	5.52
439.551	5.54
439.91	5.49
440.269	5.67
440.628	5.54
440.987	5.62
441.345	5.59
441.704	5.47
442.063	5.54
442.421	5.58
442.78	5.49
443.138	5.53
443.497	5.43
443.855	5.34
444.214	5.45
444.572	5.55
444.93	5.56
445.288	5.41
445.647	5.7
446.005	5.61
446.363	5.65
446.721	5.52
447.079	5.6
447.437	5.49
447.795	5.49
448.153	5.42
448.51	5.51
448.868	5.41
449.226	5.42
449.584	5.4
449.941	5.44
450.299	5.45
450.656	5.41
451.014	5.44
451.371	5.63
451.729	5.46
452.086	5.43
452.443	5.49
452.801	5.54
453.158	5.58
453.515	5.62
453.872	5.59
454.229	5.66
454.586	5.47
454.943	5.49
455.3	5.35
455.657	5.65
456.014	5.67
456.371	5.58
456.727	5.67
457.084	5.66
457.441	5.45
457.797	5.78
458.154	5.44
458.51	5.73
458.867	5.38
459.223	5.46
459.58	5.53
459.936	5.65
460.292	5.43
460.648	5.58
461.005	5.59
461.361	5.51
461.717	5.55
462.073	5.44
462.429	5.34
462.785	5.53
463.141	5.34
463.496	5.49
463.852	5.56
464.208	5.48
464.564	5.54
464.919	5.51
465.275	5.49
465.631	5.67
465.986	5.61
466.342	5.63
466.697	5.73
467.052	5.4
467.408	5.43
467.763	5.59
468.118	5.25
468.473	5.45
468.829	5.47
469.184	5.54
469.539	5.54
469.894	5.27
470.249	5.44
470.603	5.61
470.958	5.55
471.313	5.37
471.668	5.45
472.023	5.57
472.377	5.83
472.732	5.6
473.086	5.54
473.441	5.45
473.795	5.44
474.15	5.43
474.504	5.77
474.859	5.61
475.213	5.62
475.567	5.5
475.921	5.62
476.275	5.48
476.63	5.52
476.984	5.36
477.338	5.5
477.692	5.62
478.045	5.58
478.399	5.49
478.753	5.47
479.107	5.45
479.461	5.41
479.814	5.55
480.168	5.44
480.521	5.46
480.875	5.48
481.228	5.36
481.582	5.5
481.935	5.38
482.289	5.44
482.642	5.66
482.995	5.51
483.348	5.44
483.701	5.36
484.055	5.44
484.408	5.44
484.761	5.34
485.114	5.29
485.466	5.3
485.819	5.18
486.172	5.07
486.525	4.98
486.878	5
487.23	5.06
487.583	5.13
487.936	5.24
488.288	5.31
488.641	5.3
488.993	5.26
489.345	5.23
489.698	5.15
490.05	5.16
490.402	5.11
490.754	5.06
491.107	5.21
491.459	5.22
491.811	5.26
492.163	5.38
492.515	5.36
492.866	5.34
493.218	5.37
493.57	5.21
493.922	5.19
494.274	5.09
494.625	5.11
494.977	5.18
495.328	5.18
495.68	5.28
496.031	5.24
496.383	5.33
496.734	5.32
497.086	5.4
497.437	5.28
497.788	5.33
498.139	5.58
498.49	5.46
498.842	5.41
499.193	5.29
499.544	5.32
499.894	5.26
500.245	5.42
500.596	5.37
500.947	5.18
501.298	5.3
501.648	5.25
501.999	5.4
502.35	5.27
502.7	5.36
503.051	5.32
503.401	5.39
503.752	5.29
504.102	5.38
504.452	5.31
504.803	5.39
505.153	5.25
505.503	5.32
505.853	5.36
506.203	5.43
506.553	5.43
506.903	5.29
507.253	5.3
507.603	5.34
507.953	5.19
508.303	5.24
508.652	5.39
509.002	5.34
509.352	5.27
509.701	5.43
510.051	5.36
510.4	5.36
510.75	5.34
511.099	5.16
511.449	5.27
511.798	5.38
512.147	5.32
512.496	5.2
512.846	5.36
513.195	5.27
513.544	5.29
513.893	5.37
514.242	5.28
514.591	5.3
514.939	5.33
515.288	5.33
515.637	5.36
515.986	5.43
516.334	5.29
516.683	5.26
517.032	5.29
517.38	5.18
517.729	5.23
518.077	5.15
518.426	5.26
518.774	5.19
519.122	5.32
519.47	5.28
519.819	5.28
520.167	5.25
520.515	5.17
520.863	5.22
521.211	5.2
521.559	5.07
521.907	5.11
522.255	5.11
522.602	5.22
522.95	5.19
523.298	5.26
523.645	5.37
523.993	5.16
524.341	5.12
524.688	5.27
525.036	5.23
525.383	5.33
525.73	5.14
526.078	5.27
526.425	5.25
526.772	5.17
527.119	5.21
527.466	5.22
527.814	5.17
528.161	5.07
528.508	5
528.854	5.12
529.201	5.21
529.548	5.14
529.895	5.11
530.242	5.07
530.588	5.05
530.935	4.98
531.282	4.94
531.628	4.84
531.975	4.93
532.321	4.92
532.667	5.02
533.014	5.1
533.36	5.06
533.706	5.14
534.052	5.08
534.399	5.11
534.745	5.09
535.091	5.06
535.437	5.01
535.783	4.97
536.129	4.97
536.474	4.86
536.82	5
537.166	5.1
537.512	5.05
537.857	5.04
538.203	5.08
538.549	5.1
538.894	5.06
539.239	5.03
539.585	5.05
539.93	5.06
540.276	5.09
540.621	5.11
540.966	5.1
541.311	5.12
541.656	5.14
542.001	5.03
542.346	5.16
542.691	5.08
543.036	5.07
543.381	5
543.726	4.87
544.071	4.93
544.415	4.83
544.76	4.93
545.105	4.96
545.449	4.91
545.794	4.96
546.138	5.05
546.483	5.15
546.827	5.09
547.171	5.13
547.516	4.98
547.86	5.05
548.204	4.94
548.548	5.05
548.892	5.12
549.236	5.06
549.58	5
549.924	4.98
550.268	4.96
550.612	5.02
550.956	5.11
551.3	5.08
551.643	5
551.987	5.12
552.33	4.98
552.674	5.05
553.017	5.18
553.361	5.22
553.704	5.12
554.048	5.07
554.391	5.1
554.734	5.14
555.077	5.19
555.42	4.93
555.764	4.97
556.107	4.97
556.45	5
556.793	5
557.135	5.01
557.478	5
557.821	4.87
558.164	5.03
558.507	5.14
558.849	5.21
559.192	5.15
559.534	5.13
559.877	5.22
560.219	5.24
560.562	4.8
560.904	5.12
561.246	5.18
561.589	5.1
561.931	4.9
562.273	5.14
562.615	5.24
562.957	4.96
563.299	5.27
563.641	5.06
563.983	4.9
564.325	5.07
564.667	5.04
565.008	5.06
565.35	4.88
565.692	4.98
566.033	4.96
566.375	5.32
566.716	5.07
567.058	5.01
567.399	5.03
567.741	5.12
568.082	5.05
568.423	5.01
568.764	4.92
569.105	4.87
569.447	5.02
569.788	4.73
570.129	4.88
570.47	5.17
570.811	5.1
571.151	4.75
571.492	5.04
571.833	5.02
572.174	4.85
572.514	5.07
572.855	4.95
573.195	4.92
573.536	4.98
573.876	5.03
574.217	4.93
574.557	5.05
574.898	4.88
575.238	4.93
575.578	5.05
575.918	4.9
576.258	5.01
576.598	4.91
576.938	5.03
577.278	5.1
577.618	4.93
577.958	5.07
578.298	4.94
578.638	4.8
578.977	4.88
579.317	4.84
579.657	5.05
579.996	4.97
580.336	5.05
580.675	4.97
581.014	5.06
581.354	5.15
581.693	5.12
582.032	5.31
582.372	4.85
582.711	5.05
583.05	4.65
583.389	5.06
583.728	5.01
584.067	4.97
584.406	4.94
584.745	4.79
585.083	5.04
585.422	4.79
585.761	5.02
586.1	5.29
586.438	5.15
586.777	4.81
587.115	4.95
587.454	5.09
587.792	4.87
588.13	5.05
588.469	5.03
588.807	4.9
589.145	4.85
589.483	5.01
589.821	5.02
590.159	4.59
590.497	4.85
590.835	4.98
591.173	4.66
591.511	4.82
591.849	4.81
592.187	4.98
592.524	5.1
592.862	4.85
593.2	4.91
593.537	4.71
593.875	5
594.212	4.89
594.55	4.89
594.887	4.83
595.224	4.99
595.561	4.99
595.899	5.04
596.236	5.18
596.573	4.85
596.91	4.91
597.247	4.99
597.584	4.84
597.921	4.98
598.258	5.09
598.594	4.87
598.931	4.8
599.268	4.81
599.604	4.89
599.941	4.89
600.277	4.78
600.614	4.66
600.95	4.81
601.287	4.84
601.623	4.92
601.959	4.61
602.296	5.1
602.632	4.86
602.968	4.74
603.304	4.88
603.64	4.87
603.976	4.76
604.312	5.18
604.648	4.81
604.984	4.83
605.319	4.95
605.655	5.07
605.991	4.84
606.326	4.74
606.662	4.84
606.998	4.91
607.333	4.84
607.668	4.78
608.004	4.74
608.339	4.95
608.674	4.74
609.01	4.71
609.345	4.83
609.68	4.88
610.015	4.81
610.35	5.18
610.685	4.98
611.02	4.95
611.355	5.02
611.689	4.99
612.024	4.99
612.359	4.8
612.694	4.67
613.028	4.57
613.363	4.98
613.697	4.76
614.032	4.75
614.366	4.65
614.7	4.95
615.035	4.78
615.369	4.94
615.703	4.99
616.037	4.62
616.371	5.05
616.705	4.86
617.039	4.98
617.373	5.11
617.707	4.82
618.041	5.27
618.375	5.08
618.709	4.94
619.042	4.8
619.376	5.18
619.71	4.83
620.043	4.89
620.377	5.05
620.71	4.75
621.043	4.89
621.377	4.83
621.71	5.11
622.043	5.07
622.376	4.83
622.709	4.73
623.043	4.4
623.376	4.9
623.709	5.18
624.041	4.79
624.374	5.1
624.707	4.96
625.04	5.14
625.373	4.75
625.705	4.91
626.038	4.83
626.37	4.69
626.703	5.15
627.035	4.96
627.368	4.83
627.7	4.99
628.032	4.94
628.365	4.8
628.697	4.76
629.029	4.91
629.361	4.76
629.693	4.85
630.025	4.82
630.357	4.82
630.689	4.96
631.021	4.61
631.353	4.93
631.684	4.73
632.016	4.85
632.348	5.04
632.679	4.94
633.011	5.04
633.342	5
633.674	5.01
634.005	4.61
634.336	5.01
634.668	4.83
634.999	4.7
635.33	5.12
635.661	4.68
635.992	4.81
636.323	4.56
636.654	4.83
636.985	4.91
637.316	4.93
637.647	4.7
637.977	5.16
638.308	5
638.639	4.71
638.969	4.69
639.3	4.91
639.63	5.06
639.961	5.17
640.291	5.06
640.622	4.98
640.952	4.38
641.282	4.76
641.612	4.68
641.943	4.89
642.273	5.17
642.603	5.07
642.933	4.87
643.263	5.18
643.592	4.65
643.922	5.36
644.252	5.04
644.582	5.15
644.911	5.2
645.241	4.53
645.571	4.59
645.9	4.76
646.23	5.23
646.559	5.64
646.888	5.14
647.218	5.2
647.547	4.84
647.876	4.81
648.205	5.19
648.534	4.7
648.863	4.82
649.192	5.5
649.521	5.26
649.85	4.96
650.179	5.19
650.508	5.23
650.837	5.3
651.165	4.97
651.494	4.82
651.822	4.76
652.151	5.57
652.479	4.97
652.808	5.1
653.136	4.71
653.465	5.42
653.793	5.15
654.121	5.31
654.449	5.39
654.777	4.74
655.105	5.24
655.433	5.03
655.761	4.63
656.089	4.78
656.417	4.74
656.745	4.91
657.073	5.03
657.4	4.79
657.728	5.36
658.056	4.77
658.383	5.1
658.711	5.51
659.038	5.16
659.365	4.9
659.693	4.91
660.02	5.59
660.347	5.33
660.674	4.84
661.001	4.88
661.329	5.27
661.656	4.89
661.982	4.67
662.309	4.81
662.636	4.91
662.963	5.21
663.29	5.05
663.616	4.52
663.943	5.38
664.27	4.49
664.596	5.01
664.923	5.12
665.249	5.73
665.576	4.97
665.902	5.42
666.228	5.13
666.554	5.07
666.881	4.76
667.207	5.41
667.533	5.07
667.859	5
668.185	5.88
668.511	5.11
668.837	5.44
669.162	5.2
669.488	5.17
669.814	5.19
670.139	5.51
670.465	5.31
670.791	5
671.116	4.91
671.442	5.09
671.767	5.45
672.092	5.54
672.418	5.32
672.743	5.55
673.068	5.8
673.393	5.12
673.718	5.47
674.043	4.64
674.368	4.96
674.693	6.04
675.018	5.24
675.343	4.98
675.667	5.51
675.992	5.85
676.317	5.38
676.641	5.84
676.966	5.33
677.29	5.13
677.615	5.41
677.939	5.37
678.264	5.22
678.588	5.43
678.912	5.15
679.236	5.35
679.56	5.4
679.885	4.94
680.209	5.33
680.532	5.14
680.856	5.27
681.18	5.16
681.504	5.81
681.828	4.83
682.152	5.46
682.475	4.96
682.799	5.22
683.122	5.15
683.446	4.9
683.769	5.33
684.093	5.25
684.416	4.82
684.739	5.05
685.062	5.7
685.386	5.25
685.709	5.81
686.032	5.51
686.355	5.24
686.678	5.82
687.001	5.83
687.324	5.5
687.646	4.95
687.969	5.37
688.292	5.3
688.614	5.66
688.937	5.32
689.26	5.47
689.582	4.75
689.904	4.91
690.227	5.35
690.549	5.16
690.871	5.28
691.194	5.49
691.516	5.96
691.838	5.25
692.16	6.01
692.482	4.54
692.804	5.15
693.126	5.4
693.448	5.88
693.769	5.26
694.091	5.01
694.413	5.72
694.735	5
695.056	6.18
695.378	5.39
695.699	5.78
696.021	5.22
696.342	5.49
696.663	5.1
696.984	6.15
697.306	5.3
697.627	5.07
697.948	5.48
698.269	5.77
698.59	6.54
698.911	5.51
699.232	4.89
699.553	6.44
699.873	5.84
700.194	5.78
700.515	5.27
700.835	5.29
701.156	5.18
701.477	5.33
701.797	5.16
702.117	5.78
702.438	5.59
702.758	5.17
703.078	5.77
703.398	5.65
703.719	5.54
704.039	5
704.359	5.88
704.679	5.13
704.999	5.04
705.319	6.25
705.638	5.24
705.958	4.24
706.278	5.1
706.597	5.88
706.917	5.48
707.237	5.16
707.556	6.47
707.876	5.34
708.195	5.98
708.514	5.58
708.834	6.07
709.153	6
709.472	6.29
709.791	5.98
710.11	5.92
710.429	6.23
710.748	6.91
711.067	5.61
711.386	6.56
711.705	5.85
712.023	6.08
712.342	5.42
712.661	6.28
712.979	6.68
713.298	6.03
713.616	5.83
713.935	6.34
714.253	6.49
714.572	6.14
714.89	6.42
715.208	6.52
715.526	6.1
715.844	5.77
716.162	5.76
716.48	6.83
716.798	4.97
717.116	5.64
717.434	5.93
717.752	5.97
718.069	5.49
718.387	5.49
718.705	6.54
719.022	5.53
719.34	5.31
719.657	6.18
719.975	5.76
720.292	6.3
720.609	4.29
720.927	6.08
721.244	6.37
721.561	5.75
721.878	5.83
722.195	6.62
722.512	5.03
722.829	5.24
723.146	6.9
723.463	6.13
723.779	5.37
724.096	7.28
724.413	6.12
724.729	5.2
725.046	4.72
725.362	7.98
725.679	5.93
725.995	5.41
726.311	5.66
726.628	6.2
726.944	5.45
727.26	6.29
727.576	6.88
727.892	6.91
728.208	6.05
728.524	5.72
728.84	5.71
729.156	6.5
729.472	6.58
729.787	6.93
730.103	6.31
730.419	6.98
730.734	7.08
731.05	5.59
731.365	7.11
731.681	5.17
731.996	6.64
732.311	6.69
732.626	6.71
732.942	7.09
733.257	5.85
733.572	6
733.887	5.55
734.202	5.17
734.517	6.23
734.832	6.62
735.146	4.92
735.461	6.21
735.776	6.06
736.091	6.74
736.405	6.71
736.72	5.8
737.034	6.39
737.349	5.39
737.663	6.05
737.977	7.35
738.292	6.63
738.606	7.82
738.92	7.84
739.234	5.57
739.548	7.6
739.862	6.32
740.176	6.97
740.49	8.11
740.804	6.4
741.117	5.85
741.431	6.42
741.745	6.65
742.058	6.48
742.372	6.15
742.685	6.54
742.999	5.35
743.312	7.89
743.626	8.36
743.939	7.53
744.252	9.34
744.565	8.84
744.878	5.72
745.191	8.03
745.505	5.75
745.817	7.18
746.13	6.78
746.443	5.68
746.756	6.66
747.069	7.33
747.381	5.87
747.694	5.54
748.007	6.44
748.319	6.16
748.632	7.15
748.944	4.16
749.256	5.23
749.569	8.4
749.881	7.94
750.193	8
750.505	4.44
750.817	6.99
751.129	5.67
751.441	6.19
751.753	8.94
752.065	6.52
752.377	7.1
752.689	6.77
753	8
753.312	7.44
753.624	5.86
753.935	6.78
754.247	7.32
754.558	7.27
754.869	7.05
755.181	6.21
755.492	7.03
755.803	4.92
756.114	7.15
756.425	6.2
756.736	6.95
757.047	5.92
757.358	6.99
757.669	4.7
757.98	5.9
758.291	6.52
758.601	7.49
758.912	8.06
759.223	5.55
759.533	7.87
759.844	8.73
760.154	6.38
760.464	8.18
760.775	5.97
761.085	8.64
761.395	7.03
761.705	4.91
762.016	6.15
762.326	7.65
762.636	6.87
762.945	6.55
763.255	6.48
763.565	7.95
763.875	7.14
764.185	8
764.494	6.07
764.804	7.98
765.113	7.08
765.423	7.64
765.732	6.96
766.042	7.43
766.351	5.44
766.66	6.21
766.97	5.89
767.279	6.39
767.588	6.16
767.897	6.96
768.206	6.42
768.515	7.61
768.824	6.67
769.133	7.6
769.441	7.12
769.75	6.75
770.059	8.45
770.367	7.95
770.676	10.1
770.984	6.52
771.293	6.68
771.601	5.55
771.91	8.06
772.218	6.5
772.526	8.12
772.834	5.34
773.142	9
773.45	6.84
773.758	5.53
774.066	7.27
774.374	7.29
774.682	7.66
774.99	8.39
775.298	7.09
775.605	9.37
775.913	8.33
776.22	7.13
776.528	8.27
776.835	8.69
777.143	8.58
777.45	8.12
777.757	7.17
778.065	5.8
778.372	8.45
778.679	8.98
778.986	9.47
779.293	9.53
779.6	6.21
779.907	7.64
780.214	5.32
780.52	10.59
780.827	8.21
781.134	6.74
781.44	8.03
781.747	5.99
782.053	8.82
782.36	8.16
782.666	8.6
782.973	6.32
783.279	11.29
783.585	9.48
783.891	9.64
784.197	7.28
784.503	9.39
784.809	9.33
785.115	9.62
785.421	6.63
785.727	9.17
786.033	10.63
786.339	3.86
786.644	9.63
786.95	9.06
787.255	9.19
787.561	10.58
787.866	8.89
788.172	9.01
788.477	5.09
788.782	9.37
789.088	9.49
789.393	7.06
789.698	9.91
790.003	10.73
790.308	8.7
790.613	5.07
790.918	9.17
791.223	4.71
791.527	10.72
791.832	8.11
792.137	6.38
792.441	8.61
792.746	9.54
793.05	8.4
793.355	12.4
793.659	5.58
793.963	12.24
794.268	10.31
794.572	9.92
794.876	14.2
795.18	9.19
795.484	7.66
795.788	8.68
796.092	9.6
796.396	8.99
796.7	5.62
797.004	10.49
797.307	9.31
797.611	6.69
797.915	11.82
798.218	11.9
798.522	4.92
798.825	10.48
799.128	10.55
799.432	6.11
799.735	9.53
800.038	8.81
800.341	7.79
800.644	9.48
800.947	9.03
801.25	6.52
801.553	13.6
801.856	10.16
802.159	9
802.462	8.71
802.764	8.77
803.067	11.41
803.37	4.83
803.672	9.32
803.975	6.38
804.277	10.64
804.579	13.85
804.882	10.81
805.184	8.56
805.486	6.63
805.788	9.92
806.09	8.68
806.392	11.3
806.694	11.21
806.996	8.65
807.298	9.11
807.6	8.35
807.902	11.37
808.203	11.06
808.505	8.29
808.807	5.14
809.108	4.39
809.409	7.82
809.711	13.47
810.012	6.73
810.313	9.02
810.615	9.28
810.916	12.54
811.217	9.78
811.518	10.16
811.819	9.35
812.12	10.73
812.421	16.19
812.722	12.61
813.023	10.84
813.323	8.99
813.624	10.66
813.925	6.29
814.225	5.37
814.526	8.31
814.826	8.68
815.126	8.88
815.427	8.61
815.727	10.08
816.027	11.6
816.327	13.72
816.627	17
816.927	12.09
817.227	10.28
817.527	14.4
817.827	12.33
818.127	10.79
818.427	6.57
818.727	8
819.026	6.63
819.326	11.74
819.625	9.5
819.925	6.83
820.224	7.16
820.524	8.8
820.823	11.46
821.122	8.23
821.421	12.9
821.72	10.6
822.019	4.87
822.318	9.18
822.617	15.2
822.916	8.14
823.215	9.92
823.514	8.87
823.813	8.02
824.111	9.41
824.41	9.34
824.709	8.01
825.007	8.08
825.306	7.82
825.604	8.38
825.902	7.27
826.201	7.96
826.499	8.5
826.797	8.15
827.095	7.6
827.393	9.38
827.691	9.17
827.989	6.22
828.287	9.33
828.585	9.62
828.882	8.72
829.18	7.27
829.478	6.02
829.775	8.7
830.073	8.44
830.37	7.65
830.668	7.77
830.965	10.65
831.263	9.58
831.56	8.47
831.857	10.35
832.154	7.58
832.451	5.41
832.748	8.01
833.045	4.53
833.342	14.36
833.639	13.16
833.936	7.73
834.232	15.19
834.529	4.06
834.826	10.62
835.122	10.43
835.419	13.24
835.715	15.51
836.012	9.31
836.308	9.14
836.604	8.96
836.901	10.45
837.197	9.41
837.493	10.01
837.789	7.51
838.085	5.54
838.381	14.18
838.677	11.33
838.972	7.06
839.268	7.81
839.564	12.58
839.86	16.34
840.155	9.27
840.451	6.29
840.746	5.1
841.042	-1.12
841.337	10.03
841.632	13.08
841.928	4.05
842.223	13.62
842.518	7.22
842.813	10.21
843.108	12.49
843.403	11.27
843.698	4.16
843.993	8.3
844.287	15.34
844.582	11.7
844.877	17.61
845.171	18.94
845.466	-2.63
845.761	13.53
846.055	16.33
846.349	15.29
846.644	9.63
846.938	16.87
847.232	17.34
847.526	11.71
847.82	16.13
848.114	25.8
848.408	20.4
848.702	10.68
848.996	13.66
849.29	21.26
849.584	10.74
849.877	22.49
850.171	17.23
850.465	5.1
850.758	23.95
851.052	2.41
851.345	25.23
851.638	23.43
851.932	17.86
852.225	21.86
852.518	23.54
852.811	7.49
853.104	9.46
853.397	13.44
853.69	25.47
853.983	8.56
854.276	10.95
854.569	27.69
854.861	18.94
855.154	12.63
855.447	8.32
855.739	24.7
856.032	2.53
856.324	20.07
856.616	21.55
856.909	46.52
857.201	10.82
857.493	16.58
857.785	21.33
858.077	27.06
858.369	15.95
858.661	42.33
858.953	15.55
859.245	17.56
859.537	3.37
859.829	15.68
860.12	17.75
860.412	3.71
860.703	26.11
860.995	16.77
861.286	4.8
861.578	5.35
861.869	21.5
862.16	13.62
862.452	-2.93
862.743	6.08
863.034	20.58
863.325	2.5
863.616	25.11
863.907	11.05
864.198	10.05
864.488	-1.25
864.779	18.19
865.07	12.89
865.36	12.62
865.651	-0.22
865.941	12.97
866.232	48.75
866.522	20.02
866.813	7.94
867.103	9.5
867.393	27.85
867.683	50.21
867.973	30.45
868.263	2.74
868.553	17.89
868.843	27.59
869.133	2.9
869.423	10.57
869.713	1.28
870.002	10.66
870.292	9.57
870.582	1.61
870.871	29.47
871.161	7.43
871.45	11.19
871.739	8.01
872.029	35.19
872.318	38.84
872.607	48.52
872.896	9.31
873.185	25.77
873.474	10.45
873.763	12.17
874.052	15.81
874.341	-14.19
874.63	-7.35
874.918	13.44
875.207	24.68
875.496	26.8
875.784	-21.01
876.073	14.59
876.361	4.04
876.649	23.09
876.938	38.38
877.226	43.3
877.514	-7.75
877.802	8.73
878.09	45.32
878.378	14.9
878.666	57.04
878.954	25.99
879.242	-5.14
879.53	-9.21
879.817	20.97
880.105	10.88
880.392	17.51
880.68	20.08
880.967	26.13
881.255	36.35
881.542	-6.98
881.83	30.17
882.117	33.96
882.404	56.72
882.691	13.25
882.978	20.31
883.265	4.92
883.552	27.82
883.839	33.62
884.126	31.83
884.413	3.97
884.699	10.6
884.986	10.4
885.273	17.17
885.559	17.17
885.846	17.17
