Data from 0089_crown_Reflection__2__133.txt Node

Date: Mon Aug 28 19:51:38 CDT 2023
User: ToomeyLab
Spectrometer: FLMS14357
Trigger mode: 0
Integration Time (sec): 1.000000E-2
Scans to average: 100
Electric dark correction enabled: true
Nonlinearity correction enabled: false
Boxcar width: 0
XAxis mode: Wavelengths
Number of Pixels in Spectrum: 2048
>>>>>Begin Spectral Data<<<<<
189.047	-39.57
189.435	-39.57
189.823	-39.57
190.211	-4097.67
190.599	119.39
190.987	486.68
191.375	-36.63
191.763	149.35
192.151	31.67
192.538	-61.79
192.926	227.3
193.314	-589.16
193.702	70.25
194.089	-2.85
194.477	3409.41
194.864	251.22
195.252	161.97
195.639	-3020.51
196.027	71.9
196.414	220.91
196.801	90.76
197.189	-7.57
197.576	-602.05
197.963	184.69
198.351	-1.43
198.738	35.96
199.125	15.59
199.512	74.44
199.899	-9.92
200.286	19.01
200.673	25.29
201.06	15.98
201.447	-75.92
201.833	-26.82
202.22	-4.48
202.607	5.39
202.994	45.21
203.38	53.53
203.767	8.75
204.154	10.27
204.54	-42.22
204.927	-5.75
205.313	52.19
205.699	2.52
206.086	-4.15
206.472	15.67
206.858	7.71
207.245	4.22
207.631	27.83
208.017	-15.59
208.403	-20.43
208.789	11.46
209.175	-4.38
209.561	-0.46
209.947	22.64
210.333	7.75
210.719	35.02
211.105	16.49
211.491	28.49
211.876	13.17
212.262	36.73
212.648	52.57
213.034	8.99
213.419	-4.86
213.805	2.8
214.19	-38.01
214.576	-29.45
214.961	1.34
215.346	-20.33
215.732	22.93
216.117	-44.36
216.502	12.82
216.888	-12.16
217.273	-0.47
217.658	27.95
218.043	30.93
218.428	5.33
218.813	-3.83
219.198	27.59
219.583	-3.37
219.968	28.68
220.353	0.75
220.738	15.98
221.122	26.57
221.507	-1.2
221.892	-7.24
222.276	1.53
222.661	7.76
223.046	-7.96
223.43	-2.56
223.815	5.36
224.199	17.96
224.583	11.94
224.968	11.14
225.352	12.87
225.736	17.97
226.121	8.73
226.505	-3.53
226.889	7.25
227.273	2.77
227.657	0.64
228.041	2.35
228.425	6.93
228.809	6.9
229.193	10.33
229.577	8.12
229.961	3.07
230.344	6.95
230.728	5.87
231.112	5.92
231.495	6.44
231.879	5.67
232.263	6.82
232.646	6.46
233.03	6.38
233.413	8.7
233.797	7.28
234.18	6.66
234.563	7.87
234.946	7.88
235.33	7.39
235.713	6.61
236.096	9.05
236.479	6.96
236.862	6.77
237.245	4.79
237.628	6.78
238.011	7.34
238.394	6.62
238.777	7.68
239.16	3.92
239.543	2.2
239.925	8.87
240.308	3.15
240.691	5.54
241.073	3.69
241.456	5.58
241.838	5.01
242.221	7.85
242.603	7.29
242.986	5.4
243.368	5.91
243.75	6.14
244.133	5.97
244.515	5.37
244.897	6.24
245.279	6.35
245.661	4.76
246.043	5.97
246.425	4.39
246.807	6.76
247.189	5.5
247.571	5.3
247.953	5.81
248.335	5.62
248.717	5.78
249.098	5.71
249.48	5.78
249.862	5.47
250.243	5.61
250.625	5.85
251.006	5.81
251.388	5.52
251.769	5.77
252.151	5.53
252.532	6.46
252.913	6.41
253.295	4.64
253.676	5.81
254.057	5.47
254.438	5.48
254.819	5.38
255.2	5.01
255.581	5.33
255.962	5.7
256.343	5.49
256.724	5.01
257.105	6.16
257.486	4.9
257.867	5.52
258.247	5.75
258.628	5.42
259.009	4.85
259.389	5.16
259.77	5.49
260.15	5.56
260.531	4.68
260.911	5.79
261.292	5.68
261.672	5.02
262.052	5.06
262.432	5.09
262.813	5.14
263.193	5.13
263.573	5.22
263.953	5.18
264.333	5.5
264.713	5.12
265.093	5.45
265.473	5.52
265.853	4.33
266.233	4.96
266.612	5.15
266.992	4.7
267.372	5.21
267.752	5.01
268.131	4.98
268.511	4.78
268.89	5.57
269.27	4.98
269.649	5.12
270.029	5.26
270.408	5.28
270.787	5.63
271.167	4.76
271.546	4.55
271.925	5.36
272.304	5.06
272.683	5.38
273.062	4.95
273.441	5.25
273.82	4.97
274.199	4.86
274.578	4.9
274.957	5.08
275.336	5.35
275.715	5.18
276.093	4.85
276.472	4.24
276.851	5.59
277.229	5.51
277.608	5.28
277.986	4.86
278.365	5.37
278.743	5
279.122	4.89
279.5	4.63
279.878	4.41
280.257	4.88
280.635	4.82
281.013	4.92
281.391	4.67
281.769	4.42
282.147	4.68
282.525	5.34
282.903	5.31
283.281	4.83
283.659	5.56
284.037	4.97
284.415	5.1
284.792	4.95
285.17	4.98
285.548	4.63
285.925	5.02
286.303	4.95
286.68	4.84
287.058	5.45
287.435	4.92
287.813	4.88
288.19	5.21
288.567	4.92
288.945	4.75
289.322	4.72
289.699	5.23
290.076	5.26
290.453	5.32
290.83	4.3
291.207	5.22
291.584	5.07
291.961	4.99
292.338	5.05
292.715	4.61
293.092	5.01
293.469	4.69
293.845	4.6
294.222	4.82
294.599	4.68
294.975	4.89
295.352	4.64
295.728	4.57
296.105	4.86
296.481	5.15
296.858	4.8
297.234	4.7
297.61	4.77
297.986	4.33
298.363	4.6
298.739	4.55
299.115	4.54
299.491	4.8
299.867	4.65
300.243	4.47
300.619	4.48
300.995	4.89
301.371	4.75
301.746	4.7
302.122	4.28
302.498	4.91
302.874	4.85
303.249	4.81
303.625	4.79
304	4.59
304.376	4.36
304.751	4.54
305.127	4.65
305.502	4.49
305.878	4.62
306.253	4.46
306.628	4.95
307.003	4.58
307.378	4.56
307.754	4.83
308.129	4.27
308.504	5.52
308.879	4.42
309.254	5.27
309.629	4.31
310.003	4.68
310.378	4.27
310.753	4.71
311.128	4.45
311.502	4.42
311.877	4.53
312.252	4.91
312.626	4.56
313.001	4.38
313.375	4.51
313.75	4.28
314.124	4.32
314.498	4.97
314.873	4.69
315.247	4.34
315.621	4.25
315.995	4.62
316.369	4.99
316.743	3.75
317.117	4.44
317.491	3.43
317.865	3.98
318.239	4.53
318.613	4.23
318.987	4.39
319.361	4.33
319.734	4.47
320.108	4.4
320.482	4.33
320.855	4.07
321.229	3.72
321.602	4.35
321.976	3.69
322.349	4.16
322.723	4.07
323.096	4.17
323.469	4.12
323.843	3.62
324.216	4.45
324.589	4.68
324.962	4.28
325.335	4.1
325.708	4.51
326.081	4.19
326.454	4.28
326.827	3.8
327.2	3.9
327.573	3.9
327.945	4.39
328.318	4.57
328.691	4.11
329.063	3.64
329.436	3.44
329.809	4.44
330.181	3.66
330.553	4.23
330.926	4.36
331.298	4.3
331.671	3.57
332.043	3.71
332.415	4.51
332.787	3.99
333.159	3.87
333.532	4.73
333.904	4.34
334.276	3.65
334.648	4.23
335.02	4.27
335.391	4.28
335.763	3.76
336.135	4.36
336.507	4.02
336.879	4.02
337.25	4.12
337.622	3.63
337.993	3.78
338.365	3.53
338.736	4.26
339.108	3.57
339.479	3.71
339.851	3.95
340.222	4.25
340.593	4.15
340.964	4.1
341.336	4.06
341.707	3.83
342.078	3.58
342.449	4.37
342.82	3.93
343.191	3.98
343.562	3.72
343.933	3.77
344.303	3.61
344.674	3.86
345.045	3.47
345.416	3.86
345.786	4.05
346.157	3.96
346.527	3.41
346.898	3.81
347.268	3.63
347.639	3.56
348.009	3.23
348.38	3.99
348.75	3.97
349.12	3.96
349.49	3.81
349.861	3.18
350.231	3.69
350.601	4.11
350.971	4.29
351.341	3.77
351.711	3.7
352.081	3.71
352.45	3.61
352.82	3.73
353.19	3.79
353.56	3.91
353.929	3.94
354.299	3.59
354.669	4.08
355.038	4.08
355.408	3.9
355.777	3.8
356.147	3.76
356.516	4.55
356.885	3.87
357.254	3.61
357.624	3.9
357.993	4.14
358.362	3.45
358.731	3.73
359.1	3.91
359.469	3.77
359.838	3.56
360.207	3.96
360.576	4.03
360.945	3.9
361.314	3.6
361.682	3.57
362.051	3.96
362.42	3.73
362.788	3.77
363.157	4.02
363.525	3.82
363.894	3.98
364.262	3.9
364.631	3.66
364.999	3.88
365.367	3.94
365.735	3.94
366.104	3.6
366.472	3.79
366.84	3.74
367.208	3.93
367.576	3.64
367.944	3.87
368.312	3.92
368.68	3.67
369.048	4.02
369.416	3.72
369.783	3.63
370.151	3.61
370.519	4.06
370.886	3.97
371.254	3.71
371.621	3.67
371.989	3.97
372.356	3.56
372.724	4.23
373.091	3.86
373.458	3.8
373.826	4.12
374.193	3.73
374.56	4.07
374.927	3.46
375.294	3.97
375.661	4.02
376.028	3.42
376.395	3.69
376.762	4.19
377.129	3.81
377.496	3.84
377.863	3.97
378.229	3.73
378.596	3.81
378.963	4.07
379.329	4.26
379.696	3.91
380.062	3.83
380.429	3.84
380.795	4.17
381.161	3.82
381.528	4.06
381.894	3.9
382.26	4.09
382.626	3.92
382.993	3.95
383.359	3.73
383.725	3.97
384.091	3.97
384.457	3.61
384.823	4.03
385.188	3.92
385.554	3.85
385.92	3.82
386.286	4.15
386.651	3.66
387.017	3.85
387.383	4.06
387.748	3.77
388.114	3.72
388.479	3.64
388.845	4.28
389.21	3.55
389.575	3.91
389.94	3.95
390.306	4.09
390.671	4.09
391.036	3.68
391.401	4.12
391.766	4.29
392.131	3.93
392.496	3.86
392.861	3.69
393.226	4.12
393.591	3.8
393.956	3.95
394.32	3.84
394.685	4.11
395.05	3.97
395.414	4.01
395.779	3.94
396.143	3.85
396.508	3.71
396.872	4.03
397.236	3.88
397.601	3.84
397.965	4.17
398.329	4.06
398.694	3.94
399.058	4.04
399.422	4.16
399.786	4.11
400.15	4.17
400.514	4.14
400.878	3.94
401.242	3.97
401.605	4.27
401.969	3.89
402.333	3.96
402.697	3.8
403.06	4.25
403.424	4.31
403.787	3.93
404.151	4.04
404.514	4.03
404.878	4.03
405.241	3.98
405.604	4.05
405.968	3.74
406.331	4.25
406.694	4.05
407.057	4.18
407.42	4.17
407.783	3.94
408.146	3.92
408.509	4.33
408.872	4.06
409.235	4.23
409.598	4.14
409.961	3.98
410.323	4.4
410.686	4.19
411.049	4.46
411.411	4.21
411.774	4.21
412.136	4.1
412.499	4.26
412.861	4.11
413.223	4.2
413.586	4.13
413.948	4.13
414.31	4.07
414.672	4.03
415.035	4.08
415.397	4.32
415.759	4.22
416.121	4.15
416.483	4.01
416.845	4.28
417.206	4.41
417.568	4.32
417.93	3.97
418.292	4.23
418.653	4.02
419.015	4.15
419.377	3.96
419.738	4.22
420.1	4.1
420.461	4.14
420.822	4.16
421.184	4.26
421.545	4.13
421.906	4.21
422.267	4.13
422.629	4.09
422.99	4.01
423.351	4.15
423.712	4
424.073	4.11
424.434	4.26
424.795	4.09
425.155	4.12
425.516	4.18
425.877	4.02
426.238	4.02
426.598	4.19
426.959	4.1
427.32	4.16
427.68	4.22
428.041	4.22
428.401	4.22
428.761	4.2
429.122	4.2
429.482	4.24
429.842	4.24
430.202	4.31
430.563	4.42
430.923	4.44
431.283	4.34
431.643	4.16
432.003	4.22
432.363	4.28
432.722	4.33
433.082	4.28
433.442	4.33
433.802	4.17
434.161	4.46
434.521	4.33
434.881	4.37
435.24	4.23
435.6	4.23
435.959	4.33
436.319	4.44
436.678	4.41
437.037	4.46
437.396	4.53
437.756	4.27
438.115	4.43
438.474	4.41
438.833	4.33
439.192	4.39
439.551	4.28
439.91	4.25
440.269	4.33
440.628	4.18
440.987	4.33
441.345	4.33
441.704	4.41
442.063	4.35
442.421	4.3
442.78	4.42
443.138	4.26
443.497	4.38
443.855	4.38
444.214	4.39
444.572	4.3
444.93	4.43
445.288	4.26
445.647	4.41
446.005	4.47
446.363	4.39
446.721	4.47
447.079	4.4
447.437	4.31
447.795	4.36
448.153	4.34
448.51	4.29
448.868	4.33
449.226	4.37
449.584	4.32
449.941	4.39
450.299	4.43
450.656	4.43
451.014	4.26
451.371	4.36
451.729	4.29
452.086	4.47
452.443	4.57
452.801	4.49
453.158	4.57
453.515	4.41
453.872	4.4
454.229	4.64
454.586	4.46
454.943	4.44
455.3	4.45
455.657	4.64
456.014	4.58
456.371	4.48
456.727	4.44
457.084	4.32
457.441	4.42
457.797	4.5
458.154	4.53
458.51	4.69
458.867	4.43
459.223	4.66
459.58	4.5
459.936	4.57
460.292	4.62
460.648	4.53
461.005	4.39
461.361	4.45
461.717	4.51
462.073	4.44
462.429	4.39
462.785	4.39
463.141	4.58
463.496	4.63
463.852	4.51
464.208	4.56
464.564	4.6
464.919	4.76
465.275	4.76
465.631	4.56
465.986	4.7
466.342	4.73
466.697	4.77
467.052	4.55
467.408	4.55
467.763	4.53
468.118	4.62
468.473	4.59
468.829	4.85
469.184	4.48
469.539	4.69
469.894	4.43
470.249	4.66
470.603	4.66
470.958	4.67
471.313	4.76
471.668	4.61
472.023	4.68
472.377	4.73
472.732	4.73
473.086	4.65
473.441	4.7
473.795	4.74
474.15	4.8
474.504	4.7
474.859	4.81
475.213	4.72
475.567	4.74
475.921	5.06
476.275	4.72
476.63	4.76
476.984	4.9
477.338	4.9
477.692	4.77
478.045	4.79
478.399	4.92
478.753	4.78
479.107	4.62
479.461	4.81
479.814	4.9
480.168	4.75
480.521	4.77
480.875	4.8
481.228	4.65
481.582	4.83
481.935	4.64
482.289	4.82
482.642	4.86
482.995	4.83
483.348	4.86
483.701	4.72
484.055	4.68
484.408	4.6
484.761	4.66
485.114	4.69
485.466	4.62
485.819	4.48
486.172	4.37
486.525	4.42
486.878	4.46
487.23	4.58
487.583	4.65
487.936	4.78
488.288	4.77
488.641	4.69
488.993	4.74
489.345	4.61
489.698	4.64
490.05	4.54
490.402	4.53
490.754	4.64
491.107	4.65
491.459	4.71
491.811	4.8
492.163	4.83
492.515	4.89
492.866	4.83
493.218	4.73
493.57	4.71
493.922	4.49
494.274	4.61
494.625	4.66
494.977	4.84
495.328	4.92
495.68	4.88
496.031	4.87
496.383	4.92
496.734	4.91
497.086	4.95
497.437	5.02
497.788	4.97
498.139	4.96
498.49	4.91
498.842	4.87
499.193	4.91
499.544	4.92
499.894	4.88
500.245	4.86
500.596	4.97
500.947	4.9
501.298	5.04
501.648	4.97
501.999	5.07
502.35	4.94
502.7	5.03
503.051	4.95
503.401	5.03
503.752	5.01
504.102	4.98
504.452	5
504.803	5.17
505.153	4.95
505.503	4.96
505.853	4.94
506.203	5.06
506.553	4.94
506.903	5.11
507.253	5.07
507.603	4.98
507.953	5.15
508.303	5.17
508.652	5.09
509.002	5.14
509.352	5.08
509.701	4.95
510.051	5.08
510.4	5.01
510.75	5.06
511.099	5.06
511.449	5.05
511.798	5.06
512.147	5.15
512.496	5.08
512.846	4.95
513.195	5.15
513.544	5.16
513.893	5.05
514.242	5.09
514.591	5.07
514.939	4.98
515.288	5.06
515.637	5.13
515.986	5.09
516.334	5.09
516.683	5.07
517.032	5.17
517.38	5.19
517.729	5.1
518.077	5.16
518.426	5.05
518.774	5.24
519.122	5.25
519.47	5.16
519.819	5.17
520.167	5.12
520.515	5.1
520.863	4.93
521.211	5.06
521.559	5.03
521.907	5.11
522.255	5.07
522.602	5.14
522.95	5.29
523.298	5.27
523.645	5.2
523.993	5.09
524.341	5.25
524.688	5.23
525.036	5.22
525.383	5.28
525.73	5.27
526.078	5.26
526.425	5.18
526.772	5.16
527.119	5.22
527.466	5.11
527.814	5.09
528.161	5.03
528.508	5.06
528.854	5.07
529.201	5.22
529.548	5.13
529.895	5.19
530.242	5.06
530.588	4.92
530.935	4.85
531.282	4.9
531.628	4.96
531.975	5.08
532.321	5.12
532.667	5.1
533.014	5.22
533.36	5.2
533.706	5.26
534.052	5.17
534.399	5.18
534.745	5.24
535.091	5.15
535.437	5.01
535.783	5.03
536.129	5.08
536.474	5.08
536.82	5.28
537.166	5.27
537.512	5.33
537.857	5.35
538.203	5.29
538.549	5.22
538.894	5.16
539.239	5.13
539.585	5.25
539.93	5.36
540.276	5.23
540.621	5.42
540.966	5.51
541.311	5.48
541.656	5.32
542.001	5.44
542.346	5.37
542.691	5.26
543.036	5.26
543.381	5.12
543.726	5.01
544.071	5.13
544.415	5.14
544.76	5.24
545.105	5.27
545.449	5.26
545.794	5.34
546.138	5.25
546.483	5.32
546.827	5.3
547.171	5.42
547.516	5.37
547.86	5.34
548.204	5.54
548.548	5.28
548.892	5.35
549.236	5.27
549.58	5.3
549.924	5.37
550.268	5.49
550.612	5.54
550.956	5.53
551.3	5.46
551.643	5.63
551.987	5.48
552.33	5.59
552.674	5.64
553.017	5.38
553.361	5.68
553.704	5.48
554.048	5.54
554.391	5.44
554.734	5.64
555.077	5.45
555.42	5.55
555.764	5.55
556.107	5.46
556.45	5.53
556.793	5.38
557.135	5.54
557.478	5.54
557.821	5.59
558.164	5.72
558.507	5.65
558.849	5.61
559.192	5.46
559.534	5.51
559.877	5.7
560.219	5.74
560.562	5.83
560.904	5.49
561.246	5.53
561.589	5.59
561.931	5.66
562.273	5.51
562.615	5.57
562.957	5.91
563.299	5.62
563.641	5.47
563.983	5.54
564.325	5.66
564.667	5.48
565.008	5.62
565.35	5.88
565.692	5.53
566.033	5.56
566.375	5.5
566.716	5.56
567.058	5.59
567.399	5.42
567.741	5.58
568.082	5.53
568.423	5.5
568.764	5.52
569.105	5.72
569.447	5.52
569.788	5.63
570.129	5.56
570.47	5.64
570.811	5.68
571.151	5.39
571.492	5.57
571.833	5.48
572.174	5.66
572.514	5.58
572.855	5.39
573.195	5.88
573.536	5.59
573.876	5.5
574.217	5.64
574.557	5.62
574.898	5.71
575.238	5.68
575.578	5.58
575.918	5.72
576.258	5.56
576.598	5.63
576.938	5.43
577.278	5.7
577.618	5.66
577.958	5.5
578.298	5.71
578.638	5.58
578.977	5.69
579.317	5.63
579.657	5.6
579.996	5.79
580.336	5.69
580.675	5.68
581.014	5.76
581.354	5.79
581.693	5.83
582.032	5.74
582.372	5.74
582.711	5.8
583.05	5.79
583.389	5.87
583.728	5.89
584.067	5.86
584.406	5.63
584.745	5.75
585.083	5.71
585.422	5.52
585.761	5.91
586.1	5.66
586.438	5.8
586.777	5.5
587.115	5.71
587.454	5.95
587.792	5.81
588.13	5.9
588.469	5.72
588.807	5.6
589.145	5.81
589.483	5.78
589.821	5.66
590.159	5.99
590.497	5.59
590.835	5.73
591.173	5.51
591.511	5.79
591.849	5.77
592.187	5.63
592.524	5.93
592.862	5.84
593.2	5.68
593.537	5.78
593.875	5.77
594.212	5.95
594.55	6.09
594.887	5.58
595.224	5.93
595.561	5.64
595.899	5.59
596.236	6.09
596.573	5.92
596.91	5.68
597.247	5.95
597.584	5.79
597.921	5.8
598.258	5.73
598.594	5.86
598.931	5.75
599.268	5.92
599.604	5.64
599.941	5.9
600.277	5.7
600.614	5.97
600.95	5.83
601.287	5.82
601.623	5.92
601.959	6.01
602.296	6.1
602.632	6
602.968	5.98
603.304	5.73
603.64	5.93
603.976	5.93
604.312	5.93
604.648	5.64
604.984	5.81
605.319	5.87
605.655	5.84
605.991	5.87
606.326	5.95
606.662	5.74
606.998	5.67
607.333	5.74
607.668	5.86
608.004	5.91
608.339	5.91
608.674	5.74
609.01	5.89
609.345	6.06
609.68	6
610.015	6.13
610.35	6.18
610.685	5.98
611.02	6.08
611.355	6.02
611.689	5.73
612.024	5.99
612.359	5.97
612.694	5.98
613.028	5.77
613.363	5.73
613.697	5.9
614.032	5.82
614.366	5.81
614.7	6.15
615.035	6.01
615.369	5.73
615.703	6.19
616.037	5.74
616.371	5.69
616.705	5.93
617.039	6.05
617.373	6.22
617.707	5.87
618.041	6.08
618.375	5.86
618.709	6.24
619.042	6.11
619.376	5.77
619.71	5.72
620.043	5.72
620.377	6.22
620.71	5.71
621.043	6.1
621.377	6.11
621.71	5.99
622.043	5.64
622.376	6.16
622.709	6
623.043	5.97
623.376	6.16
623.709	6.23
624.041	6.14
624.374	5.95
624.707	5.9
625.04	5.81
625.373	6.07
625.705	6.03
626.038	5.83
626.37	6.13
626.703	6.18
627.035	6.16
627.368	6.29
627.7	6.07
628.032	6.06
628.365	5.81
628.697	6.1
629.029	6.05
629.361	5.83
629.693	5.73
630.025	6.02
630.357	6
630.689	6.21
631.021	5.78
631.353	6.05
631.684	6.43
632.016	5.88
632.348	5.86
632.679	6.31
633.011	5.79
633.342	5.83
633.674	6.23
634.005	6.05
634.336	5.65
634.668	6.14
634.999	6
635.33	6.24
635.661	6.09
635.992	5.94
636.323	6.26
636.654	6.12
636.985	5.84
637.316	5.89
637.647	6.31
637.977	6.25
638.308	6.14
638.639	5.64
638.969	6.37
639.3	5.81
639.63	6.14
639.961	5.99
640.291	6.2
640.622	6.39
640.952	5.96
641.282	5.84
641.612	6.02
641.943	5.84
642.273	6.71
642.603	6.28
642.933	5.81
643.263	6.28
643.592	5.67
643.922	6.52
644.252	6.2
644.582	6.21
644.911	6.28
645.241	6.28
645.571	6.02
645.9	6.06
646.23	6.25
646.559	6.17
646.888	6.46
647.218	5.68
647.547	6.39
647.876	6.59
648.205	6.25
648.534	6.44
648.863	6.39
649.192	6.11
649.521	6.24
649.85	6.52
650.179	6.62
650.508	5.8
650.837	6.25
651.165	5.7
651.494	6.46
651.822	6.26
652.151	5.98
652.479	6.68
652.808	6.09
653.136	6.01
653.465	6.44
653.793	6.43
654.121	6.88
654.449	6.49
654.777	6.18
655.105	5.8
655.433	6.14
655.761	5.54
656.089	6.03
656.417	6.14
656.745	7.04
657.073	6.32
657.4	6.58
657.728	6.76
658.056	6.1
658.383	5.85
658.711	6.53
659.038	6.32
659.365	6.46
659.693	6.19
660.02	6.28
660.347	7.11
660.674	6.45
661.001	6.36
661.329	6.12
661.656	6.01
661.982	6.31
662.309	6.63
662.636	6.34
662.963	6.63
663.29	6.4
663.616	6.12
663.943	6.07
664.27	6.34
664.596	6.36
664.923	6.42
665.249	5.9
665.576	6.39
665.902	6.2
666.228	6.17
666.554	6.29
666.881	6.5
667.207	6.3
667.533	6.2
667.859	5.49
668.185	6.43
668.511	6.26
668.837	5.56
669.162	6.76
669.488	6.29
669.814	6.4
670.139	6.33
670.465	6.63
670.791	6.24
671.116	6.54
671.442	6.64
671.767	6.2
672.092	6.83
672.418	6.3
672.743	6.76
673.068	6.17
673.393	6.47
673.718	5.81
674.043	6.23
674.368	6.65
674.693	6.88
675.018	6.53
675.343	6.57
675.667	6.76
675.992	6.56
676.317	5.93
676.641	6.89
676.966	6.78
677.29	5.99
677.615	6.86
677.939	6.42
678.264	5.95
678.588	6.77
678.912	7.09
679.236	6.19
679.56	6.57
679.885	6.86
680.209	6.61
680.532	6.8
680.856	6.85
681.18	6.52
681.504	6.17
681.828	6.5
682.152	7.03
682.475	6.97
682.799	6.49
683.122	6.34
683.446	6.24
683.769	6.83
684.093	6.71
684.416	6.84
684.739	6.12
685.062	7.47
685.386	6.13
685.709	7.21
686.032	6.88
686.355	6.02
686.678	7.25
687.001	6.08
687.324	6.95
687.646	6.37
687.969	6.78
688.292	6.44
688.614	6.89
688.937	6.24
689.26	6.79
689.582	6.14
689.904	6.21
690.227	7.01
690.549	6.44
690.871	6.97
691.194	6.87
691.516	6.78
691.838	6.81
692.16	7.03
692.482	6.46
692.804	6.33
693.126	6.1
693.448	7.04
693.769	7.11
694.091	5.9
694.413	6.78
694.735	7.41
695.056	6.41
695.378	6.9
695.699	7.74
696.021	7.42
696.342	6.98
696.663	7.14
696.984	6.13
697.306	6.7
697.627	6.24
697.948	6.74
698.269	6.03
698.59	5.83
698.911	6.41
699.232	6.63
699.553	6.85
699.873	6.13
700.194	6.92
700.515	7.56
700.835	7.58
701.156	7.17
701.477	6.92
701.797	6.86
702.117	6.29
702.438	7.32
702.758	7.1
703.078	7.29
703.398	6.6
703.719	8.15
704.039	7.28
704.359	6.75
704.679	6.18
704.999	6.9
705.319	7.14
705.638	7.6
705.958	6.29
706.278	6.62
706.597	5.7
706.917	7.68
707.237	6.6
707.556	7.17
707.876	7.99
708.195	7.5
708.514	7.52
708.834	6.23
709.153	7.16
709.472	7.85
709.791	6.81
710.11	7.25
710.429	6.28
710.748	7.13
711.067	6.68
711.386	7.31
711.705	8.23
712.023	6.68
712.342	7.83
712.661	6.83
712.979	7.48
713.298	7.49
713.616	7.77
713.935	6.54
714.253	7.26
714.572	7.12
714.89	6.76
715.208	7.69
715.526	6.9
715.844	7.63
716.162	5.98
716.48	6.02
716.798	7.12
717.116	6.85
717.434	7.52
717.752	6.91
718.069	7.55
718.387	7.5
718.705	7.06
719.022	7.08
719.34	6.93
719.657	7.4
719.975	7.1
720.292	6.54
720.609	7.53
720.927	8.43
721.244	7.34
721.561	7.61
721.878	6.99
722.195	7.55
722.512	7.44
722.829	7.23
723.146	7.33
723.463	7.22
723.779	7.86
724.096	7.23
724.413	7.58
724.729	8.2
725.046	6.96
725.362	7.64
725.679	8.43
725.995	8.21
726.311	7.26
726.628	8.99
726.944	8.37
727.26	7.07
727.576	5.3
727.892	6.6
728.208	7.95
728.524	7.03
728.84	7.69
729.156	7.28
729.472	7.39
729.787	8.64
730.103	8.18
730.419	7.97
730.734	7.61
731.05	7.37
731.365	6.78
731.681	7.79
731.996	7.56
732.311	8.56
732.626	7.96
732.942	8.81
733.257	7.66
733.572	7.35
733.887	7.53
734.202	8.36
734.517	6.94
734.832	8.23
735.146	9.15
735.461	7.54
735.776	7.41
736.091	7.38
736.405	8.09
736.72	7.88
737.034	7.87
737.349	8.15
737.663	7.37
737.977	7.23
738.292	7.21
738.606	7.88
738.92	7.09
739.234	8.2
739.548	8.55
739.862	8.08
740.176	6.94
740.49	7.54
740.804	6.34
741.117	7.12
741.431	8.11
741.745	8
742.058	8.87
742.372	9.45
742.685	9.22
742.999	8.51
743.312	7.56
743.626	9.18
743.939	7.98
744.252	8.11
744.565	8.65
744.878	8.07
745.191	8.3
745.505	8.08
745.817	8.89
746.13	7.65
746.443	7.83
746.756	8.65
747.069	8.31
747.381	7.9
747.694	9.04
748.007	7.54
748.319	6.8
748.632	7.11
748.944	7.16
749.256	8.68
749.569	7.51
749.881	9.29
750.193	6.94
750.505	9.83
750.817	9.03
751.129	8.32
751.441	9.41
751.753	7.14
752.065	7.07
752.377	7.31
752.689	8.18
753	7.12
753.312	9.79
753.624	8.81
753.935	8.59
754.247	8.53
754.558	8.05
754.869	9.37
755.181	8.04
755.492	7.31
755.803	8.58
756.114	9.04
756.425	7.39
756.736	7.95
757.047	6.81
757.358	7.82
757.669	8.66
757.98	9.71
758.291	5.77
758.601	7.4
758.912	9.05
759.223	7.83
759.533	9.05
759.844	9.1
760.154	7.28
760.464	7.9
760.775	9.13
761.085	8.03
761.395	7.89
761.705	8.74
762.016	8.63
762.326	9.38
762.636	7.33
762.945	10.25
763.255	9.33
763.565	9.59
763.875	9.9
764.185	7.65
764.494	7.85
764.804	7.15
765.113	8.47
765.423	8.01
765.732	9.37
766.042	7.27
766.351	8.16
766.66	7.99
766.97	7.69
767.279	8.37
767.588	8.12
767.897	8.23
768.206	9.07
768.515	7.67
768.824	8.48
769.133	8.5
769.441	8.42
769.75	8.23
770.059	10.7
770.367	10.95
770.676	4.47
770.984	10.64
771.293	9.18
771.601	10.04
771.91	8.63
772.218	8.42
772.526	9.94
772.834	8.2
773.142	7.97
773.45	6.65
773.758	7.54
774.066	10.16
774.374	7.96
774.682	12.04
774.99	9.12
775.298	9.86
775.605	6.82
775.913	8.27
776.22	8.03
776.528	11.87
776.835	7.77
777.143	8.81
777.45	11.1
777.757	9.63
778.065	10.09
778.372	12.49
778.679	10.68
778.986	6.46
779.293	12.19
779.6	8.91
779.907	11.33
780.214	7.04
780.52	10.75
780.827	10.21
781.134	10.71
781.44	9.35
781.747	9.95
782.053	12.25
782.36	5.21
782.666	9.16
782.973	8.46
783.279	6.46
783.585	8.85
783.891	8.22
784.197	5.44
784.503	6.69
784.809	9.86
785.115	9.3
785.421	9.47
785.727	12.2
786.033	8.79
786.339	10.07
786.644	8.98
786.95	10.39
787.255	7.93
787.561	7.06
787.866	9.02
788.172	8.5
788.477	7.56
788.782	11.33
789.088	11.01
789.393	11.44
789.698	11.63
790.003	10.82
790.308	8.13
790.613	9.95
790.918	9.74
791.223	9.63
791.527	6.6
791.832	9.03
792.137	9.97
792.441	11.53
792.746	8.67
793.05	7.1
793.355	11.63
793.659	10.58
793.963	8.79
794.268	12.1
794.572	7.46
794.876	7.04
795.18	8.7
795.484	8.69
795.788	8.99
796.092	6.9
796.396	11.49
796.7	13.14
797.004	6.67
797.307	9.65
797.611	8.42
797.915	12.79
798.218	6.04
798.522	11.61
798.825	10.4
799.128	5.2
799.432	12.2
799.735	11.96
800.038	10.91
800.341	8.86
800.644	9.08
800.947	9.16
801.25	7.31
801.553	12.53
801.856	11.16
802.159	10.6
802.462	10.6
802.764	8.77
803.067	10.01
803.37	8.43
803.672	8.2
803.975	5.14
804.277	10.12
804.579	9.07
804.882	10.58
805.184	6.28
805.486	10.68
805.788	14.52
806.09	13.75
806.392	12.45
806.694	7.69
806.996	11.11
807.298	12.67
807.6	10.12
807.902	10.98
808.203	9.32
808.505	11.22
808.807	9.2
809.108	7.92
809.409	12
809.711	6.86
810.012	6.44
810.313	12.98
810.615	10.33
810.916	14.34
811.217	11.67
811.518	10.02
811.819	10.25
812.12	12.33
812.421	9.82
812.722	13.5
813.023	12.53
813.323	8.82
813.624	12.39
813.925	13.26
814.225	12.07
814.526	15.24
814.826	10.65
815.126	8.51
815.427	13.71
815.727	12.28
816.027	9.91
816.327	15.94
816.627	15.52
816.927	11.24
817.227	15.11
817.527	4.84
817.827	11.91
818.127	3.47
818.427	4.73
818.727	11.78
819.026	10.44
819.326	7.73
819.625	11.16
819.925	12.64
820.224	8.3
820.524	5.53
820.823	9.64
821.122	11.15
821.421	11.97
821.72	10.82
822.019	9.8
822.318	9.37
822.617	8.89
822.916	9.82
823.215	13.26
823.514	8.22
823.813	10.65
824.111	12.76
824.41	9.71
824.709	11.23
825.007	8.72
825.306	10.79
825.604	11.46
825.902	11.83
826.201	11.16
826.499	11.13
826.797	11.01
827.095	10.17
827.393	11.66
827.691	10.01
827.989	11.31
828.287	10.69
828.585	9.81
828.882	10.65
829.18	11.44
829.478	12.78
829.775	11.68
830.073	11.53
830.37	11.34
830.668	9.92
830.965	12.05
831.263	9.77
831.56	11.49
831.857	11.57
832.154	10.06
832.451	9.01
832.748	10.3
833.045	5.52
833.342	14.46
833.639	10.84
833.936	11.73
834.232	11.25
834.529	11.03
834.826	9.78
835.122	13.92
835.419	13.26
835.715	8.61
836.012	10.66
836.308	12.43
836.604	12.22
836.901	12.07
837.197	11.47
837.493	11.53
837.789	11.55
838.085	12.26
838.381	11.11
838.677	8.62
838.972	12.33
839.268	11.01
839.564	10.5
839.86	14.2
840.155	9.68
840.451	11.49
840.746	14.48
841.042	10.75
841.337	6.27
841.632	3.27
841.928	-1.58
842.223	13.9
842.518	12.79
842.813	7.96
843.108	11.31
843.403	14.97
843.698	12.02
843.993	5.28
844.287	18.19
844.582	16.94
844.877	12.09
845.171	4.6
845.466	9.57
845.761	10.34
846.055	5.16
846.349	7.18
846.644	7.05
846.938	10.47
847.232	12.98
847.526	10.64
847.82	7.65
848.114	9.93
848.408	6.35
848.702	13.57
848.996	4.75
849.29	11.21
849.584	14.5
849.877	23.61
850.171	8.72
850.465	20.94
850.758	18.52
851.052	9.35
851.345	8.5
851.638	3.09
851.932	13.4
852.225	9.11
852.518	17.13
852.811	7.75
853.104	-1.72
853.397	-4.29
853.69	17.76
853.983	10.8
854.276	8.35
854.569	6.57
854.861	13.18
855.154	8.72
855.447	24.4
855.739	14.2
856.032	1.91
856.324	8.01
856.616	-10.16
856.909	4.6
857.201	7.58
857.493	9.56
857.785	17.81
858.077	3
858.369	-0.49
858.661	4.94
858.953	2.17
859.245	16.47
859.537	22.84
859.829	3.31
860.12	2.1
860.412	7.81
860.703	21.67
860.995	4.25
861.286	25.97
861.578	4.56
861.869	3.89
862.16	29
862.452	24.17
862.743	18.96
863.034	20.72
863.325	23.57
863.616	18.03
863.907	21.34
864.198	7.01
864.488	-5.63
864.779	0.78
865.07	22.69
865.36	14.68
865.651	7.19
865.941	7.89
866.232	15.25
866.522	9.12
866.813	16.86
867.103	19.86
867.393	7.46
867.683	12.36
867.973	13.24
868.263	-6.13
868.553	0.69
868.843	34.19
869.133	7.32
869.423	7.59
869.713	1.95
870.002	10.9
870.292	10.43
870.582	9.42
870.871	21.75
871.161	21.96
871.45	17.29
871.739	-7.31
872.029	-33.08
872.318	16.06
872.607	19.83
872.896	1.76
873.185	26.8
873.474	6.43
873.763	-17.75
874.052	-16.31
874.341	-7.22
874.63	13.72
874.918	16.29
875.207	14.06
875.496	26.73
875.784	24.62
876.073	-0.17
876.361	25.82
876.649	8.81
876.938	25.02
877.226	3.99
877.514	10.97
877.802	22.48
878.09	16.02
878.378	28.84
878.666	21.46
878.954	-3.69
879.242	17.07
879.53	17.93
879.817	2.03
880.105	16.9
880.392	-11.34
880.68	20.45
880.967	11.52
881.255	33.39
881.542	24.32
881.83	16.48
882.117	6.22
882.404	29.27
882.691	8.29
882.978	11.21
883.265	10.62
883.552	23.17
883.839	24.31
884.126	13.53
884.413	9.86
884.699	1.36
884.986	21.87
885.273	21.77
885.559	21.77
885.846	21.77
