Data from 0188_forehead_Reflection__2__154.txt Node

Date: Fri Sep 22 21:30:20 CDT 2023
User: ToomeyLab
Spectrometer: FLMS14357
Trigger mode: 0
Integration Time (sec): 1.000000E-2
Scans to average: 100
Electric dark correction enabled: true
Nonlinearity correction enabled: false
Boxcar width: 0
XAxis mode: Wavelengths
Number of Pixels in Spectrum: 2048
>>>>>Begin Spectral Data<<<<<
189.047	-993.09
189.435	-993.09
189.823	-993.09
190.211	103.11
190.599	-1284.76
190.987	81.55
191.375	40.49
191.763	-995.82
192.151	1166.19
192.538	33.08
192.926	475.58
193.314	-12.49
193.702	138.3
194.089	88.72
194.477	39.78
194.864	405.49
195.252	115.15
195.639	-101.3
196.027	374.59
196.414	82.94
196.801	16.18
197.189	317.75
197.576	57.31
197.963	624.37
198.351	63.79
198.738	30.97
199.125	28.11
199.512	19.82
199.899	100.15
200.286	54.16
200.673	89.2
201.06	4.94
201.447	75.84
201.833	-16.3
202.22	62.36
202.607	72.96
202.994	114.96
203.38	40.79
203.767	83.1
204.154	41.18
204.54	59.22
204.927	101.63
205.313	33.35
205.699	77.54
206.086	62.53
206.472	83.09
206.858	66.92
207.245	52.5
207.631	37.75
208.017	11.9
208.403	43.5
208.789	56.86
209.175	75.77
209.561	53.41
209.947	58.31
210.333	67.99
210.719	-27.13
211.105	73.62
211.491	75.69
211.876	45.92
212.262	38.36
212.648	38.93
213.034	52.83
213.419	23.55
213.805	29.84
214.19	24.87
214.576	39.77
214.961	24.87
215.346	22.09
215.732	52.73
216.117	36.19
216.502	63.74
216.888	61.66
217.273	40.23
217.658	3.65
218.043	32.27
218.428	37.2
218.813	7.48
219.198	16.17
219.583	44.22
219.968	14.67
220.353	30.8
220.738	24.7
221.122	42.7
221.507	4.69
221.892	2.13
222.276	22.53
222.661	20.65
223.046	35.16
223.43	33.72
223.815	18.74
224.199	13.77
224.583	29.62
224.968	23.46
225.352	20.8
225.736	14.8
226.121	12.02
226.505	21.35
226.889	15.8
227.273	10.93
227.657	12.73
228.041	9.77
228.425	14.58
228.809	6.52
229.193	8.34
229.577	15.35
229.961	8.33
230.344	9.82
230.728	5.21
231.112	7.89
231.495	6.09
231.879	6.46
232.263	7.06
232.646	6.69
233.03	6.48
233.413	8.06
233.797	5.89
234.18	6.23
234.563	10.04
234.946	6.98
235.33	7.46
235.713	4.27
236.096	6.2
236.479	6.56
236.862	9.38
237.245	7.45
237.628	7.28
238.011	8.96
238.394	6.61
238.777	7.92
239.16	7.51
239.543	9.41
239.925	9.93
240.308	8.3
240.691	7.2
241.073	7.54
241.456	9.44
241.838	6.59
242.221	5.66
242.603	5.89
242.986	5.86
243.368	6.39
243.75	6.36
244.133	6.77
244.515	6.28
244.897	5.68
245.279	5.94
245.661	6.5
246.043	6.19
246.425	4.9
246.807	7.31
247.189	6.29
247.571	6.49
247.953	6.99
248.335	5.92
248.717	5.68
249.098	5.59
249.48	5.59
249.862	5.55
250.243	5.76
250.625	5.87
251.006	5.59
251.388	5.92
251.769	6.28
252.151	6.58
252.532	6.89
252.913	6.76
253.295	6.41
253.676	6.32
254.057	6.74
254.438	6.3
254.819	5.67
255.2	6.4
255.581	6.46
255.962	6.14
256.343	6.35
256.724	5.84
257.105	7.52
257.486	6.45
257.867	6.66
258.247	5.96
258.628	8.17
259.009	7.22
259.389	6.69
259.77	6.32
260.15	7.14
260.531	5.69
260.911	6.35
261.292	5.57
261.672	5.54
262.052	5.51
262.432	5.44
262.813	5.64
263.193	5.41
263.573	6.36
263.953	5.9
264.333	5.99
264.713	6.14
265.093	5.86
265.473	6.02
265.853	5.58
266.233	5.72
266.612	6.04
266.992	6.89
267.372	6.4
267.752	7.01
268.131	5.97
268.511	5.43
268.89	5.69
269.27	6
269.649	5.82
270.029	5.9
270.408	6.08
270.787	5.82
271.167	5.78
271.546	5.49
271.925	5.63
272.304	5.66
272.683	5.37
273.062	6.02
273.441	5.46
273.82	6.16
274.199	6.06
274.578	5.83
274.957	5.5
275.336	5.5
275.715	5.42
276.093	5.49
276.472	5.76
276.851	5.42
277.229	5.71
277.608	6.1
277.986	5.63
278.365	5.7
278.743	6.04
279.122	5.59
279.5	6.11
279.878	5.44
280.257	6.03
280.635	6.04
281.013	5.76
281.391	5.53
281.769	5.81
282.147	6.21
282.525	5.63
282.903	5.93
283.281	5.9
283.659	5.91
284.037	5.51
284.415	6.09
284.792	5.3
285.17	5.6
285.548	5.94
285.925	5.69
286.303	5.91
286.68	5.35
287.058	5.74
287.435	5.85
287.813	5.39
288.19	5.61
288.567	5.86
288.945	5.59
289.322	5.59
289.699	5.54
290.076	5.69
290.453	6.04
290.83	5.79
291.207	5.59
291.584	5.64
291.961	5.61
292.338	5.87
292.715	6.33
293.092	5.7
293.469	5.83
293.845	5.66
294.222	6.66
294.599	6.33
294.975	6.19
295.352	6.35
295.728	6.32
296.105	6.33
296.481	6.65
296.858	6.13
297.234	6.67
297.61	6.66
297.986	6.24
298.363	6.2
298.739	6.55
299.115	6.49
299.491	6.48
299.867	6.48
300.243	6.12
300.619	6.52
300.995	6.38
301.371	7.27
301.746	7.05
302.122	7.15
302.498	6.34
302.874	6.62
303.249	6.86
303.625	7.11
304	7.37
304.376	7.3
304.751	7.17
305.127	6.87
305.502	7.89
305.878	7.31
306.253	6.99
306.628	7.37
307.003	7.76
307.378	7.45
307.754	7.99
308.129	7.06
308.504	7.34
308.879	7.96
309.254	7.98
309.629	7.47
310.003	7.82
310.378	8.16
310.753	7.91
311.128	7.8
311.502	8.08
311.877	7.81
312.252	8.03
312.626	7.87
313.001	8
313.375	8.41
313.75	8.45
314.124	8.48
314.498	7.81
314.873	8.28
315.247	9.08
315.621	9.22
315.995	8.61
316.369	8.74
316.743	8.36
317.117	8.92
317.491	9.27
317.865	8.8
318.239	9.18
318.613	9.29
318.987	9.17
319.361	8.79
319.734	8.81
320.108	9.03
320.482	8.85
320.855	9.67
321.229	9.73
321.602	9.67
321.976	9.65
322.349	9.45
322.723	9.76
323.096	9.72
323.469	9.82
323.843	9.9
324.216	9.52
324.589	9.91
324.962	10
325.335	9.96
325.708	10.14
326.081	10.56
326.454	9.82
326.827	10.09
327.2	9.62
327.573	10.49
327.945	10.32
328.318	9.93
328.691	10.66
329.063	10.22
329.436	10.64
329.809	11.14
330.181	10.32
330.553	10.74
330.926	10.85
331.298	10.87
331.671	10.66
332.043	10.48
332.415	10.83
332.787	11.42
333.159	10.54
333.532	10.66
333.904	11.06
334.276	10.61
334.648	10.71
335.02	10.93
335.391	11.15
335.763	11.35
336.135	11.22
336.507	11.15
336.879	11.39
337.25	11.62
337.622	11.68
337.993	11.73
338.365	11.56
338.736	11.65
339.108	11.85
339.479	11.7
339.851	11.26
340.222	11.19
340.593	11.4
340.964	11.34
341.336	11.88
341.707	11.99
342.078	11.48
342.449	12.33
342.82	12.01
343.191	11.55
343.562	12.1
343.933	12.05
344.303	11.98
344.674	12.48
345.045	12.12
345.416	12.24
345.786	11.83
346.157	12.48
346.527	12.1
346.898	12.7
347.268	12.25
347.639	12.37
348.009	12.5
348.38	12.51
348.75	12.94
349.12	12.72
349.49	13.68
349.861	12.91
350.231	12.99
350.601	13.02
350.971	13.03
351.341	13.07
351.711	12.96
352.081	12.76
352.45	13.05
352.82	13.12
353.19	13.53
353.56	13.13
353.929	13.67
354.299	13.56
354.669	13.09
355.038	13.97
355.408	13.64
355.777	13.93
356.147	13.4
356.516	13.47
356.885	14.04
357.254	14.01
357.624	13.53
357.993	14.3
358.362	14.12
358.731	14.01
359.1	14.19
359.469	14.04
359.838	13.75
360.207	13.88
360.576	14.41
360.945	14.15
361.314	14.54
361.682	14.68
362.051	14.38
362.42	14.65
362.788	14.53
363.157	14.62
363.525	14.7
363.894	14.55
364.262	14.09
364.631	14.48
364.999	14.36
365.367	15.1
365.735	14.53
366.104	14.71
366.472	15.25
366.84	14.84
367.208	15.31
367.576	15.62
367.944	15.2
368.312	15.17
368.68	15.41
369.048	15.81
369.416	15.11
369.783	15.55
370.151	15.72
370.519	15.48
370.886	15.84
371.254	15.91
371.621	15.82
371.989	16.05
372.356	16.01
372.724	16.11
373.091	16.25
373.458	16.14
373.826	16.23
374.193	16.45
374.56	16.18
374.927	16.17
375.294	16.26
375.661	16.34
376.028	16.63
376.395	16.76
376.762	16.54
377.129	16.85
377.496	16.73
377.863	16.78
378.229	16.93
378.596	16.49
378.963	16.87
379.329	17.02
379.696	17.24
380.062	16.8
380.429	17.1
380.795	17.07
381.161	17.09
381.528	17.14
381.894	16.65
382.26	17.19
382.626	17.72
382.993	17.76
383.359	17.34
383.725	17.65
384.091	17.66
384.457	17.6
384.823	17.56
385.188	18.01
385.554	18.17
385.92	18.14
386.286	17.76
386.651	18.14
387.017	18.17
387.383	18.02
387.748	18.16
388.114	18.25
388.479	18.43
388.845	18.1
389.21	18.28
389.575	18.63
389.94	18.24
390.306	18.58
390.671	19.05
391.036	18.41
391.401	18.65
391.766	19.19
392.131	18.72
392.496	18.72
392.861	19.04
393.226	18.97
393.591	19.23
393.956	18.82
394.32	19.25
394.685	19.07
395.05	19.34
395.414	19.46
395.779	19.61
396.143	19.31
396.508	19.78
396.872	19.58
397.236	19.53
397.601	19.4
397.965	19.88
398.329	19.87
398.694	19.73
399.058	19.87
399.422	20
399.786	20.36
400.15	20.23
400.514	20.05
400.878	20.09
401.242	20.87
401.605	19.99
401.969	20.17
402.333	20.65
402.697	20.38
403.06	20.42
403.424	20.69
403.787	20.6
404.151	20.65
404.514	20.72
404.878	20.9
405.241	21.01
405.604	20.78
405.968	21.02
406.331	20.94
406.694	21.01
407.057	20.99
407.42	21.27
407.783	21.03
408.146	21.24
408.509	21.14
408.872	21.28
409.235	21.23
409.598	21.28
409.961	21.7
410.323	21.42
410.686	21.79
411.049	21.82
411.411	21.92
411.774	21.72
412.136	21.91
412.499	21.79
412.861	21.73
413.223	21.99
413.586	22.09
413.948	22.22
414.31	22.39
414.672	22.17
415.035	22.17
415.397	22.74
415.759	22.49
416.121	22.19
416.483	22.45
416.845	22.46
417.206	22.61
417.568	22.68
417.93	22.62
418.292	22.67
418.653	22.59
419.015	22.63
419.377	22.61
419.738	22.85
420.1	22.77
420.461	22.68
420.822	22.71
421.184	22.88
421.545	22.77
421.906	22.87
422.267	22.81
422.629	22.97
422.99	22.8
423.351	22.82
423.712	22.84
424.073	22.86
424.434	23.04
424.795	23.31
425.155	23.41
425.516	23.41
425.877	23.38
426.238	23.5
426.598	23.34
426.959	23.29
427.32	23.64
427.68	23.5
428.041	23.69
428.401	24.02
428.761	24.12
429.122	24.04
429.482	24.29
429.842	24.36
430.202	24.33
430.563	24.34
430.923	24.66
431.283	24.46
431.643	24.66
432.003	25.05
432.363	24.94
432.722	24.86
433.082	24.99
433.442	24.78
433.802	24.99
434.161	25.06
434.521	25.11
434.881	24.9
435.24	25.05
435.6	24.88
435.959	25
436.319	25.06
436.678	25.22
437.037	25.4
437.396	25.42
437.756	25.52
438.115	25.71
438.474	25.89
438.833	25.86
439.192	25.81
439.551	25.94
439.91	26.06
440.269	25.8
440.628	25.97
440.987	25.98
441.345	26.01
441.704	26.07
442.063	25.93
442.421	26.08
442.78	25.98
443.138	26.06
443.497	26.15
443.855	26.29
444.214	26.31
444.572	26.64
444.93	26.54
445.288	26.47
445.647	26.73
446.005	26.76
446.363	26.72
446.721	26.66
447.079	26.85
447.437	26.87
447.795	26.96
448.153	26.61
448.51	26.61
448.868	26.44
449.226	26.46
449.584	26.79
449.941	26.92
450.299	27
450.656	27.14
451.014	27.21
451.371	27.3
451.729	27.52
452.086	27.32
452.443	27.75
452.801	27.71
453.158	27.99
453.515	28.15
453.872	27.98
454.229	28.06
454.586	27.86
454.943	28.14
455.3	28.02
455.657	28.12
456.014	28.13
456.371	28.38
456.727	28.63
457.084	28.38
457.441	28.28
457.797	28.66
458.154	28.48
458.51	28.85
458.867	28.79
459.223	28.61
459.58	29
459.936	28.94
460.292	28.92
460.648	29.03
461.005	28.93
461.361	28.83
461.717	28.56
462.073	28.62
462.429	28.53
462.785	28.66
463.141	28.84
463.496	28.95
463.852	29.16
464.208	29.15
464.564	29.51
464.919	29.39
465.275	29.5
465.631	29.96
465.986	29.8
466.342	29.83
466.697	29.96
467.052	29.9
467.408	29.86
467.763	29.96
468.118	30.13
468.473	30.06
468.829	30.07
469.184	30.14
469.539	30.22
469.894	30.22
470.249	30.43
470.603	30.38
470.958	30.64
471.313	30.51
471.668	30.58
472.023	30.65
472.377	30.97
472.732	30.63
473.086	30.97
473.441	30.75
473.795	31.05
474.15	30.92
474.504	30.97
474.859	31.1
475.213	30.89
475.567	31.24
475.921	31.17
476.275	31.48
476.63	31.34
476.984	31.6
477.338	31.78
477.692	31.49
478.045	31.81
478.399	31.52
478.753	31.54
479.107	31.68
479.461	31.54
479.814	31.83
480.168	31.98
480.521	31.9
480.875	31.97
481.228	31.79
481.582	31.88
481.935	31.94
482.289	31.88
482.642	32.12
482.995	32.09
483.348	32.06
483.701	32.1
484.055	32.09
484.408	32.07
484.761	31.91
485.114	31.74
485.466	31.56
485.819	31.37
486.172	31.35
486.525	31.47
486.878	31.4
487.23	31.45
487.583	31.69
487.936	31.83
488.288	32.09
488.641	32.2
488.993	32.18
489.345	32.15
489.698	32.13
490.05	31.94
490.402	32.11
490.754	32.11
491.107	32.15
491.459	32.47
491.811	32.69
492.163	32.87
492.515	33
492.866	33.32
493.218	32.96
493.57	33.01
493.922	32.67
494.274	32.8
494.625	32.77
494.977	32.93
495.328	33.22
495.68	33.47
496.031	33.64
496.383	33.96
496.734	34.32
497.086	34.14
497.437	34.36
497.788	34.26
498.139	34.43
498.49	34.63
498.842	34.18
499.193	34.39
499.544	34.36
499.894	34.47
500.245	34.58
500.596	34.67
500.947	34.59
501.298	34.88
501.648	34.89
501.999	34.96
502.35	35.02
502.7	35
503.051	35.27
503.401	35.11
503.752	35.25
504.102	35.46
504.452	35.31
504.803	35.2
505.153	35.64
505.503	35.65
505.853	35.85
506.203	35.66
506.553	35.75
506.903	35.77
507.253	35.84
507.603	35.67
507.953	35.81
508.303	35.94
508.652	35.89
509.002	36.21
509.352	35.91
509.701	36.13
510.051	36.25
510.4	36.28
510.75	36.25
511.099	35.89
511.449	36.09
511.798	36.16
512.147	36.05
512.496	36.12
512.846	36.38
513.195	36.42
513.544	36.54
513.893	36.54
514.242	36.69
514.591	36.59
514.939	36.58
515.288	36.51
515.637	36.81
515.986	36.78
516.334	37.04
516.683	36.97
517.032	37.33
517.38	37.11
517.729	37.14
518.077	37.36
518.426	37.25
518.774	37.35
519.122	37.4
519.47	37.22
519.819	37.48
520.167	37.35
520.515	37.12
520.863	37.07
521.211	37.1
521.559	37.07
521.907	37.32
522.255	37.2
522.602	37.4
522.95	37.86
523.298	37.81
523.645	37.9
523.993	37.87
524.341	38.29
524.688	38.3
525.036	38.24
525.383	38.35
525.73	38.4
526.078	38.4
526.425	38.38
526.772	38.52
527.119	38.48
527.466	38.11
527.814	38.2
528.161	37.99
528.508	38.1
528.854	38.11
529.201	38.32
529.548	38.18
529.895	38.18
530.242	38.19
530.588	37.93
530.935	37.84
531.282	38.05
531.628	37.98
531.975	37.86
532.321	38.01
532.667	38.23
533.014	38.53
533.36	38.69
533.706	39.02
534.052	39.05
534.399	39.04
534.745	38.86
535.091	38.76
535.437	38.83
535.783	38.53
536.129	38.68
536.474	38.99
536.82	38.95
537.166	39.27
537.512	39.32
537.857	39.61
538.203	39.76
538.549	39.67
538.894	39.6
539.239	39.69
539.585	39.69
539.93	39.72
540.276	39.92
540.621	40.06
540.966	40.32
541.311	40.36
541.656	40.3
542.001	40.52
542.346	40.67
542.691	40.56
543.036	40.08
543.381	39.84
543.726	39.81
544.071	39.82
544.415	39.75
544.76	39.83
545.105	40.05
545.449	40.02
545.794	40.35
546.138	40.43
546.483	40.42
546.827	40.68
547.171	41.12
547.516	41.14
547.86	41.05
548.204	41.13
548.548	41.12
548.892	41.34
549.236	40.99
549.58	41.13
549.924	41.44
550.268	41.4
550.612	41.62
550.956	41.84
551.3	41.93
551.643	42.28
551.987	42.14
552.33	42.39
552.674	42.16
553.017	42.17
553.361	42.3
553.704	42.41
554.048	42.44
554.391	42.41
554.734	42.27
555.077	42.46
555.42	42.5
555.764	42.42
556.107	42.51
556.45	42.57
556.793	42.64
557.135	42.66
557.478	42.86
557.821	42.89
558.164	43.09
558.507	43.18
558.849	42.94
559.192	43.18
559.534	43.51
559.877	43.08
560.219	42.95
560.562	43.6
560.904	43.59
561.246	43.53
561.589	43.84
561.931	43.4
562.273	43.42
562.615	43.71
562.957	43.51
563.299	43.73
563.641	43.77
563.983	43.87
564.325	43.91
564.667	43.94
565.008	43.87
565.35	43.9
565.692	43.83
566.033	44.04
566.375	44.02
566.716	44.36
567.058	44.2
567.399	43.92
567.741	44.27
568.082	44.19
568.423	44.07
568.764	44.25
569.105	43.87
569.447	44.06
569.788	44.23
570.129	44.35
570.47	44.58
570.811	44.79
571.151	44.84
571.492	44.73
571.833	44.61
572.174	44.5
572.514	44.96
572.855	44.99
573.195	44.9
573.536	44.89
573.876	44.79
574.217	44.88
574.557	44.53
574.898	45.16
575.238	45.07
575.578	45.04
575.918	45.23
576.258	44.8
576.598	45.05
576.938	45.36
577.278	45.52
577.618	44.95
577.958	45.17
578.298	45.31
578.638	45.5
578.977	45.5
579.317	45.56
579.657	45.76
579.996	45.72
580.336	45.85
580.675	45.88
581.014	45.94
581.354	46.12
581.693	46.31
582.032	46.06
582.372	46.43
582.711	46.13
583.05	46.5
583.389	46.32
583.728	46.64
584.067	46.71
584.406	46.44
584.745	46.39
585.083	46.69
585.422	46.72
585.761	46.26
586.1	46.55
586.438	46.8
586.777	46.56
587.115	46.87
587.454	46.92
587.792	46.97
588.13	47.51
588.469	46.75
588.807	47.2
589.145	47.2
589.483	47.1
589.821	47.28
590.159	47.21
590.497	47.41
590.835	47.1
591.173	47.04
591.511	47.14
591.849	47.34
592.187	47.14
592.524	47.52
592.862	47.62
593.2	47.53
593.537	47.54
593.875	47.37
594.212	47.69
594.55	48.09
594.887	47.61
595.224	47.71
595.561	47.66
595.899	48.14
596.236	47.9
596.573	48.14
596.91	47.76
597.247	48.07
597.584	48.18
597.921	48.15
598.258	48.08
598.594	48.22
598.931	47.94
599.268	47.85
599.604	48
599.941	48.29
600.277	47.97
600.614	48.2
600.95	48.15
601.287	48.39
601.623	48.29
601.959	48.88
602.296	48.59
602.632	48.54
602.968	48.66
603.304	48.98
603.64	48.53
603.976	48.93
604.312	48.74
604.648	48.82
604.984	48.69
605.319	48.93
605.655	48.71
605.991	49.12
606.326	48.82
606.662	48.64
606.998	48.63
607.333	48.89
607.668	48.84
608.004	49
608.339	48.91
608.674	48.78
609.01	49.08
609.345	49.23
609.68	49.48
610.015	49.39
610.35	49.97
610.685	49.79
611.02	49.79
611.355	49.35
611.689	49.27
612.024	49.44
612.359	49.36
612.694	49.38
613.028	49.44
613.363	49.56
613.697	49.7
614.032	49.79
614.366	49.67
614.7	50.38
615.035	49.78
615.369	49.87
615.703	49.97
616.037	49.86
616.371	50.52
616.705	50.57
617.039	50.29
617.373	50.2
617.707	50.58
618.041	50.38
618.375	50.7
618.709	50.5
619.042	50.66
619.376	50.58
619.71	50.98
620.043	49.93
620.377	50.47
620.71	50.81
621.043	50.3
621.377	50.54
621.71	50.68
622.043	51.13
622.376	50.62
622.709	50.91
623.043	51.04
623.376	51.31
623.709	50.81
624.041	51.3
624.374	51.76
624.707	51.48
625.04	51.5
625.373	50.98
625.705	51.22
626.038	51.23
626.37	51.56
626.703	51.58
627.035	51.42
627.368	51.61
627.7	51.97
628.032	50.95
628.365	51.56
628.697	51.86
629.029	51.53
629.361	51.58
629.693	51.71
630.025	51.7
630.357	51.4
630.689	51.54
631.021	51.97
631.353	51.76
631.684	52.09
632.016	52.16
632.348	51.95
632.679	51.97
633.011	52.13
633.342	52.23
633.674	52.29
634.005	51.73
634.336	52.37
634.668	51.94
634.999	52.16
635.33	52.43
635.661	51.62
635.992	52.53
636.323	52.44
636.654	52.42
636.985	52.56
637.316	52.52
637.647	52.57
637.977	52.41
638.308	52.97
638.639	52.66
638.969	53.22
639.3	52.62
639.63	53.24
639.961	52.75
640.291	52.97
640.622	52.9
640.952	52.48
641.282	52.63
641.612	53.11
641.943	52.22
642.273	52.75
642.603	52.93
642.933	52.76
643.263	52.56
643.592	53.57
643.922	53.5
644.252	53.03
644.582	53.41
644.911	53.05
645.241	53.51
645.571	53.48
645.9	53.5
646.23	53.68
646.559	53.31
646.888	53.32
647.218	53.17
647.547	53.4
647.876	53.7
648.205	53.74
648.534	53.76
648.863	53.09
649.192	53.16
649.521	53.95
649.85	53.44
650.179	54.1
650.508	53.87
650.837	54.07
651.165	53.91
651.494	53.86
651.822	53.7
652.151	54.01
652.479	53.73
652.808	53.6
653.136	53.94
653.465	53.8
653.793	54.15
654.121	53.48
654.449	53.14
654.777	53.83
655.105	54.13
655.433	54.02
655.761	54.67
656.089	54.48
656.417	54.38
656.745	54.73
657.073	54.92
657.4	54.48
657.728	54.38
658.056	54.1
658.383	53.85
658.711	54.92
659.038	54.86
659.365	54.85
659.693	55.25
660.02	54.9
660.347	54.05
660.674	55.07
661.001	54.12
661.329	54.77
661.656	54.78
661.982	54.93
662.309	54.48
662.636	54.49
662.963	54.71
663.29	54.55
663.616	54.72
663.943	55.3
664.27	54.8
664.596	54.54
664.923	55.15
665.249	54.85
665.576	55.04
665.902	54.91
666.228	55.36
666.554	54.25
666.881	55.2
667.207	55.47
667.533	55.19
667.859	55.52
668.185	54.98
668.511	55.87
668.837	55.71
669.162	55.13
669.488	55.63
669.814	55.35
670.139	55.27
670.465	56.22
670.791	55.05
671.116	55.54
671.442	55.81
671.767	55.13
672.092	55.72
672.418	55.58
672.743	55.56
673.068	55.4
673.393	55.19
673.718	55.51
674.043	55.24
674.368	55.66
674.693	56.02
675.018	55.89
675.343	55.44
675.667	55.66
675.992	56.43
676.317	56.02
676.641	56.15
676.966	56.31
677.29	56.04
677.615	56.73
677.939	56.43
678.264	55.74
678.588	55.82
678.912	54.99
679.236	56.3
679.56	55.59
679.885	55.55
680.209	56.76
680.532	55.85
680.856	56.15
681.18	56.54
681.504	56.57
681.828	56.85
682.152	56.69
682.475	56.66
682.799	56.83
683.122	56.04
683.446	55.56
683.769	56.73
684.093	57.29
684.416	56.42
684.739	56.75
685.062	57.09
685.386	57.08
685.709	56.1
686.032	57.26
686.355	57.09
686.678	56.34
687.001	57.37
687.324	56.71
687.646	56.66
687.969	57.47
688.292	56.98
688.614	56.94
688.937	57.15
689.26	56.83
689.582	56.81
689.904	57.12
690.227	56.88
690.549	56.01
690.871	57.15
691.194	56.72
691.516	57.54
691.838	57.17
692.16	57.82
692.482	56.85
692.804	57.36
693.126	57.2
693.448	57.53
693.769	57.75
694.091	57.39
694.413	57.08
694.735	57.71
695.056	57.81
695.378	57.11
695.699	56.68
696.021	56.42
696.342	57.59
696.663	58.08
696.984	57.85
697.306	58.1
697.627	57.86
697.948	57.49
698.269	57.83
698.59	58.33
698.911	57.73
699.232	57.25
699.553	58.27
699.873	57.8
700.194	57.78
700.515	58.36
700.835	57.61
701.156	58.1
701.477	57.69
701.797	57.61
702.117	57.65
702.438	58.39
702.758	57.31
703.078	57.83
703.398	58.8
703.719	57.79
704.039	58.23
704.359	58.3
704.679	56.73
704.999	57.48
705.319	57.97
705.638	57.78
705.958	58.02
706.278	59.54
706.597	58.62
706.917	59.17
707.237	58.43
707.556	57.86
707.876	58.94
708.195	58.77
708.514	59.79
708.834	59.32
709.153	58.88
709.472	58.08
709.791	58.43
710.11	57.76
710.429	59.43
710.748	58.36
711.067	59.63
711.386	58.23
711.705	58.47
712.023	59.31
712.342	59.09
712.661	59.3
712.979	58.65
713.298	58.39
713.616	58.74
713.935	59.03
714.253	58.63
714.572	59.84
714.89	58.06
715.208	58.36
715.526	57.93
715.844	58.96
716.162	59.36
716.48	59.4
716.798	58.92
717.116	59.11
717.434	58.68
717.752	59.55
718.069	58.87
718.387	59.59
718.705	58.76
719.022	59.91
719.34	58.73
719.657	58.28
719.975	59.03
720.292	60.43
720.609	59.64
720.927	60.26
721.244	60.64
721.561	59.37
721.878	59.53
722.195	59.96
722.512	59.73
722.829	59.65
723.146	60.97
723.463	61.38
723.779	59.5
724.096	58.6
724.413	62.28
724.729	60.11
725.046	60.17
725.362	58.35
725.679	59.52
725.995	60.57
726.311	58.7
726.628	59.03
726.944	60.79
727.26	60.42
727.576	59.72
727.892	58.07
728.208	59.73
728.524	60.64
728.84	60.19
729.156	59.72
729.472	59.79
729.787	60.88
730.103	59.97
730.419	60.86
730.734	59.75
731.05	60.66
731.365	59.93
731.681	60.59
731.996	60.88
732.311	62.08
732.626	61.03
732.942	61.17
733.257	59.94
733.572	60.11
733.887	60.8
734.202	61.09
734.517	60.64
734.832	60.24
735.146	59.66
735.461	60.24
735.776	58.75
736.091	60.46
736.405	60.24
736.72	60.68
737.034	58.84
737.349	59.6
737.663	60.35
737.977	59.76
738.292	60.45
738.606	60.75
738.92	61.19
739.234	60.4
739.548	59.31
739.862	59.94
740.176	60.38
740.49	59.55
740.804	60.23
741.117	60.65
741.431	60.87
741.745	61.86
742.058	60.11
742.372	60.89
742.685	61.15
742.999	61.63
743.312	60.14
743.626	62.57
743.939	60.92
744.252	62.17
744.565	61.81
744.878	60.68
745.191	60
745.505	60.72
745.817	61.7
746.13	60.61
746.443	62.17
746.756	62.65
747.069	62.3
747.381	61.66
747.694	61.01
748.007	62.84
748.319	61.91
748.632	59.19
748.944	61.91
749.256	61.81
749.569	59.93
749.881	61.1
750.193	60.46
750.505	60.83
750.817	59.72
751.129	60.61
751.441	60.87
751.753	62.96
752.065	61.98
752.377	61.93
752.689	63.05
753	61.79
753.312	58.91
753.624	59.13
753.935	62.67
754.247	62.68
754.558	61.21
754.869	63.01
755.181	61.05
755.492	61.81
755.803	64.13
756.114	62.27
756.425	65.01
756.736	62.52
757.047	61.73
757.358	60.64
757.669	62.85
757.98	62.82
758.291	62.87
758.601	63.44
758.912	61.39
759.223	63.14
759.533	61.87
759.844	65.41
760.154	62.49
760.464	62.57
760.775	61.88
761.085	63.87
761.395	64.08
761.705	64.08
762.016	63.47
762.326	61.49
762.636	61.37
762.945	62.04
763.255	62.31
763.565	62.31
763.875	62.62
764.185	63.29
764.494	64.06
764.804	62.57
765.113	61.4
765.423	61.97
765.732	61.36
766.042	62.88
766.351	62.8
766.66	61.37
766.97	62.89
767.279	62.74
767.588	61.4
767.897	63.4
768.206	62.7
768.515	62.12
768.824	63.25
769.133	63.77
769.441	62.47
769.75	63.58
770.059	61.42
770.367	61.75
770.676	60.83
770.984	63.03
771.293	63.14
771.601	62.92
771.91	63.64
772.218	63.63
772.526	62.06
772.834	62.95
773.142	61.57
773.45	64.06
773.758	64.42
774.066	64.41
774.374	61.76
774.682	61.38
774.99	63.25
775.298	60.52
775.605	62.02
775.913	66.35
776.22	64.49
776.528	60.31
776.835	62.18
777.143	61.9
777.45	61.21
777.757	63.76
778.065	62.28
778.372	63.08
778.679	62.24
778.986	66.24
779.293	63.13
779.6	61.76
779.907	64.6
780.214	64.15
780.52	59.59
780.827	63.02
781.134	61.92
781.44	64.43
781.747	63.1
782.053	65.84
782.36	61.92
782.666	60.5
782.973	63.34
783.279	65.25
783.585	64.18
783.891	64.59
784.197	63.95
784.503	68.74
784.809	64.01
785.115	61.19
785.421	64.87
785.727	63.37
786.033	62.05
786.339	62.15
786.644	66.04
786.95	64.65
787.255	66.34
787.561	66.43
787.866	68.9
788.172	63.09
788.477	64.51
788.782	66.78
789.088	64.56
789.393	60.04
789.698	66.57
790.003	65.69
790.308	65.67
790.613	60.33
790.918	64.4
791.223	63.73
791.527	65.82
791.832	63.29
792.137	62.75
792.441	64.43
792.746	66.23
793.05	65.99
793.355	65
793.659	61.72
793.963	66.84
794.268	63.76
794.572	65.22
794.876	62.75
795.18	66.47
795.484	59.66
795.788	67.58
796.092	63.35
796.396	63.98
796.7	64.04
797.004	64.23
797.307	63.53
797.611	65.78
797.915	66.41
798.218	67.06
798.522	63.13
798.825	60.9
799.128	70.49
799.432	64.17
799.735	61.37
800.038	67.38
800.341	65.81
800.644	67.16
800.947	61.24
801.25	65.36
801.553	65.37
801.856	68.92
802.159	69.57
802.462	68.31
802.764	67.5
803.067	66.66
803.37	65.87
803.672	60.38
803.975	66.13
804.277	63.92
804.579	67.2
804.882	69.27
805.184	64.2
805.486	64.51
805.788	67.77
806.09	67.22
806.392	67.39
806.694	59.62
806.996	61.68
807.298	64
807.6	64.51
807.902	60.73
808.203	64.33
808.505	67.79
808.807	63.21
809.108	66.21
809.409	66.06
809.711	67.97
810.012	66.73
810.313	64.04
810.615	64.27
810.916	66.62
811.217	71.91
811.518	61.31
811.819	67.72
812.12	67.88
812.421	66.54
812.722	61.02
813.023	57.6
813.323	68.85
813.624	65.32
813.925	62.76
814.225	70.92
814.526	64.86
814.826	70.8
815.126	64.58
815.427	68.77
815.727	63.36
816.027	61.24
816.327	67.76
816.627	64.95
816.927	65.26
817.227	56.86
817.527	68.7
817.827	62.58
818.127	56.28
818.427	67.88
818.727	62.87
819.026	68.65
819.326	68.44
819.625	74.25
819.925	62.69
820.224	65.08
820.524	64.96
820.823	67.26
821.122	66.37
821.421	66.63
821.72	66.28
822.019	64.49
822.318	67.79
822.617	70.42
822.916	63.41
823.215	60.71
823.514	67.13
823.813	69.71
824.111	65.89
824.41	69.14
824.709	65.6
825.007	65.97
825.306	65.95
825.604	65.37
825.902	65.04
826.201	65.19
826.499	64.63
826.797	64.19
827.095	66.32
827.393	63.83
827.691	66.18
827.989	65.43
828.287	65.34
828.585	63.92
828.882	64.47
829.18	62.66
829.478	64.51
829.775	67.34
830.073	64.67
830.37	66.1
830.668	66.17
830.965	66.7
831.263	65.39
831.56	64.25
831.857	63.43
832.154	65.23
832.451	65.8
832.748	64.02
833.045	65.89
833.342	64.5
833.639	67.28
833.936	69.46
834.232	69.81
834.529	70.3
834.826	69.23
835.122	74.08
835.419	67.14
835.715	61.7
836.012	60.73
836.308	66.95
836.604	70.68
836.901	63.13
837.197	65.65
837.493	68.78
837.789	67.12
838.085	67.57
838.381	64.01
838.677	64.74
838.972	67.84
839.268	68.91
839.564	66.9
839.86	65.79
840.155	68.34
840.451	65.88
840.746	62.01
841.042	80.38
841.337	64.55
841.632	76.73
841.928	74.71
842.223	72.36
842.518	66.55
842.813	75.48
843.108	63.62
843.403	63.3
843.698	71.74
843.993	63.96
844.287	67.6
844.582	55.65
844.877	69.61
845.171	73.23
845.466	63.04
845.761	70.89
846.055	74.69
846.349	80.5
846.644	82.58
846.938	82.71
847.232	84.51
847.526	63.78
847.82	72.6
848.114	67.06
848.408	59.27
848.702	56.36
848.996	61.19
849.29	66.21
849.584	69.05
849.877	78.18
850.171	60.88
850.465	55.76
850.758	84.79
851.052	60.13
851.345	86.02
851.638	76.3
851.932	84.79
852.225	74.52
852.518	78.81
852.811	71.08
853.104	60.36
853.397	74.1
853.69	64.16
853.983	82.52
854.276	75.93
854.569	67.29
854.861	65.39
855.154	55.38
855.447	73.31
855.739	76.46
856.032	56.29
856.324	52.25
856.616	71.02
856.909	69.32
857.201	77.65
857.493	80.29
857.785	95.11
858.077	73.43
858.369	60.76
858.661	50.48
858.953	72.98
859.245	78.42
859.537	90.62
859.829	77.34
860.12	93.8
860.412	64.35
860.703	84.85
860.995	62.53
861.286	64.45
861.578	60.06
861.869	43.6
862.16	83.27
862.452	97.13
862.743	98.97
863.034	85.83
863.325	77.33
863.616	57.57
863.907	59.82
864.198	65.65
864.488	78.03
864.779	84.77
865.07	71.2
865.36	53.92
865.651	59.91
865.941	83.37
866.232	77.27
866.522	82.81
866.813	84.67
867.103	73.18
867.393	71.61
867.683	81.83
867.973	70.04
868.263	56.07
868.553	62.87
868.843	73.61
869.133	95.92
869.423	99.12
869.713	67.86
870.002	79.88
870.292	60.64
870.582	57.74
870.871	89.81
871.161	57.5
871.45	78.84
871.739	77.33
872.029	91.41
872.318	72.48
872.607	77.19
872.896	111.13
873.185	97.58
873.474	82.5
873.763	111.65
874.052	68.3
874.341	71.84
874.63	97.94
874.918	64.28
875.207	79.31
875.496	61.92
875.784	103.25
876.073	91.17
876.361	104.3
876.649	58.54
876.938	76.02
877.226	62.02
877.514	90.53
877.802	81.1
878.09	90.7
878.378	69.93
878.666	66.79
878.954	53.09
879.242	67.14
879.53	99.16
879.817	63.68
880.105	63.42
880.392	67.27
880.68	85.56
880.967	74.58
881.255	85.33
881.542	91.59
881.83	70.6
882.117	74.37
882.404	100.22
882.691	82.3
882.978	69.39
883.265	49.56
883.552	84.3
883.839	56.07
884.126	83.89
884.413	75.33
884.699	72.61
884.986	57.99
885.273	74.3
885.559	74.3
885.846	74.3
