Data from 0233_forehead_Reflection__0__42.txt Node

Date: Fri Oct 20 21:00:17 CDT 2023
User: ToomeyLab
Spectrometer: FLMS14357
Trigger mode: 0
Integration Time (sec): 1.000000E-2
Scans to average: 100
Electric dark correction enabled: true
Nonlinearity correction enabled: false
Boxcar width: 0
XAxis mode: Wavelengths
Number of Pixels in Spectrum: 2048
>>>>>Begin Spectral Data<<<<<
189.047	-6.95
189.435	-6.95
189.823	-6.95
190.211	139.76
190.599	-208.78
190.987	165.35
191.375	45.28
191.763	15.67
192.151	108.28
192.538	-160.4
192.926	-201.77
193.314	37.12
193.702	11.43
194.089	40.55
194.477	382.86
194.864	145.74
195.252	-78.72
195.639	-101.46
196.027	-410.09
196.414	38.46
196.801	1168.95
197.189	55.52
197.576	73.1
197.963	-102.83
198.351	98.52
198.738	9.61
199.125	51.24
199.512	84.8
199.899	68.32
200.286	15.22
200.673	51.56
201.06	55.74
201.447	54.82
201.833	64.4
202.22	28.39
202.607	66
202.994	48.51
203.38	11.68
203.767	48.47
204.154	43.73
204.54	68.19
204.927	18.45
205.313	32.49
205.699	51.76
206.086	48.51
206.472	54.8
206.858	51.88
207.245	25.49
207.631	37.14
208.017	39.55
208.403	48.66
208.789	56.06
209.175	30.93
209.561	45.56
209.947	-4.42
210.333	39.26
210.719	54.84
211.105	28.59
211.491	73.06
211.876	43.45
212.262	44.54
212.648	50.14
213.034	4.98
213.419	62.76
213.805	37.11
214.19	42.39
214.576	50.54
214.961	57.16
215.346	59.81
215.732	43
216.117	5.75
216.502	33.84
216.888	19.37
217.273	37.86
217.658	2.36
218.043	19.86
218.428	17.75
218.813	11.04
219.198	10.94
219.583	4.45
219.968	2.14
220.353	23.54
220.738	1.28
221.122	28.8
221.507	13.84
221.892	18.44
222.276	15.72
222.661	38.7
223.046	32.84
223.43	21.94
223.815	33.26
224.199	23.02
224.583	18.05
224.968	15.36
225.352	18.1
225.736	9.9
226.121	15.14
226.505	10.1
226.889	13.28
227.273	14.93
227.657	13.66
228.041	11.92
228.425	6.99
228.809	11.87
229.193	7.95
229.577	10.2
229.961	5.93
230.344	5.48
230.728	4.41
231.112	5.04
231.495	4.24
231.879	5.09
232.263	6.48
232.646	4.69
233.03	5.59
233.413	6.43
233.797	5.01
234.18	5.75
234.563	8.56
234.946	8.64
235.33	6.04
235.713	6.54
236.096	6.7
236.479	6.28
236.862	5.37
237.245	3.85
237.628	5.59
238.011	7.85
238.394	4.88
238.777	7.2
239.16	7.37
239.543	7.89
239.925	6.81
240.308	7.91
240.691	5.08
241.073	6.91
241.456	5.55
241.838	4.68
242.221	6.63
242.603	4.71
242.986	5.34
243.368	5.57
243.75	4.75
244.133	4.46
244.515	4.14
244.897	3.93
245.279	4.39
245.661	4.46
246.043	3.71
246.425	4.52
246.807	5.29
247.189	4.9
247.571	4.52
247.953	5.07
248.335	4.63
248.717	3.86
249.098	3.8
249.48	4.04
249.862	4.5
250.243	4.34
250.625	4.02
251.006	5.1
251.388	4.82
251.769	4.31
252.151	4.3
252.532	4.95
252.913	5
253.295	3.98
253.676	5.06
254.057	4
254.438	4.16
254.819	4.59
255.2	4.69
255.581	4.23
255.962	4.86
256.343	4.09
256.724	5.11
257.105	5.72
257.486	4.97
257.867	5.6
258.247	5.57
258.628	4.83
259.009	4.64
259.389	4.62
259.77	4.54
260.15	4.72
260.531	4.69
260.911	5.07
261.292	4.16
261.672	4.31
262.052	4.11
262.432	4.1
262.813	4.02
263.193	4.82
263.573	4.11
263.953	4.68
264.333	5.07
264.713	4.65
265.093	5.01
265.473	5.34
265.853	4.02
266.233	4.41
266.612	4.73
266.992	5.02
267.372	4.41
267.752	5.07
268.131	4.75
268.511	4.86
268.89	4.13
269.27	4.21
269.649	3.64
270.029	4.54
270.408	4.73
270.787	4.68
271.167	4.11
271.546	4.25
271.925	4.67
272.304	4.8
272.683	4.35
273.062	4.71
273.441	4.86
273.82	4.39
274.199	4.82
274.578	4.66
274.957	4.75
275.336	4.68
275.715	4.37
276.093	4.15
276.472	4.68
276.851	4.64
277.229	4.74
277.608	4.35
277.986	4.53
278.365	4.68
278.743	4.35
279.122	4.03
279.5	3.9
279.878	4.28
280.257	4.93
280.635	4.51
281.013	4.6
281.391	4.84
281.769	4.32
282.147	4.47
282.525	4.5
282.903	4.81
283.281	4.94
283.659	4.52
284.037	4.44
284.415	4.06
284.792	4.45
285.17	4.53
285.548	4.2
285.925	4.56
286.303	4.06
286.68	4.22
287.058	4.57
287.435	4.45
287.813	3.73
288.19	4.08
288.567	4.42
288.945	4.47
289.322	4.89
289.699	4.14
290.076	5.11
290.453	4.48
290.83	4.23
291.207	4.79
291.584	4.26
291.961	4.48
292.338	4.05
292.715	4.44
293.092	4.45
293.469	4.77
293.845	4.84
294.222	5.13
294.599	4.77
294.975	5.44
295.352	4.9
295.728	5.05
296.105	4.22
296.481	4.54
296.858	4.85
297.234	5.47
297.61	4.42
297.986	4.81
298.363	4.98
298.739	5.12
299.115	4.91
299.491	4.98
299.867	4.9
300.243	5.04
300.619	5.17
300.995	5.01
301.371	5.62
301.746	5.37
302.122	4.89
302.498	4.77
302.874	5.46
303.249	5.5
303.625	5.43
304	5.53
304.376	5.03
304.751	5.51
305.127	5.53
305.502	6.17
305.878	5.72
306.253	6.02
306.628	5.96
307.003	5.63
307.378	6.08
307.754	5.93
308.129	6.7
308.504	6.44
308.879	6.51
309.254	7.06
309.629	6.43
310.003	5.96
310.378	6.7
310.753	6.26
311.128	6.43
311.502	6.56
311.877	6.21
312.252	6.32
312.626	6.81
313.001	6.69
313.375	6.79
313.75	6.78
314.124	6.64
314.498	7.13
314.873	6.67
315.247	7.12
315.621	7.15
315.995	7.12
316.369	6.85
316.743	7.48
317.117	7.38
317.491	7.02
317.865	7.34
318.239	7.73
318.613	7.72
318.987	7.62
319.361	7.06
319.734	7.52
320.108	7.08
320.482	8.53
320.855	8.51
321.229	8.45
321.602	7.71
321.976	8.39
322.349	8.84
322.723	7.91
323.096	8.63
323.469	8.13
323.843	8.39
324.216	8.23
324.589	8.72
324.962	8.96
325.335	8.75
325.708	8.36
326.081	8.79
326.454	8.41
326.827	9.13
327.2	9.3
327.573	9.39
327.945	8.88
328.318	8.97
328.691	9.05
329.063	9.49
329.436	8.71
329.809	9.36
330.181	9.41
330.553	9.51
330.926	9.23
331.298	9.33
331.671	9.16
332.043	9.33
332.415	10.26
332.787	10.08
333.159	9.87
333.532	9.89
333.904	10.04
334.276	9.61
334.648	9.88
335.02	9.94
335.391	10.4
335.763	10.48
336.135	10.22
336.507	10.13
336.879	10.16
337.25	10.16
337.622	10.97
337.993	10.73
338.365	10.59
338.736	10.56
339.108	11.11
339.479	10.67
339.851	10.87
340.222	10.96
340.593	10.2
340.964	10.87
341.336	11.58
341.707	10.97
342.078	11.05
342.449	10.97
342.82	11.06
343.191	10.88
343.562	10.89
343.933	11.25
344.303	11.44
344.674	11.83
345.045	11.71
345.416	12.07
345.786	11.22
346.157	11.32
346.527	11.44
346.898	11.4
347.268	11.61
347.639	11.56
348.009	11.47
348.38	11.62
348.75	12.05
349.12	11.92
349.49	11.75
349.861	12.06
350.231	11.99
350.601	12.25
350.971	12.5
351.341	12.31
351.711	12.69
352.081	12.66
352.45	12.16
352.82	12.47
353.19	13.18
353.56	12.6
353.929	12.31
354.299	12.65
354.669	12.79
355.038	12.76
355.408	12.44
355.777	12.56
356.147	12.67
356.516	12.93
356.885	13.01
357.254	12.86
357.624	13.39
357.993	12.99
358.362	13.57
358.731	12.94
359.1	13.01
359.469	12.94
359.838	13.29
360.207	13.38
360.576	13.23
360.945	13.47
361.314	13.22
361.682	13.87
362.051	13.35
362.42	13.64
362.788	13.63
363.157	13.38
363.525	13.7
363.894	13.55
364.262	13.55
364.631	13.91
364.999	13.87
365.367	13.7
365.735	13.94
366.104	13.67
366.472	14.29
366.84	13.85
367.208	14.12
367.576	14.33
367.944	14.29
368.312	14.39
368.68	14.36
369.048	14.72
369.416	14.54
369.783	14.95
370.151	14.51
370.519	14.4
370.886	14.83
371.254	14.83
371.621	14.96
371.989	14.65
372.356	15.13
372.724	15.31
373.091	15
373.458	14.95
373.826	15
374.193	15.21
374.56	15.25
374.927	15.34
375.294	15.55
375.661	15.65
376.028	15.59
376.395	15.79
376.762	15.51
377.129	15.52
377.496	15.86
377.863	15.66
378.229	15.85
378.596	15.99
378.963	15.99
379.329	15.99
379.696	15.9
380.062	16.18
380.429	16.03
380.795	15.97
381.161	16.25
381.528	16.88
381.894	16.37
382.26	16.7
382.626	16.68
382.993	16.65
383.359	16.54
383.725	16.59
384.091	16.88
384.457	16.84
384.823	17.04
385.188	17.22
385.554	16.73
385.92	16.81
386.286	17.28
386.651	16.87
387.017	17.1
387.383	17.21
387.748	17.18
388.114	17.05
388.479	17.15
388.845	17.8
389.21	17.42
389.575	17.18
389.94	17.8
390.306	17.69
390.671	17.8
391.036	17.63
391.401	17.65
391.766	18.01
392.131	17.89
392.496	17.94
392.861	17.92
393.226	17.94
393.591	17.89
393.956	18.11
394.32	18.24
394.685	18.2
395.05	18.35
395.414	18.7
395.779	18.19
396.143	18.28
396.508	18.24
396.872	18.44
397.236	18.39
397.601	18.56
397.965	18.6
398.329	18.54
398.694	18.9
399.058	18.81
399.422	19.32
399.786	19
400.15	18.89
400.514	18.89
400.878	19.18
401.242	19.23
401.605	19.24
401.969	19.27
402.333	19.16
402.697	19.6
403.06	19.29
403.424	19.6
403.787	19.5
404.151	19.65
404.514	19.88
404.878	19.97
405.241	19.94
405.604	19.85
405.968	19.85
406.331	19.89
406.694	19.94
407.057	19.88
407.42	20.1
407.783	20.03
408.146	20.24
408.509	20.18
408.872	20.2
409.235	20.53
409.598	20.41
409.961	20.61
410.323	20.53
410.686	20.4
411.049	20.87
411.411	20.63
411.774	20.75
412.136	20.8
412.499	20.97
412.861	20.97
413.223	20.9
413.586	20.96
413.948	21.37
414.31	21.47
414.672	21.18
415.035	21.24
415.397	21.42
415.759	21.5
416.121	21.29
416.483	21.53
416.845	21.41
417.206	21.78
417.568	21.82
417.93	21.71
418.292	21.48
418.653	21.75
419.015	21.64
419.377	21.6
419.738	21.81
420.1	21.62
420.461	21.83
420.822	21.52
421.184	21.59
421.545	21.77
421.906	21.79
422.267	21.77
422.629	21.78
422.99	21.87
423.351	21.77
423.712	21.9
424.073	21.99
424.434	22.19
424.795	22.21
425.155	22.34
425.516	22.27
425.877	22.26
426.238	21.98
426.598	22.14
426.959	22.24
427.32	22.42
427.68	22.58
428.041	22.73
428.401	22.89
428.761	23.08
429.122	23.22
429.482	23.56
429.842	23.45
430.202	23.44
430.563	23.39
430.923	23.6
431.283	23.59
431.643	23.68
432.003	23.75
432.363	23.81
432.722	23.89
433.082	23.9
433.442	23.87
433.802	23.97
434.161	23.72
434.521	24.03
434.881	23.88
435.24	23.86
435.6	23.82
435.959	23.92
436.319	24.05
436.678	24.38
437.037	24.25
437.396	24.58
437.756	24.44
438.115	24.67
438.474	24.73
438.833	24.83
439.192	24.68
439.551	24.79
439.91	24.86
440.269	24.71
440.628	24.83
440.987	24.82
441.345	24.65
441.704	24.7
442.063	24.84
442.421	24.83
442.78	24.82
443.138	24.97
443.497	25.17
443.855	25.07
444.214	25.36
444.572	25.32
444.93	25.55
445.288	25.61
445.647	25.82
446.005	25.7
446.363	25.77
446.721	25.67
447.079	25.59
447.437	25.56
447.795	25.45
448.153	25.53
448.51	25.36
448.868	25.49
449.226	25.49
449.584	25.56
449.941	25.9
450.299	26.07
450.656	26.12
451.014	26.37
451.371	26.4
451.729	26.44
452.086	26.67
452.443	26.62
452.801	26.7
453.158	27.08
453.515	26.87
453.872	26.88
454.229	26.97
454.586	27
454.943	27.17
455.3	27.07
455.657	27.06
456.014	27.12
456.371	27.09
456.727	27.45
457.084	27.3
457.441	27.45
457.797	27.44
458.154	27.62
458.51	27.75
458.867	27.79
459.223	27.89
459.58	28.02
459.936	27.96
460.292	27.73
460.648	27.62
461.005	27.64
461.361	27.58
461.717	27.49
462.073	27.5
462.429	27.5
462.785	27.56
463.141	27.99
463.496	28.16
463.852	28.25
464.208	28.33
464.564	28.38
464.919	28.67
465.275	28.96
465.631	28.68
465.986	28.9
466.342	29.04
466.697	28.82
467.052	28.85
467.408	28.98
467.763	29.05
468.118	29.11
468.473	29.07
468.829	29.15
469.184	29.09
469.539	29.27
469.894	29.19
470.249	29.26
470.603	29.34
470.958	29.35
471.313	29.74
471.668	29.72
472.023	29.78
472.377	29.52
472.732	29.53
473.086	29.87
473.441	29.93
473.795	30.02
474.15	29.97
474.504	29.9
474.859	30.14
475.213	30.15
475.567	30.18
475.921	30.12
476.275	30.21
476.63	30.54
476.984	30.46
477.338	30.63
477.692	30.66
478.045	30.56
478.399	30.41
478.753	30.38
479.107	30.58
479.461	30.68
479.814	30.7
480.168	30.52
480.521	30.73
480.875	30.99
481.228	30.83
481.582	31.08
481.935	31.06
482.289	30.8
482.642	30.97
482.995	31.04
483.348	31.03
483.701	30.94
484.055	31.03
484.408	30.88
484.761	30.57
485.114	30.51
485.466	30.19
485.819	29.95
486.172	30.1
486.525	30.21
486.878	30.15
487.23	30.42
487.583	30.69
487.936	30.91
488.288	31.11
488.641	31.11
488.993	30.94
489.345	30.86
489.698	30.85
490.05	30.86
490.402	30.82
490.754	30.96
491.107	31.27
491.459	31.46
491.811	31.72
492.163	31.99
492.515	32
492.866	31.79
493.218	31.71
493.57	31.48
493.922	31.45
494.274	31.6
494.625	31.76
494.977	32.04
495.328	32.21
495.68	32.58
496.031	32.75
496.383	32.94
496.734	33.07
497.086	33.12
497.437	33.18
497.788	33.31
498.139	33.24
498.49	33.06
498.842	33.08
499.193	33.17
499.544	33.23
499.894	33.36
500.245	33.5
500.596	33.39
500.947	33.64
501.298	33.7
501.648	33.5
501.999	33.89
502.35	33.76
502.7	34.06
503.051	34.09
503.401	34.05
503.752	34.21
504.102	34.26
504.452	34.39
504.803	34.37
505.153	34.36
505.503	34.47
505.853	34.44
506.203	34.47
506.553	34.27
506.903	34.55
507.253	34.71
507.603	34.62
507.953	34.61
508.303	34.9
508.652	34.78
509.002	34.85
509.352	34.84
509.701	34.94
510.051	34.84
510.4	34.74
510.75	34.81
511.099	34.94
511.449	34.92
511.798	34.75
512.147	34.96
512.496	35.13
512.846	35.34
513.195	35.3
513.544	35.32
513.893	35.52
514.242	35.43
514.591	35.47
514.939	35.49
515.288	35.59
515.637	35.55
515.986	35.8
516.334	36.02
516.683	36.02
517.032	35.98
517.38	36.15
517.729	36.09
518.077	36.14
518.426	36.1
518.774	36.2
519.122	36.12
519.47	36.25
519.819	36.16
520.167	35.86
520.515	35.87
520.863	35.8
521.211	35.84
521.559	35.93
521.907	36.08
522.255	36.15
522.602	36.39
522.95	36.7
523.298	36.63
523.645	36.82
523.993	36.89
524.341	36.95
524.688	37.1
525.036	37.08
525.383	37.02
525.73	37.09
526.078	37.2
526.425	37.2
526.772	37.11
527.119	36.88
527.466	36.73
527.814	36.88
528.161	36.92
528.508	36.97
528.854	36.9
529.201	36.97
529.548	37.06
529.895	37.03
530.242	36.6
530.588	36.39
530.935	36.59
531.282	36.61
531.628	36.63
531.975	36.7
532.321	36.93
532.667	37.23
533.014	37.52
533.36	37.53
533.706	37.67
534.052	37.69
534.399	37.53
534.745	37.53
535.091	37.58
535.437	37.3
535.783	37.57
536.129	37.56
536.474	37.76
536.82	37.97
537.166	38.04
537.512	38.34
537.857	38.49
538.203	38.4
538.549	38.39
538.894	38.36
539.239	38.42
539.585	38.42
539.93	38.61
540.276	38.75
540.621	39.19
540.966	39.21
541.311	39.3
541.656	39.39
542.001	39.42
542.346	39.22
542.691	39.03
543.036	38.65
543.381	38.56
543.726	38.43
544.071	38.46
544.415	38.67
544.76	38.85
545.105	39.07
545.449	39.07
545.794	39.39
546.138	39.33
546.483	39.52
546.827	39.57
547.171	39.77
547.516	39.94
547.86	40.01
548.204	40.11
548.548	40.05
548.892	39.73
549.236	40
549.58	40.06
549.924	39.99
550.268	40.38
550.612	40.44
550.956	40.78
551.3	41.07
551.643	40.94
551.987	40.9
552.33	41.21
552.674	41.12
553.017	41.2
553.361	41.19
553.704	41.42
554.048	41.19
554.391	41.21
554.734	41.27
555.077	41.13
555.42	41.21
555.764	41.22
556.107	41.27
556.45	41.68
556.793	41.43
557.135	41.78
557.478	41.53
557.821	41.98
558.164	41.98
558.507	42.09
558.849	42.16
559.192	42.14
559.534	42.11
559.877	42.25
560.219	42.1
560.562	42.48
560.904	42.3
561.246	42.56
561.589	42.05
561.931	42.67
562.273	42.51
562.615	42.92
562.957	42.67
563.299	42.68
563.641	42.82
563.983	42.81
564.325	42.89
564.667	42.65
565.008	43.05
565.35	42.78
565.692	42.91
566.033	43.15
566.375	42.85
566.716	43.2
567.058	42.84
567.399	43.09
567.741	43.16
568.082	42.98
568.423	42.7
568.764	42.76
569.105	43.22
569.447	43.17
569.788	43.36
570.129	43.63
570.47	43.32
570.811	43.73
571.151	43.51
571.492	43.74
571.833	43.96
572.174	44.14
572.514	44.15
572.855	43.65
573.195	43.87
573.536	43.44
573.876	43.78
574.217	43.64
574.557	43.79
574.898	43.72
575.238	43.85
575.578	44.1
575.918	44.05
576.258	44.09
576.598	44.15
576.938	44.42
577.278	44.35
577.618	44.18
577.958	44.21
578.298	44.5
578.638	44.49
578.977	44.74
579.317	44.79
579.657	44.87
579.996	44.91
580.336	44.86
580.675	44.85
581.014	45.23
581.354	45.4
581.693	45.15
582.032	45.19
582.372	45.24
582.711	45.45
583.05	45.68
583.389	45.49
583.728	46
584.067	45.65
584.406	45.87
584.745	45.71
585.083	45.82
585.422	45.8
585.761	45.82
586.1	46
586.438	46.18
586.777	45.87
587.115	46.32
587.454	45.92
587.792	45.93
588.13	46.09
588.469	46.1
588.807	45.81
589.145	46.45
589.483	46.33
589.821	46.54
590.159	46.55
590.497	46.27
590.835	46.41
591.173	46.39
591.511	46.48
591.849	46.45
592.187	46.49
592.524	46.39
592.862	46.82
593.2	46.89
593.537	46.78
593.875	46.67
594.212	46.78
594.55	47.09
594.887	47.08
595.224	47
595.561	47.04
595.899	47.27
596.236	47.01
596.573	47.4
596.91	47.28
597.247	47.33
597.584	47.23
597.921	47.4
598.258	47.21
598.594	47.41
598.931	47.19
599.268	46.91
599.604	47.32
599.941	47.3
600.277	47.28
600.614	47.4
600.95	47.59
601.287	47.36
601.623	47.99
601.959	48.29
602.296	47.89
602.632	48.48
602.968	47.85
603.304	47.94
603.64	47.75
603.976	48.16
604.312	48.02
604.648	48.05
604.984	48.06
605.319	47.87
605.655	47.94
605.991	48
606.326	47.88
606.662	47.97
606.998	48.07
607.333	48.07
607.668	47.92
608.004	48.1
608.339	48.31
608.674	48.55
609.01	48.55
609.345	49.09
609.68	48.92
610.015	49.05
610.35	48.94
610.685	49.17
611.02	48.63
611.355	48.58
611.689	48.99
612.024	49.12
612.359	48.82
612.694	48.71
613.028	49
613.363	49.2
613.697	48.87
614.032	49.41
614.366	49.46
614.7	49.28
615.035	49.65
615.369	49.71
615.703	49.75
616.037	50
616.371	50.04
616.705	49.99
617.039	50.02
617.373	49.71
617.707	50.08
618.041	49.89
618.375	50.18
618.709	50.05
619.042	49.99
619.376	49.76
619.71	50.08
620.043	50.51
620.377	50.28
620.71	50.34
621.043	49.55
621.377	50.13
621.71	50.45
622.043	50.19
622.376	50.44
622.709	50.59
623.043	50.61
623.376	50.42
623.709	50.71
624.041	50.87
624.374	50.81
624.707	50.62
625.04	50.75
625.373	50.94
625.705	50.51
626.038	51.09
626.37	50.59
626.703	50.89
627.035	50.67
627.368	51.22
627.7	51.18
628.032	50.75
628.365	51.37
628.697	51.05
629.029	51.66
629.361	50.95
629.693	51.2
630.025	51.07
630.357	51.46
630.689	51.23
631.021	51.17
631.353	51.8
631.684	51.74
632.016	51.94
632.348	51.9
632.679	51.57
633.011	51.69
633.342	51.56
633.674	51.81
634.005	52.13
634.336	52.34
634.668	52.22
634.999	51.82
635.33	51.91
635.661	52.36
635.992	52.29
636.323	52.21
636.654	51.88
636.985	52.44
637.316	52.03
637.647	52.05
637.977	51.68
638.308	52.54
638.639	52.26
638.969	52.01
639.3	52.12
639.63	52.49
639.961	52.6
640.291	52.37
640.622	52.69
640.952	52.44
641.282	52.73
641.612	52.49
641.943	52.84
642.273	52.34
642.603	52.58
642.933	52.73
643.263	53.53
643.592	53.12
643.922	53.14
644.252	53.56
644.582	52.72
644.911	53.1
645.241	53.78
645.571	53.87
645.9	52.96
646.23	53.52
646.559	53.65
646.888	53.41
647.218	53.53
647.547	53.18
647.876	53.82
648.205	53.77
648.534	53.39
648.863	54.01
649.192	53.36
649.521	53.63
649.85	53.22
650.179	53.86
650.508	53.43
650.837	53.78
651.165	53.72
651.494	53.99
651.822	54.12
652.151	53.85
652.479	54.08
652.808	53.97
653.136	53.86
653.465	54.35
653.793	54.08
654.121	54.35
654.449	54.34
654.777	54.28
655.105	53.64
655.433	54.07
655.761	54.21
656.089	54.47
656.417	54.25
656.745	54.54
657.073	54.26
657.4	54.93
657.728	54.29
658.056	55.08
658.383	54.4
658.711	54.84
659.038	54.6
659.365	54.74
659.693	54.03
660.02	55.14
660.347	54.87
660.674	54.15
661.001	54.44
661.329	54.62
661.656	55.08
661.982	54.93
662.309	55.24
662.636	55.05
662.963	54.38
663.29	55.27
663.616	54.77
663.943	55.05
664.27	55.49
664.596	55.29
664.923	55.25
665.249	55.83
665.576	55.67
665.902	55.7
666.228	54.98
666.554	55.58
666.881	55.32
667.207	56.25
667.533	56.36
667.859	56.1
668.185	55.81
668.511	56
668.837	55.98
669.162	55.47
669.488	55.74
669.814	55.26
670.139	56.37
670.465	56.16
670.791	55.46
671.116	56.5
671.442	55.6
671.767	55.62
672.092	56.68
672.418	55.89
672.743	56.1
673.068	56.19
673.393	56.17
673.718	56.24
674.043	56.96
674.368	55.89
674.693	56.83
675.018	56.71
675.343	56
675.667	56.65
675.992	56.33
676.317	56.1
676.641	57.46
676.966	56.91
677.29	56.69
677.615	56.33
677.939	56.68
678.264	56.91
678.588	56.31
678.912	57.07
679.236	57.39
679.56	57.07
679.885	57.46
680.209	57
680.532	56.4
680.856	56.41
681.18	57.3
681.504	56.85
681.828	57.53
682.152	56.87
682.475	56.98
682.799	57.13
683.122	57.18
683.446	57.21
683.769	57.33
684.093	57.47
684.416	57.8
684.739	57.9
685.062	57.38
685.386	57.15
685.709	57.87
686.032	57.17
686.355	57.62
686.678	58.18
687.001	58.09
687.324	57.72
687.646	58.61
687.969	57.62
688.292	57.9
688.614	57.13
688.937	57.8
689.26	57.44
689.582	58.16
689.904	57.82
690.227	58.4
690.549	57.82
690.871	57.12
691.194	57.44
691.516	57.96
691.838	58.6
692.16	57.38
692.482	56.98
692.804	58.03
693.126	58.35
693.448	58.59
693.769	57.97
694.091	58.7
694.413	58.22
694.735	59.32
695.056	58.79
695.378	58.18
695.699	58.13
696.021	59.01
696.342	57.97
696.663	58.33
696.984	57.95
697.306	59.11
697.627	58.27
697.948	59.16
698.269	58.74
698.59	59.02
698.911	59.37
699.232	58
699.553	58.53
699.873	59.73
700.194	58.98
700.515	58.89
700.835	58.81
701.156	58.7
701.477	59.64
701.797	59.11
702.117	59.09
702.438	59.84
702.758	58.74
703.078	59.32
703.398	59.54
703.719	59.54
704.039	58.64
704.359	59.58
704.679	60.5
704.999	58.61
705.319	59.45
705.638	59.8
705.958	59.35
706.278	59.91
706.597	58.74
706.917	58
707.237	59.76
707.556	59.54
707.876	58.84
708.195	59.66
708.514	59.88
708.834	61.41
709.153	60.11
709.472	59.76
709.791	59.27
710.11	60.17
710.429	60.36
710.748	59.83
711.067	60.13
711.386	59.84
711.705	59.93
712.023	59.63
712.342	60.5
712.661	60.63
712.979	59.75
713.298	59.79
713.616	59.6
713.935	60.75
714.253	60.84
714.572	60.04
714.89	60.6
715.208	60.38
715.526	60.08
715.844	60.72
716.162	60.12
716.48	60.58
716.798	60.5
717.116	60.46
717.434	61.06
717.752	60.85
718.069	59.5
718.387	60.25
718.705	60.17
719.022	62.35
719.34	60.95
719.657	61.8
719.975	59.69
720.292	61.51
720.609	61.47
720.927	60.07
721.244	60.93
721.561	61.1
721.878	60.25
722.195	61.63
722.512	60.81
722.829	61.49
723.146	62.11
723.463	61
723.779	61.64
724.096	61.42
724.413	62.76
724.729	61.03
725.046	62.79
725.362	60.96
725.679	61.48
725.995	62.2
726.311	62.82
726.628	62.27
726.944	60.94
727.26	59.91
727.576	62.1
727.892	62.43
728.208	61.48
728.524	60.92
728.84	62.36
729.156	61.68
729.472	61.29
729.787	61.74
730.103	62.73
730.419	61.53
730.734	61.14
731.05	62.7
731.365	63.08
731.681	60.26
731.996	62.31
732.311	63.01
732.626	62.93
732.942	62.61
733.257	61.28
733.572	62.27
733.887	62.39
734.202	63.31
734.517	62.8
734.832	62.26
735.146	63.08
735.461	61.43
735.776	62.53
736.091	61.16
736.405	62.96
736.72	62.2
737.034	62.36
737.349	61.21
737.663	62.45
737.977	62.52
738.292	62.29
738.606	60.41
738.92	62.54
739.234	63.55
739.548	62.02
739.862	60.97
740.176	62.59
740.49	61.02
740.804	62.67
741.117	62.58
741.431	63.16
741.745	62.62
742.058	60.41
742.372	63.25
742.685	62.31
742.999	64.37
743.312	63.83
743.626	64.18
743.939	63.17
744.252	64.57
744.565	64.2
744.878	62.76
745.191	65.6
745.505	63.39
745.817	62.38
746.13	63.39
746.443	62.3
746.756	62
747.069	63.78
747.381	62.09
747.694	61.71
748.007	64.03
748.319	62.67
748.632	62.56
748.944	62.63
749.256	66.29
749.569	63.97
749.881	62.53
750.193	63.97
750.505	62.19
750.817	64.35
751.129	62.41
751.441	62.8
751.753	64.04
752.065	64.92
752.377	62.01
752.689	63.54
753	63.93
753.312	63.68
753.624	63.86
753.935	64.2
754.247	62.87
754.558	63.31
754.869	63.89
755.181	64.63
755.492	64.51
755.803	63.27
756.114	65.54
756.425	64.69
756.736	64.2
757.047	62.68
757.358	65.43
757.669	61.66
757.98	63.37
758.291	62.65
758.601	64.95
758.912	64.2
759.223	63.31
759.533	65.61
759.844	65.19
760.154	66.06
760.464	63.68
760.775	62.77
761.085	64.14
761.395	65.96
761.705	64.47
762.016	64.86
762.326	66.02
762.636	65.68
762.945	63.81
763.255	64.31
763.565	63.7
763.875	66.29
764.185	65.67
764.494	65.21
764.804	63.59
765.113	64.15
765.423	65.96
765.732	63.74
766.042	63.91
766.351	64.91
766.66	64.05
766.97	65.13
767.279	66.4
767.588	64.32
767.897	65.22
768.206	65.75
768.515	63.51
768.824	64.98
769.133	63.48
769.441	63.73
769.75	65.68
770.059	64.66
770.367	65.29
770.676	65.07
770.984	67.12
771.293	64.18
771.601	65.8
771.91	63.15
772.218	65.76
772.526	66.26
772.834	65.52
773.142	65.52
773.45	64.95
773.758	66.7
774.066	62.81
774.374	66.81
774.682	64.91
774.99	62.28
775.298	65.97
775.605	65.94
775.913	66.71
776.22	63.94
776.528	65.86
776.835	63.74
777.143	67.78
777.45	68.51
777.757	63.78
778.065	64.94
778.372	67.48
778.679	63.22
778.986	69.56
779.293	69.18
779.6	64.45
779.907	66.27
780.214	65.72
780.52	70.26
780.827	65.01
781.134	63.92
781.44	66.51
781.747	66.04
782.053	64.26
782.36	65.93
782.666	64.78
782.973	66.63
783.279	62.99
783.585	69.49
783.891	66.9
784.197	65.15
784.503	65.37
784.809	67.03
785.115	65.3
785.421	69.3
785.727	64.58
786.033	69.08
786.339	64.04
786.644	67.86
786.95	60.37
787.255	70.09
787.561	67.29
787.866	65.21
788.172	70.28
788.477	68.65
788.782	66.57
789.088	66.3
789.393	64.41
789.698	67.66
790.003	69.03
790.308	65.64
790.613	66.86
790.918	69.3
791.223	66.26
791.527	67.2
791.832	63.61
792.137	64.68
792.441	66.18
792.746	65.38
793.05	67.17
793.355	66.27
793.659	68.31
793.963	68.25
794.268	67.59
794.572	67.46
794.876	67.21
795.18	63.25
795.484	67.46
795.788	64.34
796.092	64.73
796.396	69.54
796.7	63.55
797.004	68.1
797.307	68
797.611	64.18
797.915	67.57
798.218	66.75
798.522	68.23
798.825	68.5
799.128	65.25
799.432	70.5
799.735	65.96
800.038	64.27
800.341	60.13
800.644	68.74
800.947	62.49
801.25	66.28
801.553	68.6
801.856	67.47
802.159	61.85
802.462	67.28
802.764	66.89
803.067	71.32
803.37	64.48
803.672	68.64
803.975	61.6
804.277	68.2
804.579	67.5
804.882	66.52
805.184	67.76
805.486	61.28
805.788	68.41
806.09	68.9
806.392	71.8
806.694	66.93
806.996	67.12
807.298	66.86
807.6	62.62
807.902	66.82
808.203	63.15
808.505	70.6
808.807	67.07
809.108	66.22
809.409	72.52
809.711	65.16
810.012	69.56
810.313	64.74
810.615	66.53
810.916	68.39
811.217	69.15
811.518	70.4
811.819	68.25
812.12	70.84
812.421	64.89
812.722	69.09
813.023	66.16
813.323	66.34
813.624	72.24
813.925	69.15
814.225	62.05
814.526	66.42
814.826	68.2
815.126	66.62
815.427	68.53
815.727	67.04
816.027	75.07
816.327	71.25
816.627	64.2
816.927	69.87
817.227	67.35
817.527	68.22
817.827	70.84
818.127	61.63
818.427	63.56
818.727	64.95
819.026	63.13
819.326	66.48
819.625	66.54
819.925	68.62
820.224	73.38
820.524	67.48
820.823	72.66
821.122	64.54
821.421	64.89
821.72	72.66
822.019	61.67
822.318	69.24
822.617	64.73
822.916	67.26
823.215	67.16
823.514	66.93
823.813	66.61
824.111	64.6
824.41	67.6
824.709	67.87
825.007	67.27
825.306	68.14
825.604	67.97
825.902	68.12
826.201	68.11
826.499	66.4
826.797	66.74
827.095	69.19
827.393	67.45
827.691	65.72
827.989	66.17
828.287	69.9
828.585	68.55
828.882	66.34
829.18	68.01
829.478	65.81
829.775	68.92
830.073	71.15
830.37	69.43
830.668	66.06
830.965	67.71
831.263	68.37
831.56	68.62
831.857	65.7
832.154	71.39
832.451	69.63
832.748	68.98
833.045	65.74
833.342	71.82
833.639	66.04
833.936	70.64
834.232	72.37
834.529	70.04
834.826	73.53
835.122	69.9
835.419	68.58
835.715	66.57
836.012	71.25
836.308	74.16
836.604	68.52
836.901	67.34
837.197	69.6
837.493	69.84
837.789	65.97
838.085	67.83
838.381	70.4
838.677	70.62
838.972	68.18
839.268	64.88
839.564	65.98
839.86	60.46
840.155	68.85
840.451	71.38
840.746	72.52
841.042	79.26
841.337	65.02
841.632	68.62
841.928	64.11
842.223	70.2
842.518	69.93
842.813	69.28
843.108	65.34
843.403	66.65
843.698	75.55
843.993	73.24
844.287	62.87
844.582	67.12
844.877	73.84
845.171	75.82
845.466	72.46
845.761	67.59
846.055	65.15
846.349	66.55
846.644	87.27
846.938	72.02
847.232	72.58
847.526	65.7
847.82	51.41
848.114	78.81
848.408	74.63
848.702	73.75
848.996	72.46
849.29	82.33
849.584	62.89
849.877	72.06
850.171	73.25
850.465	79.14
850.758	68.56
851.052	85.16
851.345	68.99
851.638	64.05
851.932	61.58
852.225	67.98
852.518	79.45
852.811	87.28
853.104	82.54
853.397	65.31
853.69	54.76
853.983	76.82
854.276	71.83
854.569	105.04
854.861	60.34
855.154	99.63
855.447	81.61
855.739	64.52
856.032	73.94
856.324	80.84
856.616	51.54
856.909	72.97
857.201	71.56
857.493	56.24
857.785	86.21
858.077	88.3
858.369	69.79
858.661	83.81
858.953	71.84
859.245	68.32
859.537	69.58
859.829	60.22
860.12	85.74
860.412	94.75
860.703	80.29
860.995	65.95
861.286	69.98
861.578	64.54
861.869	68.68
862.16	71.08
862.452	85.77
862.743	70.71
863.034	56.88
863.325	73.53
863.616	73.93
863.907	76.14
864.198	93.98
864.488	74.2
864.779	79.03
865.07	89.23
865.36	69.89
865.651	65.35
865.941	89.38
866.232	80.85
866.522	75.12
866.813	69.66
867.103	62.46
867.393	76.16
867.683	79.77
867.973	72.25
868.263	83.01
868.553	89.44
868.843	89.55
869.133	60.4
869.423	70.1
869.713	83.32
870.002	66.81
870.292	87.6
870.582	84
870.871	82.39
871.161	87.52
871.45	68.82
871.739	101.24
872.029	68.41
872.318	86.3
872.607	60.43
872.896	70.85
873.185	100.7
873.474	79.14
873.763	86.33
874.052	96.6
874.341	75.89
874.63	56.35
874.918	55.11
875.207	58.91
875.496	73.7
875.784	66.93
876.073	86.53
876.361	68.83
876.649	77.31
876.938	79.61
877.226	78.94
877.514	79.55
877.802	61.57
878.09	88.04
878.378	71.46
878.666	99.86
878.954	99.61
879.242	73.17
879.53	74.92
879.817	76.82
880.105	62.47
880.392	61.19
880.68	70.01
880.967	79.51
881.255	85.08
881.542	50.8
881.83	50.09
882.117	70.11
882.404	74.85
882.691	86.43
882.978	61.88
883.265	74.81
883.552	75.46
883.839	59.96
884.126	69.57
884.413	76.85
884.699	69.63
884.986	75.94
885.273	72.85
885.559	72.85
885.846	72.85
