Data from 0090_crown_Reflection__1__163.txt Node

Date: Fri Sep 22 22:13:02 CDT 2023
User: ToomeyLab
Spectrometer: FLMS14357
Trigger mode: 0
Integration Time (sec): 1.000000E-2
Scans to average: 100
Electric dark correction enabled: true
Nonlinearity correction enabled: false
Boxcar width: 0
XAxis mode: Wavelengths
Number of Pixels in Spectrum: 2048
>>>>>Begin Spectral Data<<<<<
189.047	1637.5
189.435	1637.5
189.823	1637.5
190.211	-64.85
190.599	-12.87
190.987	96.19
191.375	416.5
191.763	170.94
192.151	721.27
192.538	-5.91
192.926	91.81
193.314	95.54
193.702	-12.24
194.089	96.66
194.477	-38.82
194.864	40.61
195.252	-12747.5
195.639	-1036.18
196.027	172.77
196.414	-388.42
196.801	-58.5
197.189	75.16
197.576	310.75
197.963	464.55
198.351	-4.19
198.738	31.5
199.125	-1.61
199.512	3.28
199.899	32.62
200.286	16.74
200.673	-0.66
201.06	10.94
201.447	38.55
201.833	-13.48
202.22	53.55
202.607	42.74
202.994	24.11
203.38	25.02
203.767	31.17
204.154	7.94
204.54	39.42
204.927	2.58
205.313	32.83
205.699	43.26
206.086	18.05
206.472	35.08
206.858	21.73
207.245	-4.26
207.631	25.67
208.017	16.11
208.403	16.87
208.789	26.54
209.175	52.91
209.561	31.6
209.947	30.53
210.333	29.92
210.719	23.01
211.105	24.13
211.491	6.46
211.876	46.02
212.262	22.68
212.648	53.59
213.034	48.61
213.419	21.07
213.805	22.43
214.19	9.69
214.576	21.21
214.961	-3.71
215.346	-6.54
215.732	14.19
216.117	-28.43
216.502	35.8
216.888	42.7
217.273	16.9
217.658	-0.68
218.043	-2.03
218.428	34.18
218.813	-2.37
219.198	11.47
219.583	9.01
219.968	4.5
220.353	35.61
220.738	-4.32
221.122	20.43
221.507	14.07
221.892	16.5
222.276	6.67
222.661	-26.41
223.046	19.35
223.43	22.22
223.815	4.75
224.199	-7.58
224.583	5.21
224.968	3.97
225.352	9.83
225.736	-0.02
226.121	1.1
226.505	9.64
226.889	7.13
227.273	14.14
227.657	7.82
228.041	4.74
228.425	8.17
228.809	5.28
229.193	4.22
229.577	8.42
229.961	6.57
230.344	7.17
230.728	3.84
231.112	4.74
231.495	4.46
231.879	4.88
232.263	3.86
232.646	5.67
233.03	4.97
233.413	5.59
233.797	4.31
234.18	5.22
234.563	6.9
234.946	6.9
235.33	3.68
235.713	5.2
236.096	3.54
236.479	3.26
236.862	5.1
237.245	6.5
237.628	6.07
238.011	5.89
238.394	4.6
238.777	6.31
239.16	5.25
239.543	5.77
239.925	5.23
240.308	4.75
240.691	5.27
241.073	5.8
241.456	5.23
241.838	2.58
242.221	5.41
242.603	4.08
242.986	3.77
243.368	4.28
243.75	4.66
244.133	4.71
244.515	4.24
244.897	4.08
245.279	4.68
245.661	4.21
246.043	4.16
246.425	4.31
246.807	4.91
247.189	2.57
247.571	5.46
247.953	4.86
248.335	4.53
248.717	4.66
249.098	4.12
249.48	3.82
249.862	3.94
250.243	4.13
250.625	4.37
251.006	3.66
251.388	3.9
251.769	4.72
252.151	3.47
252.532	4.4
252.913	4.4
253.295	5.86
253.676	4.1
254.057	4.28
254.438	4.6
254.819	3.48
255.2	4.32
255.581	3.99
255.962	5.11
256.343	4.07
256.724	3.58
257.105	4.19
257.486	3.88
257.867	5.21
258.247	5.62
258.628	3.71
259.009	3.63
259.389	4.25
259.77	4.56
260.15	4.39
260.531	4.45
260.911	3.53
261.292	3.73
261.672	3.67
262.052	3.92
262.432	4.01
262.813	3.82
263.193	3.51
263.573	4.4
263.953	3.2
264.333	3.9
264.713	3.87
265.093	4.06
265.473	3.86
265.853	3.27
266.233	4.48
266.612	4.44
266.992	3.43
267.372	3.45
267.752	3.91
268.131	3.82
268.511	3.55
268.89	3.62
269.27	3.55
269.649	3.83
270.029	4.37
270.408	3.85
270.787	3.96
271.167	3.49
271.546	3.52
271.925	4.03
272.304	3.21
272.683	3.98
273.062	3.87
273.441	3.76
273.82	4.11
274.199	3.68
274.578	3.94
274.957	3.54
275.336	3.61
275.715	3.41
276.093	3.37
276.472	3.48
276.851	3.33
277.229	2.9
277.608	4.17
277.986	3.78
278.365	4.2
278.743	3.06
279.122	3.78
279.5	4.39
279.878	3.11
280.257	4.02
280.635	4.12
281.013	3.8
281.391	3.53
281.769	3.87
282.147	3.75
282.525	3.83
282.903	3.91
283.281	3.44
283.659	3.77
284.037	3.33
284.415	3.9
284.792	3.23
285.17	3.55
285.548	3.91
285.925	3.87
286.303	3.76
286.68	2.9
287.058	3.21
287.435	3.46
287.813	2.85
288.19	2.84
288.567	3.78
288.945	3.29
289.322	3.43
289.699	3.93
290.076	3.02
290.453	3.07
290.83	3.12
291.207	2.96
291.584	2.81
291.961	3.12
292.338	3.27
292.715	3.58
293.092	3.32
293.469	3.28
293.845	3.43
294.222	3.7
294.599	3.68
294.975	3.82
295.352	3.82
295.728	3.34
296.105	3.29
296.481	3.11
296.858	3.38
297.234	3.52
297.61	3.17
297.986	3.16
298.363	3.17
298.739	3.34
299.115	3.61
299.491	3.42
299.867	3.26
300.243	2.94
300.619	3.21
300.995	3.35
301.371	3.24
301.746	3.68
302.122	3.12
302.498	2.6
302.874	2.7
303.249	2.81
303.625	3.37
304	2.98
304.376	3.64
304.751	3.24
305.127	3.41
305.502	3.23
305.878	3.35
306.253	3.52
306.628	3.2
307.003	3.16
307.378	3.23
307.754	3.05
308.129	3.13
308.504	3.59
308.879	3.12
309.254	3.67
309.629	3.3
310.003	3.66
310.378	3.43
310.753	3.22
311.128	3.08
311.502	3.23
311.877	2.83
312.252	3.08
312.626	3.09
313.001	3.12
313.375	3.28
313.75	3.43
314.124	3.22
314.498	2.89
314.873	3.29
315.247	3.36
315.621	3.3
315.995	3.06
316.369	2.94
316.743	2.82
317.117	3.65
317.491	3.4
317.865	3.04
318.239	3.32
318.613	3.3
318.987	2.78
319.361	2.42
319.734	2.65
320.108	3.01
320.482	2.94
320.855	3.21
321.229	3.54
321.602	3.7
321.976	3.23
322.349	2.99
322.723	3.4
323.096	4
323.469	2.89
323.843	2.99
324.216	2.91
324.589	2.93
324.962	2.2
325.335	2.83
325.708	3.21
326.081	3.43
326.454	2.8
326.827	2.94
327.2	2.92
327.573	3.43
327.945	2.87
328.318	3.24
328.691	3.2
329.063	2.64
329.436	3.63
329.809	2.85
330.181	3.22
330.553	2.75
330.926	3.08
331.298	2.7
331.671	3.05
332.043	3.03
332.415	2.8
332.787	3.35
333.159	2.94
333.532	2.77
333.904	2.86
334.276	2.58
334.648	2.68
335.02	3.04
335.391	3.17
335.763	3.33
336.135	3.11
336.507	3.04
336.879	3.05
337.25	2.92
337.622	3.26
337.993	3.2
338.365	2.9
338.736	3.13
339.108	2.85
339.479	2.77
339.851	2.55
340.222	2.99
340.593	2.97
340.964	2.68
341.336	2.81
341.707	2.7
342.078	2.84
342.449	2.91
342.82	2.65
343.191	2.7
343.562	2.76
343.933	2.95
344.303	2.86
344.674	2.96
345.045	2.87
345.416	3.16
345.786	2.66
346.157	2.99
346.527	2.61
346.898	3.12
347.268	2.95
347.639	3.02
348.009	2.75
348.38	3.32
348.75	3.26
349.12	2.8
349.49	3.12
349.861	2.89
350.231	2.97
350.601	3.04
350.971	3.26
351.341	2.68
351.711	3.15
352.081	2.48
352.45	2.9
352.82	3.02
353.19	3.02
353.56	3.22
353.929	3.18
354.299	3.08
354.669	2.68
355.038	2.73
355.408	3.08
355.777	3.45
356.147	3.24
356.516	3.22
356.885	3.27
357.254	3.1
357.624	2.65
357.993	3.03
358.362	2.78
358.731	3.05
359.1	2.83
359.469	3.05
359.838	2.84
360.207	2.77
360.576	3.01
360.945	3.09
361.314	3.02
361.682	3.19
362.051	3.25
362.42	3.01
362.788	2.75
363.157	3.16
363.525	2.96
363.894	2.99
364.262	3.23
364.631	2.82
364.999	2.8
365.367	3.21
365.735	2.96
366.104	2.64
366.472	2.94
366.84	3.01
367.208	3.5
367.576	3.07
367.944	3.01
368.312	3.12
368.68	3.06
369.048	3.36
369.416	3.3
369.783	2.89
370.151	3
370.519	2.98
370.886	3.13
371.254	3.18
371.621	3.12
371.989	3.1
372.356	2.99
372.724	3.04
373.091	3.22
373.458	3.06
373.826	3.27
374.193	3.25
374.56	3.24
374.927	3.43
375.294	2.76
375.661	3.24
376.028	3.29
376.395	3.26
376.762	3.22
377.129	3.79
377.496	3.54
377.863	3.34
378.229	2.99
378.596	3.54
378.963	3.27
379.329	3.28
379.696	3.07
380.062	2.75
380.429	3.02
380.795	3.31
381.161	3.08
381.528	3.07
381.894	3.02
382.26	2.94
382.626	3.12
382.993	3.46
383.359	3.02
383.725	3.21
384.091	3.26
384.457	3
384.823	2.95
385.188	3.27
385.554	3.19
385.92	3.47
386.286	3.41
386.651	3.08
387.017	3.47
387.383	3.01
387.748	3.16
388.114	2.99
388.479	3.33
388.845	3.1
389.21	2.92
389.575	3.4
389.94	3.22
390.306	3.21
390.671	3.48
391.036	2.89
391.401	3.19
391.766	3.02
392.131	3.25
392.496	3.23
392.861	2.9
393.226	3.41
393.591	3.26
393.956	3.23
394.32	3.07
394.685	3.2
395.05	3.49
395.414	3.41
395.779	3.11
396.143	3.14
396.508	3.28
396.872	3.27
397.236	3.47
397.601	3.14
397.965	3.48
398.329	3.27
398.694	3.2
399.058	3.26
399.422	3.29
399.786	3.49
400.15	3.23
400.514	3.21
400.878	3.28
401.242	3.29
401.605	3.33
401.969	3.1
402.333	3.4
402.697	3.23
403.06	3.3
403.424	3.06
403.787	3.17
404.151	3.11
404.514	3.39
404.878	3.38
405.241	3.41
405.604	3.43
405.968	3.34
406.331	3.41
406.694	3.35
407.057	3.24
407.42	3.42
407.783	3.28
408.146	3.25
408.509	3.24
408.872	3.35
409.235	3.17
409.598	3.23
409.961	3.42
410.323	3.48
410.686	3.38
411.049	3.46
411.411	3.39
411.774	3.39
412.136	3.16
412.499	3.33
412.861	3.4
413.223	3.35
413.586	3.44
413.948	3.37
414.31	3.38
414.672	3.55
415.035	3.38
415.397	3.46
415.759	3.75
416.121	3.39
416.483	3.35
416.845	3.22
417.206	3.12
417.568	3.35
417.93	3.29
418.292	3.46
418.653	3.23
419.015	3.58
419.377	3.22
419.738	3.42
420.1	3.23
420.461	3.35
420.822	3.25
421.184	3.31
421.545	3.37
421.906	3.33
422.267	3.25
422.629	3.41
422.99	3.3
423.351	3.28
423.712	3.21
424.073	3.25
424.434	3.38
424.795	3.3
425.155	3.3
425.516	3.32
425.877	3.33
426.238	3.24
426.598	3.29
426.959	3.31
427.32	3.37
427.68	3.23
428.041	3.27
428.401	3.41
428.761	3.42
429.122	3.39
429.482	3.43
429.842	3.3
430.202	3.34
430.563	3.45
430.923	3.49
431.283	3.5
431.643	3.57
432.003	3.46
432.363	3.39
432.722	3.51
433.082	3.56
433.442	3.55
433.802	3.6
434.161	3.17
434.521	3.28
434.881	3.38
435.24	3.27
435.6	3.35
435.959	3.31
436.319	3.41
436.678	3.53
437.037	3.45
437.396	3.38
437.756	3.41
438.115	3.57
438.474	3.46
438.833	3.38
439.192	3.56
439.551	3.43
439.91	3.5
440.269	3.53
440.628	3.27
440.987	3.41
441.345	3.42
441.704	3.52
442.063	3.33
442.421	3.31
442.78	3.33
443.138	3.36
443.497	3.32
443.855	3.39
444.214	3.33
444.572	3.43
444.93	3.56
445.288	3.42
445.647	3.66
446.005	3.43
446.363	3.39
446.721	3.46
447.079	3.23
447.437	3.36
447.795	3.36
448.153	3.27
448.51	3.32
448.868	3.31
449.226	3.28
449.584	3.35
449.941	3.29
450.299	3.41
450.656	3.42
451.014	3.49
451.371	3.39
451.729	3.46
452.086	3.44
452.443	3.41
452.801	3.43
453.158	3.44
453.515	3.52
453.872	3.45
454.229	3.47
454.586	3.41
454.943	3.34
455.3	3.45
455.657	3.39
456.014	3.26
456.371	3.55
456.727	3.6
457.084	3.43
457.441	3.4
457.797	3.48
458.154	3.54
458.51	3.4
458.867	3.39
459.223	3.35
459.58	3.6
459.936	3.62
460.292	3.47
460.648	3.58
461.005	3.53
461.361	3.58
461.717	3.32
462.073	3.38
462.429	3.26
462.785	3.4
463.141	3.4
463.496	3.58
463.852	3.44
464.208	3.49
464.564	3.63
464.919	3.49
465.275	3.81
465.631	3.57
465.986	3.53
466.342	3.51
466.697	3.63
467.052	3.49
467.408	3.65
467.763	3.5
468.118	3.72
468.473	3.58
468.829	3.42
469.184	3.46
469.539	3.38
469.894	3.54
470.249	3.51
470.603	3.47
470.958	3.44
471.313	3.66
471.668	3.63
472.023	3.57
472.377	3.48
472.732	3.46
473.086	3.68
473.441	3.35
473.795	3.72
474.15	3.47
474.504	3.42
474.859	3.69
475.213	3.33
475.567	3.42
475.921	3.4
476.275	3.45
476.63	3.49
476.984	3.4
477.338	3.53
477.692	3.48
478.045	3.66
478.399	3.56
478.753	3.5
479.107	3.54
479.461	3.42
479.814	3.6
480.168	3.51
480.521	3.52
480.875	3.62
481.228	3.6
481.582	3.42
481.935	3.49
482.289	3.51
482.642	3.43
482.995	3.38
483.348	3.44
483.701	3.51
484.055	3.47
484.408	3.43
484.761	3.48
485.114	3.34
485.466	3.33
485.819	3.24
486.172	3.15
486.525	3.2
486.878	3.2
487.23	3.21
487.583	3.34
487.936	3.34
488.288	3.36
488.641	3.36
488.993	3.32
489.345	3.29
489.698	3.23
490.05	3.26
490.402	3.27
490.754	3.25
491.107	3.28
491.459	3.39
491.811	3.39
492.163	3.42
492.515	3.39
492.866	3.43
493.218	3.37
493.57	3.37
493.922	3.28
494.274	3.28
494.625	3.32
494.977	3.37
495.328	3.47
495.68	3.52
496.031	3.53
496.383	3.46
496.734	3.5
497.086	3.44
497.437	3.57
497.788	3.46
498.139	3.57
498.49	3.67
498.842	3.44
499.193	3.33
499.544	3.56
499.894	3.41
500.245	3.48
500.596	3.51
500.947	3.49
501.298	3.59
501.648	3.58
501.999	3.67
502.35	3.55
502.7	3.61
503.051	3.49
503.401	3.63
503.752	3.57
504.102	3.57
504.452	3.54
504.803	3.5
505.153	3.55
505.503	3.43
505.853	3.48
506.203	3.46
506.553	3.51
506.903	3.58
507.253	3.57
507.603	3.58
507.953	3.52
508.303	3.56
508.652	3.55
509.002	3.49
509.352	3.6
509.701	3.46
510.051	3.62
510.4	3.63
510.75	3.5
511.099	3.44
511.449	3.37
511.798	3.48
512.147	3.51
512.496	3.46
512.846	3.46
513.195	3.51
513.544	3.5
513.893	3.54
514.242	3.44
514.591	3.52
514.939	3.53
515.288	3.48
515.637	3.48
515.986	3.41
516.334	3.51
516.683	3.61
517.032	3.66
517.38	3.56
517.729	3.52
518.077	3.49
518.426	3.54
518.774	3.46
519.122	3.5
519.47	3.4
519.819	3.49
520.167	3.53
520.515	3.53
520.863	3.42
521.211	3.4
521.559	3.48
521.907	3.47
522.255	3.45
522.602	3.53
522.95	3.47
523.298	3.52
523.645	3.6
523.993	3.57
524.341	3.42
524.688	3.63
525.036	3.52
525.383	3.55
525.73	3.6
526.078	3.55
526.425	3.55
526.772	3.62
527.119	3.53
527.466	3.49
527.814	3.4
528.161	3.35
528.508	3.41
528.854	3.48
529.201	3.46
529.548	3.39
529.895	3.4
530.242	3.36
530.588	3.35
530.935	3.22
531.282	3.26
531.628	3.32
531.975	3.27
532.321	3.32
532.667	3.36
533.014	3.41
533.36	3.5
533.706	3.44
534.052	3.54
534.399	3.47
534.745	3.41
535.091	3.38
535.437	3.32
535.783	3.26
536.129	3.35
536.474	3.4
536.82	3.35
537.166	3.56
537.512	3.49
537.857	3.49
538.203	3.48
538.549	3.46
538.894	3.37
539.239	3.44
539.585	3.44
539.93	3.58
540.276	3.42
540.621	3.55
540.966	3.49
541.311	3.63
541.656	3.55
542.001	3.62
542.346	3.45
542.691	3.51
543.036	3.46
543.381	3.35
543.726	3.27
544.071	3.29
544.415	3.35
544.76	3.34
545.105	3.33
545.449	3.38
545.794	3.49
546.138	3.44
546.483	3.51
546.827	3.45
547.171	3.47
547.516	3.55
547.86	3.55
548.204	3.54
548.548	3.5
548.892	3.56
549.236	3.4
549.58	3.47
549.924	3.54
550.268	3.62
550.612	3.45
550.956	3.58
551.3	3.58
551.643	3.6
551.987	3.53
552.33	3.69
552.674	3.56
553.017	3.49
553.361	3.57
553.704	3.62
554.048	3.64
554.391	3.63
554.734	3.5
555.077	3.48
555.42	3.43
555.764	3.42
556.107	3.58
556.45	3.51
556.793	3.61
557.135	3.64
557.478	3.49
557.821	3.68
558.164	3.65
558.507	3.58
558.849	3.62
559.192	3.56
559.534	3.56
559.877	3.57
560.219	3.69
560.562	3.69
560.904	3.51
561.246	3.67
561.589	3.56
561.931	3.56
562.273	3.51
562.615	3.57
562.957	3.48
563.299	3.66
563.641	3.65
563.983	3.63
564.325	3.68
564.667	3.76
565.008	3.6
565.35	3.75
565.692	3.57
566.033	3.64
566.375	3.67
566.716	3.47
567.058	3.52
567.399	3.68
567.741	3.69
568.082	3.55
568.423	3.64
568.764	3.57
569.105	3.32
569.447	3.54
569.788	3.34
570.129	3.54
570.47	3.63
570.811	3.68
571.151	3.69
571.492	3.41
571.833	3.52
572.174	3.4
572.514	3.61
572.855	3.62
573.195	3.51
573.536	3.63
573.876	3.5
574.217	3.42
574.557	3.48
574.898	3.49
575.238	3.59
575.578	3.71
575.918	3.51
576.258	3.27
576.598	3.57
576.938	3.61
577.278	3.65
577.618	3.46
577.958	3.37
578.298	3.53
578.638	3.49
578.977	3.73
579.317	3.61
579.657	3.74
579.996	3.67
580.336	3.57
580.675	3.65
581.014	3.46
581.354	3.57
581.693	3.6
582.032	3.61
582.372	3.64
582.711	3.73
583.05	3.73
583.389	3.6
583.728	3.54
584.067	3.78
584.406	3.68
584.745	3.59
585.083	3.76
585.422	3.76
585.761	3.52
586.1	3.45
586.438	3.52
586.777	3.57
587.115	3.74
587.454	3.27
587.792	3.65
588.13	3.65
588.469	3.46
588.807	3.66
589.145	3.87
589.483	3.76
589.821	3.55
590.159	3.65
590.497	3.77
590.835	3.64
591.173	3.64
591.511	3.62
591.849	3.76
592.187	3.47
592.524	3.61
592.862	3.69
593.2	3.6
593.537	3.46
593.875	3.63
594.212	3.59
594.55	3.79
594.887	3.7
595.224	3.77
595.561	3.85
595.899	3.96
596.236	3.69
596.573	3.69
596.91	3.62
597.247	3.55
597.584	3.77
597.921	3.71
598.258	3.51
598.594	3.62
598.931	3.64
599.268	3.42
599.604	3.59
599.941	3.62
600.277	3.55
600.614	3.53
600.95	3.73
601.287	3.6
601.623	3.76
601.959	3.72
602.296	3.5
602.632	3.53
602.968	3.53
603.304	3.65
603.64	3.76
603.976	3.84
604.312	3.58
604.648	3.82
604.984	3.78
605.319	3.56
605.655	3.67
605.991	3.6
606.326	3.64
606.662	3.54
606.998	3.4
607.333	3.67
607.668	3.49
608.004	3.63
608.339	3.59
608.674	3.49
609.01	3.58
609.345	3.58
609.68	3.74
610.015	3.55
610.35	3.75
610.685	3.72
611.02	3.7
611.355	3.83
611.689	3.59
612.024	3.71
612.359	3.45
612.694	3.46
613.028	3.4
613.363	3.53
613.697	3.67
614.032	3.49
614.366	3.46
614.7	3.72
615.035	3.6
615.369	3.53
615.703	3.52
616.037	3.8
616.371	3.74
616.705	3.8
617.039	3.69
617.373	3.51
617.707	3.57
618.041	3.83
618.375	3.54
618.709	3.61
619.042	3.69
619.376	3.83
619.71	3.86
620.043	3.27
620.377	3.36
620.71	3.64
621.043	3.82
621.377	3.58
621.71	3.66
622.043	3.62
622.376	3.93
622.709	3.54
623.043	3.52
623.376	3.62
623.709	3.6
624.041	3.76
624.374	3.6
624.707	4.03
625.04	3.95
625.373	3.59
625.705	3.69
626.038	3.74
626.37	3.98
626.703	3.75
627.035	3.63
627.368	3.54
627.7	4.13
628.032	3.8
628.365	3.89
628.697	3.96
629.029	3.72
629.361	3.6
629.693	3.6
630.025	3.5
630.357	3.64
630.689	3.88
631.021	3.4
631.353	3.55
631.684	3.66
632.016	4.01
632.348	3.67
632.679	3.5
633.011	3.31
633.342	3.91
633.674	4.06
634.005	3.72
634.336	3.62
634.668	3.66
634.999	3.74
635.33	3.63
635.661	3.86
635.992	3.53
636.323	3.71
636.654	3.8
636.985	3.57
637.316	3.78
637.647	4.11
637.977	3.6
638.308	4.08
638.639	3.68
638.969	3.73
639.3	3.73
639.63	4.21
639.961	3.67
640.291	3.66
640.622	3.87
640.952	3.66
641.282	3.9
641.612	3.84
641.943	4.08
642.273	4.03
642.603	3.5
642.933	3.6
643.263	3.23
643.592	3.58
643.922	3.81
644.252	3.71
644.582	4.02
644.911	3.82
645.241	4.23
645.571	3.58
645.9	3.81
646.23	4.16
646.559	4
646.888	3.88
647.218	3.71
647.547	3.78
647.876	3.75
648.205	3.57
648.534	3.82
648.863	3.83
649.192	3.46
649.521	3.78
649.85	3.81
650.179	3.62
650.508	3.75
650.837	4.11
651.165	3.71
651.494	3.69
651.822	3.69
652.151	3.49
652.479	3.86
652.808	3.56
653.136	4.24
653.465	3.92
653.793	3.7
654.121	4.08
654.449	3.5
654.777	3.86
655.105	3.93
655.433	3.78
655.761	4.21
656.089	3.6
656.417	3.83
656.745	4.16
657.073	3.99
657.4	4.27
657.728	4.03
658.056	3.99
658.383	4.1
658.711	3.74
659.038	3.6
659.365	4.04
659.693	3.17
660.02	3.99
660.347	3.92
660.674	3.39
661.001	3.73
661.329	3.42
661.656	4.16
661.982	3.47
662.309	3.82
662.636	3.88
662.963	3.96
663.29	3.93
663.616	4.1
663.943	4.25
664.27	3.76
664.596	3.9
664.923	3.81
665.249	3.87
665.576	3.42
665.902	4.05
666.228	3.61
666.554	3.82
666.881	4.41
667.207	3.52
667.533	3.58
667.859	3.7
668.185	4.01
668.511	4.04
668.837	3.48
669.162	3.69
669.488	3.51
669.814	3.74
670.139	4.17
670.465	4.15
670.791	3.89
671.116	3.37
671.442	4.13
671.767	3.22
672.092	4.41
672.418	4.65
672.743	3.95
673.068	4.18
673.393	3.51
673.718	4.1
674.043	4.39
674.368	3.3
674.693	3.79
675.018	4.01
675.343	3.69
675.667	3.93
675.992	3.59
676.317	4.34
676.641	3.8
676.966	4.47
677.29	3.83
677.615	3.91
677.939	3.79
678.264	4.46
678.588	4.67
678.912	4.55
679.236	4.02
679.56	3.85
679.885	3.69
680.209	4.34
680.532	3.85
680.856	3.67
681.18	4.35
681.504	3.53
681.828	4.34
682.152	4.03
682.475	4.28
682.799	4.27
683.122	3.53
683.446	4.23
683.769	4.35
684.093	4.33
684.416	3.9
684.739	4.06
685.062	4.99
685.386	3.97
685.709	4.08
686.032	3.55
686.355	3.46
686.678	4.44
687.001	4.21
687.324	4.84
687.646	4.26
687.969	4.59
688.292	3.85
688.614	4.35
688.937	3.86
689.26	3.3
689.582	3.75
689.904	4.1
690.227	4.28
690.549	4.45
690.871	4.01
691.194	4.3
691.516	3.98
691.838	4.13
692.16	3.75
692.482	4.23
692.804	3.53
693.126	2.93
693.448	4.62
693.769	3.11
694.091	4.34
694.413	4.53
694.735	4.3
695.056	4.79
695.378	4.42
695.699	3.88
696.021	3.47
696.342	4.81
696.663	3.67
696.984	4.31
697.306	4.17
697.627	3.84
697.948	3.33
698.269	4.18
698.59	4
698.911	3.55
699.232	4.44
699.553	4.1
699.873	4.92
700.194	4.09
700.515	3.7
700.835	4.04
701.156	4.49
701.477	4.02
701.797	3.9
702.117	4.14
702.438	3.97
702.758	3.59
703.078	4.43
703.398	4.34
703.719	3.62
704.039	4.54
704.359	3.77
704.679	3.49
704.999	4.28
705.319	3.85
705.638	3.52
705.958	4.73
706.278	5.29
706.597	4.67
706.917	5.47
707.237	3.98
707.556	3.62
707.876	4.07
708.195	4.2
708.514	4.09
708.834	3.81
709.153	5.23
709.472	4.58
709.791	4.4
710.11	4.95
710.429	4.54
710.748	4.89
711.067	5.18
711.386	4.3
711.705	4.21
712.023	4.24
712.342	4.59
712.661	4.48
712.979	3.87
713.298	5.33
713.616	4.53
713.935	4.99
714.253	5.19
714.572	4.55
714.89	5.43
715.208	4.74
715.526	3.66
715.844	5.08
716.162	3.34
716.48	4.23
716.798	4.31
717.116	4.55
717.434	4.37
717.752	4.49
718.069	4.86
718.387	4.47
718.705	3.52
719.022	5.04
719.34	5.72
719.657	4.04
719.975	4.28
720.292	4.42
720.609	5.83
720.927	4.02
721.244	6.01
721.561	5.26
721.878	4.14
722.195	4.09
722.512	4.9
722.829	5.72
723.146	5.81
723.463	4.59
723.779	3.83
724.096	3.8
724.413	5.87
724.729	4.63
725.046	4.79
725.362	4.96
725.679	4.52
725.995	5.2
726.311	3.65
726.628	4.28
726.944	3.83
727.26	4.46
727.576	4.22
727.892	3.8
728.208	5.52
728.524	5.64
728.84	3.69
729.156	3.9
729.472	5.13
729.787	4.52
730.103	3
730.419	5.23
730.734	5.47
731.05	4.55
731.365	4.68
731.681	4.61
731.996	4.92
732.311	5.25
732.626	4.54
732.942	5.11
733.257	5.14
733.572	4.01
733.887	5.2
734.202	5.1
734.517	5.42
734.832	4.81
735.146	4.52
735.461	4.98
735.776	4.83
736.091	4.17
736.405	5.39
736.72	5.34
737.034	3.96
737.349	3.33
737.663	4.1
737.977	6.91
738.292	4.52
738.606	4.51
738.92	5.94
739.234	4.96
739.548	5.41
739.862	3.25
740.176	5.03
740.49	4.41
740.804	4.56
741.117	3.44
741.431	4.26
741.745	5.84
742.058	6.21
742.372	2.62
742.685	4.13
742.999	5.24
743.312	5.98
743.626	2.41
743.939	4.95
744.252	4.23
744.565	3.5
744.878	4.95
745.191	5.25
745.505	4.66
745.817	5.54
746.13	6.47
746.443	5.62
746.756	5.13
747.069	5.8
747.381	2.71
747.694	4.96
748.007	3.13
748.319	5.14
748.632	4.71
748.944	6.12
749.256	5.75
749.569	3.3
749.881	7.94
750.193	4.46
750.505	5.23
750.817	5.31
751.129	6.48
751.441	6.48
751.753	4.97
752.065	8.79
752.377	5.73
752.689	5.05
753	3.29
753.312	7.3
753.624	7.01
753.935	6.2
754.247	3.84
754.558	6.38
754.869	4.45
755.181	3.51
755.492	4.14
755.803	5.65
756.114	5.51
756.425	6.26
756.736	5.21
757.047	4.36
757.358	4.9
757.669	3.33
757.98	6.83
758.291	5.49
758.601	5.27
758.912	6.4
759.223	7.46
759.533	5.03
759.844	6.31
760.154	4.62
760.464	4.76
760.775	5.28
761.085	7.04
761.395	5.98
761.705	4.76
762.016	4.3
762.326	5.37
762.636	5.74
762.945	3.31
763.255	5.44
763.565	5.73
763.875	5.57
764.185	5.45
764.494	6.89
764.804	4.81
765.113	4.29
765.423	4.9
765.732	6.01
766.042	5
766.351	4.55
766.66	4.89
766.97	5.77
767.279	4.66
767.588	5.06
767.897	4.86
768.206	5.67
768.515	4.77
768.824	4.93
769.133	6.68
769.441	5.7
769.75	6.6
770.059	8.39
770.367	6.49
770.676	6.26
770.984	5.48
771.293	5.55
771.601	8.46
771.91	7.65
772.218	5.92
772.526	5.57
772.834	4.29
773.142	7.69
773.45	8.84
773.758	5.94
774.066	5.87
774.374	4.01
774.682	6.81
774.99	4.52
775.298	5.05
775.605	6.69
775.913	9.63
776.22	3.23
776.528	6.78
776.835	6.32
777.143	5.07
777.45	6.07
777.757	5.39
778.065	6.01
778.372	7.07
778.679	7.79
778.986	6.1
779.293	3.37
779.6	6.65
779.907	9.6
780.214	10.93
780.52	5.9
780.827	8.2
781.134	8.83
781.44	6.15
781.747	4.81
782.053	8.85
782.36	8.84
782.666	5.26
782.973	7.15
783.279	4.43
783.585	7.29
783.891	5.14
784.197	6.71
784.503	2.52
784.809	3.9
785.115	4.55
785.421	10.56
785.727	3.25
786.033	6.17
786.339	5.87
786.644	7.54
786.95	6.76
787.255	7.17
787.561	5.6
787.866	6.2
788.172	7.91
788.477	3.92
788.782	4.54
789.088	8.91
789.393	3.15
789.698	9.42
790.003	8.74
790.308	1.18
790.613	6.97
790.918	6.45
791.223	5.37
791.527	2.72
791.832	6.6
792.137	3.68
792.441	9.23
792.746	8.39
793.05	9.62
793.355	12.05
793.659	7.52
793.963	8.29
794.268	6.59
794.572	5.11
794.876	6.23
795.18	6.38
795.484	3.17
795.788	2.96
796.092	7.2
796.396	9.17
796.7	11.75
797.004	3.11
797.307	4.49
797.611	6.01
797.915	5.63
798.218	7.1
798.522	5.83
798.825	7.43
799.128	7.15
799.432	5.45
799.735	7.02
800.038	6.86
800.341	4.6
800.644	12.3
800.947	7.48
801.25	5.63
801.553	10.03
801.856	12.51
802.159	7.94
802.462	4.74
802.764	7.26
803.067	8.36
803.37	9.22
803.672	3.57
803.975	5.48
804.277	14.64
804.579	11.42
804.882	6.42
805.184	8.63
805.486	5.53
805.788	12.43
806.09	8.36
806.392	4.68
806.694	7.5
806.996	2.61
807.298	4.84
807.6	10.46
807.902	2.37
808.203	2.76
808.505	9.02
808.807	7.39
809.108	12.41
809.409	10.41
809.711	6.56
810.012	10.17
810.313	5.81
810.615	6.9
810.916	3.37
811.217	7.19
811.518	8.03
811.819	9.76
812.12	5.02
812.421	5.54
812.722	8.6
813.023	6.99
813.323	8.35
813.624	12.44
813.925	8.92
814.225	9.9
814.526	8.36
814.826	14.62
815.126	11.82
815.427	6.12
815.727	9.21
816.027	-0.23
816.327	7.66
816.627	12.32
816.927	11.66
817.227	3.55
817.527	13.85
817.827	1.49
818.127	12.13
818.427	15.36
818.727	8.79
819.026	14.23
819.326	8.24
819.625	2.02
819.925	10.09
820.224	8.54
820.524	9.44
820.823	7.95
821.122	1.29
821.421	10.52
821.72	10.46
822.019	7.57
822.318	3.63
822.617	8.56
822.916	7.42
823.215	7.31
823.514	8.11
823.813	8.42
824.111	10.9
824.41	6.82
824.709	7.41
825.007	6.41
825.306	6.29
825.604	5.88
825.902	6.83
826.201	7.23
826.499	6.72
826.797	7.06
827.095	8.07
827.393	7.48
827.691	7.31
827.989	5.72
828.287	7.17
828.585	7.7
828.882	7.76
829.18	7.56
829.478	6.08
829.775	6.37
830.073	8.25
830.37	6.25
830.668	7.67
830.965	8.25
831.263	4.23
831.56	7.17
831.857	6.61
832.154	9.1
832.451	6.64
832.748	6.97
833.045	10.73
833.342	8.97
833.639	5.87
833.936	12.16
834.232	11.25
834.529	11.03
834.826	9.86
835.122	9.8
835.419	6.53
835.715	10.17
836.012	7.64
836.308	11.61
836.604	14.07
836.901	5.36
837.197	9.76
837.493	9.62
837.789	7.17
838.085	5.09
838.381	3.64
838.677	6.45
838.972	10.82
839.268	10.52
839.564	13.89
839.86	9.82
840.155	8.16
840.451	5.1
840.746	15.68
841.042	11.24
841.337	11.4
841.632	8.61
841.928	13
842.223	13.63
842.518	16.21
842.813	16.23
843.108	23.04
843.403	9.21
843.698	9.42
843.993	7.23
844.287	9.51
844.582	8.45
844.877	0.01
845.171	11.73
845.466	15.51
845.761	5.41
846.055	15.1
846.349	-0.87
846.644	8.7
846.938	7.1
847.232	5.89
847.526	-2.9
847.82	13.39
848.114	11.1
848.408	20.28
848.702	18.22
848.996	7.36
849.29	20.54
849.584	22.87
849.877	20.98
850.171	7.56
850.465	19.93
850.758	14.01
851.052	5.77
851.345	13.83
851.638	17.46
851.932	25.31
852.225	19.84
852.518	19.03
852.811	6.21
853.104	15.2
853.397	22.16
853.69	5.81
853.983	27.04
854.276	7.18
854.569	25.49
854.861	-13.11
855.154	2.67
855.447	12.55
855.739	0.42
856.032	19.16
856.324	19.44
856.616	13.96
856.909	13.98
857.201	4.6
857.493	12.99
857.785	25.95
858.077	11.74
858.369	18.29
858.661	29.21
858.953	16.42
859.245	12.43
859.537	1.61
859.829	-12.21
860.12	19.7
860.412	28
860.703	-9.03
860.995	1.66
861.286	20.56
861.578	30.52
861.869	32.91
862.16	2.55
862.452	-29.34
862.743	30.73
863.034	45.4
863.325	49.94
863.616	18.45
863.907	7.21
864.198	6.99
864.488	24.64
864.779	1.13
865.07	20.91
865.36	-3.97
865.651	53.26
865.941	7.09
866.232	24.06
866.522	21
866.813	12.37
867.103	18.55
867.393	-23.79
867.683	9.06
867.973	1.94
868.263	5.72
868.553	-0.64
868.843	16.4
869.133	25.42
869.423	18.36
869.713	13.25
870.002	28.03
870.292	3.86
870.582	9.67
870.871	10.92
871.161	-1.35
871.45	2.06
871.739	30.44
872.029	20.76
872.318	19.27
872.607	23.71
872.896	-18.58
873.185	15.66
873.474	16.68
873.763	8.58
874.052	18.53
874.341	38
874.63	20.5
874.918	-28.57
875.207	23.29
875.496	19.86
875.784	18.11
876.073	-3.35
876.361	36.13
876.649	17.91
876.938	48.2
877.226	17.89
877.514	26.25
877.802	11.27
878.09	40.13
878.378	21.18
878.666	13.53
878.954	6.37
879.242	25.09
879.53	-7.13
879.817	28.77
880.105	-19.3
880.392	-16.92
880.68	-0.05
880.967	24.52
881.255	17.95
881.542	6.86
881.83	37.84
882.117	18.85
882.404	17.14
882.691	12.31
882.978	7.17
883.265	-8.21
883.552	20.13
883.839	9.11
884.126	16.82
884.413	4.08
884.699	14.72
884.986	17.07
885.273	2.87
885.559	2.87
885.846	2.87
