Data from 0140_forehead_Reflection__4__177.txt Node

Date: Mon Aug 28 20:12:27 CDT 2023
User: ToomeyLab
Spectrometer: FLMS14357
Trigger mode: 0
Integration Time (sec): 1.000000E-2
Scans to average: 100
Electric dark correction enabled: true
Nonlinearity correction enabled: false
Boxcar width: 0
XAxis mode: Wavelengths
Number of Pixels in Spectrum: 2048
>>>>>Begin Spectral Data<<<<<
189.047	-170.31
189.435	-170.31
189.823	-170.31
190.211	-12.97
190.599	193.91
190.987	67.54
191.375	18.71
191.763	93.96
192.151	-54.01
192.538	-35.63
192.926	161.89
193.314	-52.81
193.702	942.16
194.089	18.38
194.477	-196.81
194.864	308.19
195.252	-536.65
195.639	-59.15
196.027	200.51
196.414	163.26
196.801	66.85
197.189	-40.61
197.576	-142.83
197.963	-2873.72
198.351	15.88
198.738	75.43
199.125	41.98
199.512	53.78
199.899	27.25
200.286	30.9
200.673	8.76
201.06	-11.84
201.447	-39.54
201.833	-9.19
202.22	-9.34
202.607	17.12
202.994	1.4
203.38	37.02
203.767	-43.39
204.154	9.69
204.54	-2.95
204.927	68.54
205.313	34.13
205.699	9.85
206.086	11.43
206.472	62.7
206.858	20.6
207.245	-15.56
207.631	24.26
208.017	45.86
208.403	27.38
208.789	-3.24
209.175	31.86
209.561	19.93
209.947	-5.33
210.333	3.95
210.719	14.95
211.105	29.56
211.491	-3.58
211.876	17.16
212.262	-9.24
212.648	42.56
213.034	15.18
213.419	12.76
213.805	30.37
214.19	-18.91
214.576	11.3
214.961	1.86
215.346	-16.99
215.732	18
216.117	-7.6
216.502	0.55
216.888	-22.86
217.273	19.77
217.658	20.8
218.043	-12.27
218.428	0.73
218.813	-42.73
219.198	24.94
219.583	20.31
219.968	37.93
220.353	5.47
220.738	6.51
221.122	13.41
221.507	-2.17
221.892	17.31
222.276	-1.07
222.661	-25.77
223.046	32.06
223.43	-1.48
223.815	14.29
224.199	13.11
224.583	4.57
224.968	3.3
225.352	22.06
225.736	16.25
226.121	13.25
226.505	4.89
226.889	11.02
227.273	9.42
227.657	9.41
228.041	9.57
228.425	5.47
228.809	5.15
229.193	4.99
229.577	7.84
229.961	5.04
230.344	4.24
230.728	3.91
231.112	3.29
231.495	4.35
231.879	4.55
232.263	3.89
232.646	3.47
233.03	4.62
233.413	6.32
233.797	4.7
234.18	4.25
234.563	4.79
234.946	6.37
235.33	4.85
235.713	2.04
236.096	4.41
236.479	4.47
236.862	4.9
237.245	5.12
237.628	5.68
238.011	5.01
238.394	4.93
238.777	5.8
239.16	3.39
239.543	4.54
239.925	6.26
240.308	3.19
240.691	2.16
241.073	3.97
241.456	3.13
241.838	4.5
242.221	4.89
242.603	4.49
242.986	4.7
243.368	4.42
243.75	3.89
244.133	3.95
244.515	3.63
244.897	4.36
245.279	4.44
245.661	4.31
246.043	3.46
246.425	3.31
246.807	5.21
247.189	3.01
247.571	4.37
247.953	4.1
248.335	4.07
248.717	3.79
249.098	3.97
249.48	3.95
249.862	4.09
250.243	4.16
250.625	4.89
251.006	4.17
251.388	4.6
251.769	4.3
252.151	4.12
252.532	3.82
252.913	5.16
253.295	3.57
253.676	4.34
254.057	4.03
254.438	3.82
254.819	3.92
255.2	4.79
255.581	4.19
255.962	3.91
256.343	4.37
256.724	3.98
257.105	4.44
257.486	3.73
257.867	2.94
258.247	3.43
258.628	4.74
259.009	3.67
259.389	4.05
259.77	3.71
260.15	3.19
260.531	3.21
260.911	4.02
261.292	3.97
261.672	4.04
262.052	3.84
262.432	3.91
262.813	3.94
263.193	3.95
263.573	3.53
263.953	4.14
264.333	3.69
264.713	3.81
265.093	4.17
265.473	3.51
265.853	3.05
266.233	3.69
266.612	3.74
266.992	3.89
267.372	4.54
267.752	4.57
268.131	4.09
268.511	3.77
268.89	3.96
269.27	3.79
269.649	3.94
270.029	4.39
270.408	4.09
270.787	4.25
271.167	4.7
271.546	4.42
271.925	3.78
272.304	4.09
272.683	3.84
273.062	3.7
273.441	3.91
273.82	4.14
274.199	3.79
274.578	3.79
274.957	3.86
275.336	4.28
275.715	4.16
276.093	3.98
276.472	3.42
276.851	4.25
277.229	4.46
277.608	4.17
277.986	3.5
278.365	4.31
278.743	3.77
279.122	3.41
279.5	3.25
279.878	3.46
280.257	3.69
280.635	4.13
281.013	4.3
281.391	3.42
281.769	3.52
282.147	3.6
282.525	4
282.903	4.01
283.281	3.33
283.659	4.5
284.037	4.23
284.415	3.66
284.792	3.93
285.17	3.72
285.548	3.44
285.925	4.22
286.303	3.61
286.68	4.29
287.058	3.94
287.435	3.65
287.813	3.65
288.19	4.19
288.567	4.14
288.945	3.96
289.322	3.94
289.699	4.26
290.076	4.28
290.453	4.18
290.83	3.62
291.207	3.59
291.584	4.2
291.961	4.44
292.338	3.86
292.715	3.93
293.092	4.5
293.469	4.24
293.845	3.85
294.222	3.92
294.599	4.03
294.975	4.44
295.352	3.77
295.728	4.4
296.105	4.25
296.481	4.26
296.858	4.44
297.234	4.4
297.61	4.2
297.986	4.49
298.363	4.76
298.739	4.5
299.115	4.09
299.491	4.7
299.867	4.55
300.243	4.66
300.619	4.67
300.995	5.02
301.371	4.52
301.746	5.35
302.122	4.24
302.498	4.6
302.874	4.93
303.249	4.98
303.625	5.02
304	5.15
304.376	4.61
304.751	4.69
305.127	5.15
305.502	5.23
305.878	4.9
306.253	5.27
306.628	5.43
307.003	5.09
307.378	5.27
307.754	5.8
308.129	5.04
308.504	5.68
308.879	5.45
309.254	5.64
309.629	4.92
310.003	5.18
310.378	4.53
310.753	5.72
311.128	5.46
311.502	5.97
311.877	5.16
312.252	5.57
312.626	5.7
313.001	5.48
313.375	5.69
313.75	5.75
314.124	5.94
314.498	5.9
314.873	6.18
315.247	6.18
315.621	5.64
315.995	6.31
316.369	5.93
316.743	5.98
317.117	5.92
317.491	5.67
317.865	5.35
318.239	6.62
318.613	6.24
318.987	6.21
319.361	6.42
319.734	6.08
320.108	6.23
320.482	6.87
320.855	6.35
321.229	6.09
321.602	6.37
321.976	6.24
322.349	6.66
322.723	6.22
323.096	7.8
323.469	6.76
323.843	6.19
324.216	7.19
324.589	7.45
324.962	7.19
325.335	7.27
325.708	6.89
326.081	6.83
326.454	6.91
326.827	7.15
327.2	7.16
327.573	6.8
327.945	7.76
328.318	7.58
328.691	7.14
329.063	6.77
329.436	6.74
329.809	7.98
330.181	7.81
330.553	7.31
330.926	7.87
331.298	7.52
331.671	7.34
332.043	8.16
332.415	8.49
332.787	7.9
333.159	7.56
333.532	8.17
333.904	7.74
334.276	7.56
334.648	8.39
335.02	8.37
335.391	7.97
335.763	8.18
336.135	7.77
336.507	7.84
336.879	7.47
337.25	8.81
337.622	8.05
337.993	8.43
338.365	8.28
338.736	8.82
339.108	7.87
339.479	7.87
339.851	8.07
340.222	8.79
340.593	8.52
340.964	8.87
341.336	8.51
341.707	8.57
342.078	8.04
342.449	8.53
342.82	8.64
343.191	8.74
343.562	8.9
343.933	8.25
344.303	8.78
344.674	8.95
345.045	9.13
345.416	8.84
345.786	9.15
346.157	8.69
346.527	8.71
346.898	8.99
347.268	9.19
347.639	8.66
348.009	8.95
348.38	9.68
348.75	9.25
349.12	9.68
349.49	9.47
349.861	9.16
350.231	9.4
350.601	9.94
350.971	9.65
351.341	9.56
351.711	9.49
352.081	9.64
352.45	9.46
352.82	9.59
353.19	10.13
353.56	9.73
353.929	9.96
354.299	9.51
354.669	10.03
355.038	10.27
355.408	9.7
355.777	10.08
356.147	9.9
356.516	10.39
356.885	10.03
357.254	10.16
357.624	10.3
357.993	10.6
358.362	10.36
358.731	10.22
359.1	10.69
359.469	10.47
359.838	10.22
360.207	10.45
360.576	10.94
360.945	10.74
361.314	10.32
361.682	10.68
362.051	11.28
362.42	10.74
362.788	10.74
363.157	11.2
363.525	10.94
363.894	10.93
364.262	11.05
364.631	10.88
364.999	11.21
365.367	11.2
365.735	11.15
366.104	11.47
366.472	11.08
366.84	11.56
367.208	11.5
367.576	11.4
367.944	11.63
368.312	11.89
368.68	11.56
369.048	11.87
369.416	11.77
369.783	12.02
370.151	11.89
370.519	12.08
370.886	11.94
371.254	11.7
371.621	11.73
371.989	12.09
372.356	12.19
372.724	12.13
373.091	12.46
373.458	12.06
373.826	12.2
374.193	12.19
374.56	12.7
374.927	12.31
375.294	12.7
375.661	12.77
376.028	12.64
376.395	12.29
376.762	13.14
377.129	12.56
377.496	12.45
377.863	12.93
378.229	12.58
378.596	13.02
378.963	12.91
379.329	13.08
379.696	13.01
380.062	12.89
380.429	13.07
380.795	13.31
381.161	13.12
381.528	13.61
381.894	13.41
382.26	13.68
382.626	13.45
382.993	13.37
383.359	13.8
383.725	14.1
384.091	13.51
384.457	13.52
384.823	13.87
385.188	13.69
385.554	13.59
385.92	13.71
386.286	14.02
386.651	13.85
387.017	14.06
387.383	13.97
387.748	14.1
388.114	13.88
388.479	14.16
388.845	14.04
389.21	14.18
389.575	14.57
389.94	14.43
390.306	14.56
390.671	14.28
391.036	14.69
391.401	14.52
391.766	14.56
392.131	14.63
392.496	14.58
392.861	14.59
393.226	14.55
393.591	14.46
393.956	14.96
394.32	15.01
394.685	14.99
395.05	14.98
395.414	14.87
395.779	14.96
396.143	15.08
396.508	14.97
396.872	15.17
397.236	15.23
397.601	15.27
397.965	15.56
398.329	15.51
398.694	15.32
399.058	15.3
399.422	15.51
399.786	15.49
400.15	15.84
400.514	15.39
400.878	15.71
401.242	15.81
401.605	16.08
401.969	15.6
402.333	15.75
402.697	15.86
403.06	15.9
403.424	16.12
403.787	15.92
404.151	15.8
404.514	15.98
404.878	16.05
405.241	16.26
405.604	16.21
405.968	16.04
406.331	16.4
406.694	16.25
407.057	16.24
407.42	16.44
407.783	16.41
408.146	16.59
408.509	16.56
408.872	16.56
409.235	16.65
409.598	16.55
409.961	16.69
410.323	16.77
410.686	17.08
411.049	17.03
411.411	16.86
411.774	17.14
412.136	17
412.499	16.94
412.861	17.09
413.223	17.22
413.586	17.12
413.948	17.18
414.31	17.39
414.672	17.43
415.035	17.2
415.397	17.27
415.759	17.31
416.121	17.58
416.483	17.68
416.845	17.71
417.206	17.7
417.568	17.73
417.93	17.42
418.292	17.64
418.653	17.42
419.015	17.75
419.377	17.54
419.738	17.87
420.1	17.63
420.461	17.88
420.822	17.89
421.184	17.69
421.545	17.98
421.906	17.84
422.267	17.82
422.629	17.91
422.99	17.83
423.351	17.85
423.712	17.8
424.073	18.13
424.434	18.35
424.795	18.21
425.155	18.22
425.516	18.33
425.877	18.16
426.238	18.3
426.598	18.29
426.959	18.49
427.32	18.61
427.68	18.76
428.041	18.68
428.401	19.02
428.761	18.87
429.122	19.06
429.482	19.19
429.842	19.4
430.202	19.19
430.563	19.54
430.923	19.64
431.283	19.47
431.643	19.41
432.003	19.59
432.363	19.72
432.722	19.76
433.082	19.8
433.442	19.91
433.802	19.79
434.161	19.91
434.521	19.98
434.881	19.76
435.24	19.97
435.6	19.94
435.959	20.1
436.319	20.13
436.678	20.14
437.037	20.41
437.396	20.2
437.756	20.29
438.115	20.62
438.474	20.49
438.833	20.63
439.192	20.63
439.551	20.67
439.91	20.85
440.269	20.56
440.628	20.76
440.987	20.72
441.345	20.7
441.704	20.83
442.063	20.81
442.421	20.8
442.78	20.92
443.138	20.75
443.497	20.91
443.855	21.1
444.214	21.32
444.572	21.4
444.93	21.51
445.288	21.41
445.647	21.51
446.005	21.71
446.363	21.44
446.721	21.44
447.079	21.63
447.437	21.54
447.795	21.44
448.153	21.55
448.51	21.38
448.868	21.5
449.226	21.48
449.584	21.55
449.941	21.79
450.299	21.99
450.656	22.11
451.014	21.95
451.371	22.09
451.729	22.28
452.086	22.37
452.443	22.71
452.801	22.63
453.158	22.55
453.515	22.78
453.872	22.69
454.229	22.85
454.586	22.89
454.943	22.72
455.3	22.96
455.657	22.91
456.014	23.02
456.371	22.92
456.727	23.18
457.084	23.08
457.441	23.14
457.797	23.29
458.154	23.28
458.51	23.44
458.867	23.12
459.223	23.55
459.58	23.33
459.936	23.49
460.292	23.65
460.648	23.78
461.005	23.5
461.361	23.47
461.717	23.3
462.073	23.27
462.429	23.29
462.785	23.55
463.141	23.73
463.496	23.93
463.852	24.02
464.208	24.19
464.564	24.27
464.919	24.32
465.275	24.63
465.631	24.36
465.986	24.59
466.342	24.35
466.697	24.43
467.052	24.61
467.408	24.59
467.763	24.49
468.118	24.52
468.473	24.86
468.829	24.82
469.184	24.61
469.539	24.92
469.894	24.8
470.249	25.04
470.603	25.1
470.958	24.92
471.313	25.1
471.668	25.06
472.023	25.12
472.377	25.35
472.732	25.34
473.086	25.26
473.441	25.46
473.795	25.45
474.15	25.62
474.504	25.83
474.859	25.62
475.213	25.71
475.567	25.67
475.921	25.97
476.275	25.82
476.63	26
476.984	25.92
477.338	26.07
477.692	26.28
478.045	26.29
478.399	26.2
478.753	26.02
479.107	26.05
479.461	26.29
479.814	26.2
480.168	26.21
480.521	26.36
480.875	26.24
481.228	26.18
481.582	26.51
481.935	26.5
482.289	26.65
482.642	26.51
482.995	26.63
483.348	26.54
483.701	26.5
484.055	26.31
484.408	26.24
484.761	26.35
485.114	26.04
485.466	25.74
485.819	25.58
486.172	25.47
486.525	25.67
486.878	25.87
487.23	26.15
487.583	26.44
487.936	26.61
488.288	26.55
488.641	26.59
488.993	26.33
489.345	26.28
489.698	26.28
490.05	26.25
490.402	26.36
490.754	26.58
491.107	26.79
491.459	26.99
491.811	27.31
492.163	27.41
492.515	27.38
492.866	27.52
493.218	27.11
493.57	26.92
493.922	26.82
494.274	27.07
494.625	27.25
494.977	27.55
495.328	27.83
495.68	27.97
496.031	28.06
496.383	28.3
496.734	28.35
497.086	28.47
497.437	28.56
497.788	28.47
498.139	28.43
498.49	28.42
498.842	28.44
499.193	28.24
499.544	28.45
499.894	28.48
500.245	28.68
500.596	28.49
500.947	28.78
501.298	28.87
501.648	28.9
501.999	29.05
502.35	29.02
502.7	29.17
503.051	29.19
503.401	29.41
503.752	29.26
504.102	29.34
504.452	29.38
504.803	29.58
505.153	29.44
505.503	29.47
505.853	29.55
506.203	29.47
506.553	29.5
506.903	29.77
507.253	29.66
507.603	29.63
507.953	29.9
508.303	29.96
508.652	29.91
509.002	29.94
509.352	29.85
509.701	29.75
510.051	29.84
510.4	29.91
510.75	29.99
511.099	29.65
511.449	29.84
511.798	29.82
512.147	30.05
512.496	30.05
512.846	30.01
513.195	30.11
513.544	30.2
513.893	30.32
514.242	30.48
514.591	30.18
514.939	30.26
515.288	30.34
515.637	30.61
515.986	30.51
516.334	30.61
516.683	30.69
517.032	30.79
517.38	30.79
517.729	30.94
518.077	30.79
518.426	31.08
518.774	30.8
519.122	31.09
519.47	30.84
519.819	30.67
520.167	30.62
520.515	30.71
520.863	30.46
521.211	30.65
521.559	30.78
521.907	30.87
522.255	30.86
522.602	31.28
522.95	31.36
523.298	31.37
523.645	31.46
523.993	31.49
524.341	31.64
524.688	31.48
525.036	31.75
525.383	31.77
525.73	31.73
526.078	31.77
526.425	31.62
526.772	31.75
527.119	31.52
527.466	31.23
527.814	31.11
528.161	31.2
528.508	31.38
528.854	31.38
529.201	31.53
529.548	31.43
529.895	31.39
530.242	31.08
530.588	30.82
530.935	30.85
531.282	31.04
531.628	31.05
531.975	31.31
532.321	31.58
532.667	31.74
533.014	32
533.36	31.79
533.706	32.26
534.052	32.19
534.399	32.1
534.745	32.07
535.091	31.93
535.437	31.6
535.783	31.75
536.129	31.93
536.474	32.08
536.82	32.31
537.166	32.57
537.512	32.8
537.857	32.7
538.203	32.66
538.549	32.49
538.894	32.41
539.239	32.33
539.585	32.72
539.93	32.83
540.276	32.98
540.621	33.2
540.966	33.37
541.311	33.53
541.656	33.35
542.001	33.49
542.346	33.17
542.691	33.04
543.036	32.64
543.381	32.5
543.726	32.48
544.071	32.58
544.415	32.84
544.76	32.88
545.105	33.13
545.449	33.23
545.794	33.23
546.138	33.29
546.483	33.53
546.827	33.68
547.171	33.6
547.516	33.76
547.86	34.03
548.204	33.77
548.548	33.8
548.892	33.75
549.236	33.76
549.58	33.8
549.924	33.99
550.268	34.44
550.612	34.6
550.956	34.67
551.3	34.71
551.643	34.55
551.987	34.66
552.33	35.09
552.674	34.81
553.017	34.89
553.361	34.98
553.704	34.91
554.048	34.99
554.391	34.97
554.734	34.82
555.077	34.95
555.42	34.96
555.764	35.09
556.107	35.05
556.45	35.17
556.793	35.35
557.135	35.39
557.478	35.52
557.821	35.36
558.164	35.62
558.507	35.56
558.849	35.67
559.192	35.8
559.534	35.42
559.877	35.66
560.219	35.98
560.562	36.04
560.904	36.03
561.246	35.83
561.589	35.73
561.931	36.02
562.273	35.65
562.615	35.93
562.957	35.93
563.299	35.91
563.641	36.08
563.983	35.92
564.325	36.22
564.667	36.06
565.008	36.25
565.35	36.17
565.692	36.27
566.033	36.19
566.375	36.26
566.716	36.31
567.058	36.3
567.399	36.28
567.741	36.36
568.082	36.09
568.423	36.33
568.764	36.33
569.105	36.22
569.447	36.25
569.788	36.34
570.129	36.63
570.47	36.71
570.811	36.68
571.151	36.47
571.492	36.42
571.833	36.66
572.174	36.68
572.514	36.66
572.855	36.76
573.195	36.85
573.536	36.75
573.876	36.64
574.217	36.64
574.557	37.04
574.898	36.82
575.238	36.98
575.578	37
575.918	37.03
576.258	37.18
576.598	37.05
576.938	37.18
577.278	37.2
577.618	37.1
577.958	37.22
578.298	37.35
578.638	37.25
578.977	37.54
579.317	37.18
579.657	37.46
579.996	37.51
580.336	37.48
580.675	37.64
581.014	37.63
581.354	38.04
581.693	37.83
582.032	38.31
582.372	38.21
582.711	38.15
583.05	38.25
583.389	38.27
583.728	38.31
584.067	38.2
584.406	38.36
584.745	38.21
585.083	38.44
585.422	38.36
585.761	38.14
586.1	38.58
586.438	38.54
586.777	38.74
587.115	38.44
587.454	39.03
587.792	38.78
588.13	38.62
588.469	38.47
588.807	38.42
589.145	38.67
589.483	38.83
589.821	38.76
590.159	38.75
590.497	38.84
590.835	38.68
591.173	38.86
591.511	38.56
591.849	38.64
592.187	38.92
592.524	38.88
592.862	39.22
593.2	38.69
593.537	38.91
593.875	39.25
594.212	39.17
594.55	39.25
594.887	39.05
595.224	39.34
595.561	39.33
595.899	39.2
596.236	39.23
596.573	39.54
596.91	39.31
597.247	39.3
597.584	39.05
597.921	39.24
598.258	39.44
598.594	39.1
598.931	38.95
599.268	39.24
599.604	39.03
599.941	39.34
600.277	39.47
600.614	39.82
600.95	39.81
601.287	40.05
601.623	39.85
601.959	39.96
602.296	40.05
602.632	39.97
602.968	39.92
603.304	39.84
603.64	39.94
603.976	40.06
604.312	40.04
604.648	39.97
604.984	39.97
605.319	40.06
605.655	39.75
605.991	39.71
606.326	39.94
606.662	39.58
606.998	39.67
607.333	39.74
607.668	39.96
608.004	40.12
608.339	40.02
608.674	39.93
609.01	40.29
609.345	40.36
609.68	40.68
610.015	40.47
610.35	40.32
610.685	40.44
611.02	40.56
611.355	40.5
611.689	40.15
612.024	40.26
612.359	40.28
612.694	40.44
613.028	40.31
613.363	40.66
613.697	40.61
614.032	40.9
614.366	40.78
614.7	40.76
615.035	40.98
615.369	41.27
615.703	41.27
616.037	40.89
616.371	40.69
616.705	40.93
617.039	41.19
617.373	41.26
617.707	40.82
618.041	41.03
618.375	41.01
618.709	41.32
619.042	41.5
619.376	41.17
619.71	41.07
620.043	41.24
620.377	41.81
620.71	41.57
621.043	41.51
621.377	41.59
621.71	41.51
622.043	40.86
622.376	41.16
622.709	41.55
623.043	41.63
623.376	41.59
623.709	41.4
624.041	41.79
624.374	41.9
624.707	41.74
625.04	41.47
625.373	41.6
625.705	41.9
626.038	41.96
626.37	41.93
626.703	41.84
627.035	42.3
627.368	42.07
627.7	41.87
628.032	41.9
628.365	41.69
628.697	41.82
629.029	42.06
629.361	42.01
629.693	41.74
630.025	41.91
630.357	42.09
630.689	42.07
631.021	42.12
631.353	42.5
631.684	42.9
632.016	42.02
632.348	42.18
632.679	42.16
633.011	42.09
633.342	41.75
633.674	42.17
634.005	42.2
634.336	42.34
634.668	42.47
634.999	42.6
635.33	41.98
635.661	42.47
635.992	42.57
636.323	42.55
636.654	42.8
636.985	42.67
637.316	42.16
637.647	42.51
637.977	42.73
638.308	42.82
638.639	42.9
638.969	42.72
639.3	42.69
639.63	42.59
639.961	42.99
640.291	42.75
640.622	42.8
640.952	43.16
641.282	42.6
641.612	42.96
641.943	42.8
642.273	43.51
642.603	42.92
642.933	42.62
643.263	43.34
643.592	43.04
643.922	42.52
644.252	42.84
644.582	43.28
644.911	43.26
645.241	43.11
645.571	43.3
645.9	43.58
646.23	43.67
646.559	43.66
646.888	43.58
647.218	42.98
647.547	42.96
647.876	43.84
648.205	43.23
648.534	43.25
648.863	43.23
649.192	43.48
649.521	43.95
649.85	43.85
650.179	44.18
650.508	43.49
650.837	43.21
651.165	43.48
651.494	44.06
651.822	43.85
652.151	43.89
652.479	43.37
652.808	43.76
653.136	43.4
653.465	43.99
653.793	44.24
654.121	44.07
654.449	43.5
654.777	43.68
655.105	43.5
655.433	43.67
655.761	44.09
656.089	43.78
656.417	43.75
656.745	44.05
657.073	43.69
657.4	44.48
657.728	44.62
658.056	43.96
658.383	43.71
658.711	43.93
659.038	44.55
659.365	43.83
659.693	44.06
660.02	44.66
660.347	44.34
660.674	44.32
661.001	44.32
661.329	44.23
661.656	43.65
661.982	43.85
662.309	44.32
662.636	44.19
662.963	44.09
663.29	44.56
663.616	43.81
663.943	44.76
664.27	45.11
664.596	44.86
664.923	45.15
665.249	45.01
665.576	44.74
665.902	44.89
666.228	44.75
666.554	44.66
666.881	44.48
667.207	44.49
667.533	44.61
667.859	44.18
668.185	43.92
668.511	45.11
668.837	44.76
669.162	45.35
669.488	44.92
669.814	44.87
670.139	44.43
670.465	45.29
670.791	44.5
671.116	43.95
671.442	44.48
671.767	44.29
672.092	44.75
672.418	44.88
672.743	44.85
673.068	45.07
673.393	45
673.718	44.99
674.043	45.16
674.368	45.14
674.693	44.88
675.018	45.61
675.343	45.1
675.667	45.14
675.992	45.35
676.317	45.08
676.641	45.25
676.966	45.21
677.29	45.25
677.615	45.19
677.939	45.7
678.264	45.16
678.588	45.06
678.912	45.46
679.236	45.44
679.56	44.91
679.885	45.3
680.209	45.23
680.532	45.41
680.856	45.45
681.18	45.27
681.504	45.28
681.828	45.58
682.152	44.89
682.475	45.69
682.799	45.98
683.122	44.96
683.446	45.62
683.769	46.4
684.093	45.97
684.416	45.72
684.739	45.48
685.062	45.38
685.386	45.73
685.709	45.98
686.032	45
686.355	45.66
686.678	46.38
687.001	46.3
687.324	45.09
687.646	46.46
687.969	45.61
688.292	45.94
688.614	45.68
688.937	45.37
689.26	45.88
689.582	46.38
689.904	46.79
690.227	46.02
690.549	45.91
690.871	46.27
691.194	45.76
691.516	45.79
691.838	45.99
692.16	46.43
692.482	45.59
692.804	46.65
693.126	45.89
693.448	45.86
693.769	46.66
694.091	46.51
694.413	45.79
694.735	46.48
695.056	46.82
695.378	45.86
695.699	46.87
696.021	46.52
696.342	46.53
696.663	47.09
696.984	46.75
697.306	46.35
697.627	45.85
697.948	45.7
698.269	45.73
698.59	46.26
698.911	46.87
699.232	46.03
699.553	45.92
699.873	46.93
700.194	46.09
700.515	46.55
700.835	46.44
701.156	46.66
701.477	45.93
701.797	46.42
702.117	46.2
702.438	47.64
702.758	47.17
703.078	46.44
703.398	47.17
703.719	47.03
704.039	47.3
704.359	45.81
704.679	45.86
704.999	46.76
705.319	46.78
705.638	46.57
705.958	47.4
706.278	45.92
706.597	46.38
706.917	47.83
707.237	45.65
707.556	46.71
707.876	47.64
708.195	47.53
708.514	47.13
708.834	47.28
709.153	47.31
709.472	47.97
709.791	46.9
710.11	47.62
710.429	47.79
710.748	48.16
711.067	46.95
711.386	47.81
711.705	47.13
712.023	47.76
712.342	47.96
712.661	47.12
712.979	47.21
713.298	46.82
713.616	46.97
713.935	48.28
714.253	47.62
714.572	47.45
714.89	46.53
715.208	47.86
715.526	46.8
715.844	47.03
716.162	47.8
716.48	46.3
716.798	46.34
717.116	47.7
717.434	46.58
717.752	47.55
718.069	47.59
718.387	47.1
718.705	47.09
719.022	47.15
719.34	47.85
719.657	47.8
719.975	47.16
720.292	47.68
720.609	47.17
720.927	48.01
721.244	48.11
721.561	47.3
721.878	47.62
722.195	46.44
722.512	47.74
722.829	48.36
723.146	48.35
723.463	46.56
723.779	46.78
724.096	47.72
724.413	46.93
724.729	48.73
725.046	48.36
725.362	47.17
725.679	49.11
725.995	46.63
726.311	48.04
726.628	48.31
726.944	48.03
727.26	47.86
727.576	46.84
727.892	48.37
728.208	48.04
728.524	46.97
728.84	48.3
729.156	48.64
729.472	48.28
729.787	48.86
730.103	48.15
730.419	47.62
730.734	46.45
731.05	47.28
731.365	48.62
731.681	47.35
731.996	48.4
732.311	49.79
732.626	49.06
732.942	48.3
733.257	48.57
733.572	48.29
733.887	46.14
734.202	48.92
734.517	48.31
734.832	48.66
735.146	49.37
735.461	48.83
735.776	47.81
736.091	47.81
736.405	47.92
736.72	49.88
737.034	49.39
737.349	49.32
737.663	47.38
737.977	47.07
738.292	47.97
738.606	49
738.92	48.03
739.234	49.39
739.548	47.93
739.862	49.57
740.176	47.09
740.49	49.06
740.804	47.13
741.117	47.72
741.431	48.47
741.745	49.28
742.058	49.47
742.372	48.87
742.685	48.48
742.999	48.24
743.312	49.01
743.626	49.08
743.939	49.42
744.252	48.81
744.565	47.08
744.878	47.84
745.191	47.36
745.505	50.78
745.817	50.33
746.13	48.8
746.443	50.07
746.756	47.75
747.069	47.81
747.381	49.1
747.694	48.22
748.007	49.25
748.319	47.55
748.632	48.78
748.944	47.62
749.256	48.87
749.569	48.42
749.881	51.06
750.193	50.1
750.505	49.19
750.817	49.93
751.129	48.53
751.441	48.68
751.753	49.94
752.065	48.91
752.377	47.64
752.689	49.93
753	48.04
753.312	47.76
753.624	48.61
753.935	51.02
754.247	50.16
754.558	49.83
754.869	47.79
755.181	51.93
755.492	48.13
755.803	49.83
756.114	48.46
756.425	49.41
756.736	49.37
757.047	49.01
757.358	49.31
757.669	48.71
757.98	48.53
758.291	48.89
758.601	49.76
758.912	48.09
759.223	48.97
759.533	48.68
759.844	47.51
760.154	49.65
760.464	49.69
760.775	50.36
761.085	48.8
761.395	47.79
761.705	48.47
762.016	49.47
762.326	50.61
762.636	48.69
762.945	49.86
763.255	50.17
763.565	48.05
763.875	49.23
764.185	47.07
764.494	48.42
764.804	48.31
765.113	48.12
765.423	48.76
765.732	49.95
766.042	49.95
766.351	48.87
766.66	49.13
766.97	49.62
767.279	49.93
767.588	48.87
767.897	47.9
768.206	49.47
768.515	48.69
768.824	50.4
769.133	49.94
769.441	50.33
769.75	51.11
770.059	48.93
770.367	51.34
770.676	48.5
770.984	48.48
771.293	47.79
771.601	50.13
771.91	46.95
772.218	49.89
772.526	49.86
772.834	50.65
773.142	48.89
773.45	49.81
773.758	48.87
774.066	48.83
774.374	51.31
774.682	51.66
774.99	48.23
775.298	48.1
775.605	49.23
775.913	50.98
776.22	49.38
776.528	49.39
776.835	49.76
777.143	47.23
777.45	49.1
777.757	49.35
778.065	50.28
778.372	52.72
778.679	52.58
778.986	46.15
779.293	50.91
779.6	51.22
779.907	50.73
780.214	49.99
780.52	49.82
780.827	49.23
781.134	50.02
781.44	47.6
781.747	50.88
782.053	50.74
782.36	47.81
782.666	51.75
782.973	47.66
783.279	49.5
783.585	48.28
783.891	50.89
784.197	48.46
784.503	49.42
784.809	50.79
785.115	48.87
785.421	47.47
785.727	50
786.033	52.94
786.339	50.08
786.644	46.52
786.95	49.34
787.255	48.78
787.561	48.19
787.866	48.26
788.172	46.84
788.477	49.8
788.782	54.43
789.088	47.76
789.393	49.05
789.698	51
790.003	52.18
790.308	50.25
790.613	52.32
790.918	47.75
791.223	51.87
791.527	47.95
791.832	46.88
792.137	49.4
792.441	51.66
792.746	48.57
793.05	51.01
793.355	51.08
793.659	52.37
793.963	50.7
794.268	49.66
794.572	50.22
794.876	49.74
795.18	50.33
795.484	48.38
795.788	50.81
796.092	49.58
796.396	52.47
796.7	51.24
797.004	48.03
797.307	49.81
797.611	46.67
797.915	50.5
798.218	48.71
798.522	53.85
798.825	50.29
799.128	48.67
799.432	51.02
799.735	51.15
800.038	50.05
800.341	52.74
800.644	50.69
800.947	47.05
801.25	49.74
801.553	54.54
801.856	51.53
802.159	52.34
802.462	52.56
802.764	49.64
803.067	47.02
803.37	49.28
803.672	50.21
803.975	49.25
804.277	46.6
804.579	53.37
804.882	51.2
805.184	51.07
805.486	47
805.788	48.95
806.09	52.49
806.392	52.46
806.694	53.42
806.996	50.13
807.298	53.36
807.6	48.9
807.902	50
808.203	51.46
808.505	50.17
808.807	49.81
809.108	46.05
809.409	47.61
809.711	53.6
810.012	53.28
810.313	50.06
810.615	49.13
810.916	51.64
811.217	52.92
811.518	51.5
811.819	45.99
812.12	50.34
812.421	52.63
812.722	48.55
813.023	48.59
813.323	52
813.624	49.88
813.925	52.05
814.225	51.34
814.526	53.18
814.826	50.63
815.126	48.06
815.427	48.63
815.727	46.5
816.027	45.9
816.327	50.82
816.627	51.4
816.927	51.16
817.227	47.71
817.527	46.57
817.827	53.19
818.127	52.15
818.427	49.76
818.727	53.57
819.026	51.87
819.326	47.11
819.625	45.99
819.925	50.88
820.224	50.13
820.524	46.9
820.823	46.51
821.122	51.99
821.421	50.02
821.72	45.95
822.019	52.32
822.318	46.4
822.617	48.45
822.916	49.01
823.215	47.44
823.514	47.95
823.813	52.35
824.111	50.66
824.41	50.08
824.709	52.61
825.007	51.52
825.306	51.13
825.604	52.21
825.902	52.13
826.201	51.64
826.499	52.8
826.797	52.27
827.095	51.84
827.393	51.37
827.691	51.08
827.989	52.01
828.287	52.15
828.585	52.85
828.882	51.51
829.18	51.17
829.478	50.13
829.775	51.7
830.073	53.14
830.37	51.91
830.668	51.84
830.965	51.38
831.263	50.85
831.56	52.24
831.857	50.47
832.154	53.81
832.451	52.07
832.748	50.77
833.045	48.9
833.342	51.84
833.639	54.43
833.936	50.47
834.232	47.5
834.529	49.82
834.826	48.64
835.122	52.42
835.419	52.24
835.715	50.81
836.012	48.21
836.308	53.68
836.604	50.03
836.901	52.01
837.197	54.19
837.493	52.24
837.789	49.16
838.085	53.34
838.381	54.65
838.677	47.66
838.972	49.74
839.268	53.86
839.564	50.89
839.86	53.46
840.155	53.45
840.451	49.55
840.746	56.94
841.042	56.84
841.337	55.05
841.632	53.62
841.928	49.94
842.223	52.28
842.518	50.44
842.813	51.14
843.108	51.14
843.403	50.43
843.698	50.15
843.993	58.95
844.287	53.08
844.582	55.39
844.877	51.31
845.171	53.85
845.466	42.54
845.761	61.74
846.055	42.34
846.349	46.3
846.644	48.86
846.938	39.6
847.232	41.09
847.526	42.32
847.82	47.51
848.114	46.25
848.408	50.17
848.702	49.15
848.996	51.34
849.29	37.21
849.584	52.06
849.877	51.26
850.171	37.66
850.465	43.83
850.758	56.6
851.052	48.47
851.345	58.74
851.638	40.28
851.932	36.67
852.225	48.25
852.518	49.19
852.811	44.9
853.104	53.35
853.397	38.05
853.69	35.32
853.983	56.4
854.276	44.89
854.569	45.04
854.861	39.66
855.154	52.23
855.447	54.91
855.739	30.49
856.032	46.96
856.324	59.98
856.616	40.03
856.909	54.49
857.201	41.69
857.493	41.46
857.785	37.27
858.077	33.58
858.369	54.73
858.661	48.33
858.953	45.83
859.245	34.47
859.537	57.19
859.829	69.98
860.12	33.26
860.412	35.62
860.703	50.1
860.995	26.18
861.286	29.29
861.578	49.27
861.869	52.43
862.16	69.33
862.452	48.88
862.743	48.45
863.034	61.96
863.325	43.48
863.616	39.7
863.907	39.29
864.198	43.78
864.488	34.02
864.779	68.97
865.07	65.58
865.36	34.58
865.651	68.2
865.941	35.18
866.232	34.33
866.522	40.99
866.813	17.52
867.103	56.32
867.393	58.46
867.683	44.14
867.973	54.37
868.263	13.37
868.553	44.38
868.843	57.36
869.133	61.74
869.423	53.31
869.713	55.56
870.002	21.98
870.292	34.02
870.582	48.65
870.871	70.78
871.161	56.27
871.45	50.1
871.739	44.63
872.029	51.69
872.318	46.82
872.607	59.22
872.896	58.03
873.185	53.27
873.474	48.67
873.763	45.71
874.052	33.31
874.341	23.47
874.63	45.64
874.918	57.14
875.207	59.36
875.496	53.9
875.784	49.39
876.073	17.17
876.361	59.67
876.649	43.89
876.938	67.23
877.226	65.44
877.514	77.9
877.802	61.72
878.09	31.49
878.378	44.72
878.666	60.4
878.954	58.01
879.242	56.64
879.53	53.69
879.817	36.42
880.105	47.12
880.392	41.27
880.68	35.3
880.967	65.04
881.255	64.13
881.542	43.65
881.83	59.52
882.117	60.69
882.404	54.8
882.691	47.88
882.978	51.52
883.265	52.62
883.552	45.24
883.839	56.33
884.126	61.48
884.413	49.99
884.699	49.72
884.986	60.98
885.273	51.28
885.559	51.28
885.846	51.28
