Data from 0056_forehead_Reflection__3__106.txt Node

Date: Fri Dec 16 14:47:10 CST 2022
User: ToomeyLab
Spectrometer: FLMS14357
Trigger mode: 0
Integration Time (sec): 1.000000E-2
Scans to average: 100
Electric dark correction enabled: true
Nonlinearity correction enabled: false
Boxcar width: 0
XAxis mode: Wavelengths
Number of Pixels in Spectrum: 2048
>>>>>Begin Spectral Data<<<<<
189.047	45.78
189.435	45.78
189.823	45.78
190.211	82.63
190.599	-209.66
190.987	-232.3
191.375	-187.74
191.763	128.32
192.151	-518.1
192.538	-330.99
192.926	50.19
193.314	70.49
193.702	345.17
194.089	48.19
194.477	-691.7
194.864	43.6
195.252	-51.81
195.639	90.84
196.027	61.2
196.414	73.97
196.801	-51.79
197.189	112.16
197.576	1326.17
197.963	66.82
198.351	4.69
198.738	-26.61
199.125	46.96
199.512	24.69
199.899	32.41
200.286	-50.38
200.673	51.07
201.06	35.36
201.447	59.51
201.833	23.54
202.22	47.92
202.607	-60.68
202.994	-17.66
203.38	-17.22
203.767	15.39
204.154	-43.74
204.54	38.62
204.927	18.43
205.313	70.41
205.699	-9.15
206.086	2.51
206.472	2.29
206.858	19.28
207.245	44.55
207.631	16.32
208.017	26.58
208.403	35.6
208.789	26.81
209.175	39.6
209.561	22.08
209.947	19.99
210.333	30.08
210.719	15.18
211.105	13.09
211.491	29.61
211.876	-9.61
212.262	-22.45
212.648	-10.07
213.034	3.66
213.419	38.82
213.805	0.31
214.19	46.76
214.576	-17.76
214.961	8.87
215.346	-13.43
215.732	-2.98
216.117	-7.41
216.502	8.68
216.888	-22.24
217.273	36.26
217.658	-22.12
218.043	16.36
218.428	0.45
218.813	6.32
219.198	-8.36
219.583	2.69
219.968	17.33
220.353	25.31
220.738	-0.31
221.122	-3.14
221.507	-2.71
221.892	-8
222.276	12.83
222.661	14.19
223.046	6.33
223.43	1.77
223.815	11.89
224.199	12.86
224.583	7.13
224.968	9.83
225.352	5.96
225.736	10.71
226.121	-5.22
226.505	10.94
226.889	8.52
227.273	5.74
227.657	-0.34
228.041	8.72
228.425	1.52
228.809	3.17
229.193	1.65
229.577	3.05
229.961	2.25
230.344	3.26
230.728	2.12
231.112	2.05
231.495	2.87
231.879	0.97
232.263	1.56
232.646	2.78
233.03	0.51
233.413	1.43
233.797	5.2
234.18	-0.55
234.563	1.43
234.946	2.65
235.33	2.66
235.713	3.47
236.096	2.14
236.479	4.15
236.862	3.95
237.245	2.97
237.628	3.73
238.011	5.15
238.394	6.29
238.777	3.82
239.16	0.91
239.543	2.38
239.925	3.5
240.308	3.76
240.691	2.02
241.073	3.7
241.456	3.24
241.838	2.51
242.221	2.71
242.603	2.36
242.986	3.22
243.368	2.74
243.75	2.18
244.133	2.79
244.515	3.11
244.897	2.92
245.279	2.83
245.661	2.63
246.043	3.79
246.425	2.61
246.807	3.14
247.189	3.22
247.571	2.75
247.953	2.41
248.335	2.94
248.717	2.77
249.098	2.84
249.48	2.4
249.862	2.84
250.243	2.98
250.625	3.07
251.006	3.61
251.388	3.67
251.769	3.25
252.151	3.23
252.532	3
252.913	3.11
253.295	2.68
253.676	3.31
254.057	2.48
254.438	2.82
254.819	3.14
255.2	3.07
255.581	3.02
255.962	3.21
256.343	3.5
256.724	2.73
257.105	3.42
257.486	3.71
257.867	2.09
258.247	2.42
258.628	3.19
259.009	2.33
259.389	3.29
259.77	2.93
260.15	3.09
260.531	2.85
260.911	2.77
261.292	2.57
261.672	2.68
262.052	2.65
262.432	2.35
262.813	3.01
263.193	2.51
263.573	2.97
263.953	2.96
264.333	3.27
264.713	3.21
265.093	2.21
265.473	3.31
265.853	2.67
266.233	2.21
266.612	2.98
266.992	2.24
267.372	3.55
267.752	2.54
268.131	2.45
268.511	3.22
268.89	3.23
269.27	2.78
269.649	2.97
270.029	2.65
270.408	1.83
270.787	2.77
271.167	3.4
271.546	1.94
271.925	3.16
272.304	3.67
272.683	2.54
273.062	2.88
273.441	2.56
273.82	2.81
274.199	2.39
274.578	2.46
274.957	2.78
275.336	2.49
275.715	2.64
276.093	3.61
276.472	3.2
276.851	3.45
277.229	3.5
277.608	2.64
277.986	3.28
278.365	2.63
278.743	3.36
279.122	2.36
279.5	1.98
279.878	1.98
280.257	2.95
280.635	2.28
281.013	3.17
281.391	2.49
281.769	2.43
282.147	3.25
282.525	2.32
282.903	2.63
283.281	2.25
283.659	2.68
284.037	2.28
284.415	2.68
284.792	2.65
285.17	2.33
285.548	2.77
285.925	2.58
286.303	2.6
286.68	2.98
287.058	2.62
287.435	2.41
287.813	2.78
288.19	3.45
288.567	2.57
288.945	2.61
289.322	2.42
289.699	2.71
290.076	3.2
290.453	2.94
290.83	3.25
291.207	2.95
291.584	2.75
291.961	3.12
292.338	3.27
292.715	3.07
293.092	2.98
293.469	3.24
293.845	3.57
294.222	2.92
294.599	3.47
294.975	3.45
295.352	2.98
295.728	3.05
296.105	3.44
296.481	3.63
296.858	3.41
297.234	3.79
297.61	3.17
297.986	3.28
298.363	3.05
298.739	3.68
299.115	2.97
299.491	3.63
299.867	3.65
300.243	3.35
300.619	3.17
300.995	3.75
301.371	4.05
301.746	3.56
302.122	3.77
302.498	4.05
302.874	3.94
303.249	3.8
303.625	3.92
304	3.48
304.376	3.83
304.751	3.79
305.127	4.07
305.502	4.79
305.878	3.83
306.253	3.88
306.628	4.54
307.003	4.18
307.378	3.83
307.754	4.32
308.129	4.33
308.504	4.37
308.879	4.26
309.254	4.43
309.629	3.95
310.003	4.48
310.378	4.72
310.753	4.93
311.128	4.28
311.502	4.4
311.877	4.61
312.252	4.46
312.626	3.95
313.001	4.52
313.375	4.59
313.75	4.6
314.124	5.49
314.498	4.27
314.873	4.72
315.247	4.65
315.621	5.31
315.995	5.11
316.369	4.65
316.743	5.39
317.117	4.92
317.491	4.96
317.865	5.2
318.239	5.53
318.613	5.22
318.987	5.34
319.361	5.56
319.734	5.56
320.108	5.64
320.482	5.34
320.855	5.21
321.229	5.97
321.602	5.53
321.976	5.62
322.349	4.92
322.723	4.77
323.096	5.18
323.469	5.15
323.843	5.08
324.216	5.51
324.589	6.05
324.962	5.52
325.335	5.84
325.708	5.89
326.081	5.94
326.454	6.01
326.827	6.29
327.2	6.03
327.573	6.02
327.945	5.62
328.318	5.7
328.691	5.78
329.063	5.76
329.436	6
329.809	5.26
330.181	6.15
330.553	6.3
330.926	5.98
331.298	5.32
331.671	6.09
332.043	5.66
332.415	6.7
332.787	6.82
333.159	6.48
333.532	6.19
333.904	6.42
334.276	6.45
334.648	6.39
335.02	6.46
335.391	6.46
335.763	6.8
336.135	6.37
336.507	6.62
336.879	6.7
337.25	6.62
337.622	6.37
337.993	6.77
338.365	6.52
338.736	7.05
339.108	6.61
339.479	6.5
339.851	7.16
340.222	7.29
340.593	6.4
340.964	6.85
341.336	6.57
341.707	6.7
342.078	6.65
342.449	7.2
342.82	7.18
343.191	6.77
343.562	7.22
343.933	6.86
344.303	7.17
344.674	7.28
345.045	7.57
345.416	7.12
345.786	6.81
346.157	7.39
346.527	7.31
346.898	7
347.268	7.2
347.639	7.1
348.009	7.67
348.38	7.22
348.75	7.49
349.12	7.51
349.49	7.32
349.861	8.1
350.231	7.88
350.601	7.86
350.971	7.59
351.341	7.77
351.711	7.22
352.081	7.79
352.45	7.75
352.82	7.71
353.19	7.65
353.56	7.74
353.929	7.57
354.299	7.81
354.669	8.04
355.038	7.67
355.408	8.17
355.777	7.87
356.147	8.14
356.516	8.3
356.885	7.98
357.254	7.89
357.624	8.16
357.993	7.93
358.362	8.18
358.731	8.4
359.1	8.58
359.469	8.06
359.838	7.94
360.207	8.18
360.576	8.53
360.945	8.57
361.314	8.39
361.682	8.12
362.051	8.56
362.42	8.48
362.788	8.7
363.157	8.16
363.525	8.57
363.894	8.23
364.262	8.71
364.631	9.37
364.999	8.42
365.367	9
365.735	8.45
366.104	8.79
366.472	9.06
366.84	8.99
367.208	8.75
367.576	8.94
367.944	9.32
368.312	8.33
368.68	9.2
369.048	9.13
369.416	9.19
369.783	9.06
370.151	9.22
370.519	9.26
370.886	9.29
371.254	9.56
371.621	9.33
371.989	9.32
372.356	9.32
372.724	9.57
373.091	9.31
373.458	9.69
373.826	9.22
374.193	9.9
374.56	9.25
374.927	9.66
375.294	9.87
375.661	9.9
376.028	9.61
376.395	9.7
376.762	10.1
377.129	9.86
377.496	9.84
377.863	10.01
378.229	9.66
378.596	9.78
378.963	10.04
379.329	9.69
379.696	9.87
380.062	10.21
380.429	10.19
380.795	9.95
381.161	10.19
381.528	9.88
381.894	10.33
382.26	9.84
382.626	10.12
382.993	10.13
383.359	10.19
383.725	10.44
384.091	10.46
384.457	10.54
384.823	10.36
385.188	10.45
385.554	10.57
385.92	10.64
386.286	10.47
386.651	10.51
387.017	10.8
387.383	10.87
387.748	10.47
388.114	10.53
388.479	10.86
388.845	10.71
389.21	11.01
389.575	10.76
389.94	10.82
390.306	11
390.671	10.91
391.036	11.08
391.401	11.23
391.766	10.95
392.131	11.05
392.496	11.01
392.861	10.87
393.226	11.25
393.591	11.17
393.956	11.18
394.32	10.95
394.685	11.48
395.05	11.14
395.414	11.41
395.779	11.18
396.143	11.16
396.508	11.21
396.872	11.33
397.236	11.05
397.601	11.43
397.965	11.49
398.329	11.42
398.694	11.61
399.058	11.55
399.422	11.62
399.786	11.69
400.15	11.56
400.514	11.64
400.878	11.73
401.242	11.68
401.605	11.59
401.969	11.7
402.333	11.79
402.697	11.95
403.06	12.19
403.424	11.82
403.787	11.96
404.151	11.96
404.514	12.03
404.878	11.75
405.241	11.86
405.604	12.04
405.968	11.9
406.331	11.98
406.694	12.11
407.057	12.34
407.42	12.16
407.783	12.05
408.146	12.17
408.509	11.97
408.872	12.2
409.235	12.5
409.598	12.37
409.961	12.47
410.323	12.58
410.686	12.32
411.049	12.2
411.411	12.46
411.774	12.43
412.136	12.63
412.499	12.58
412.861	12.37
413.223	12.8
413.586	12.56
413.948	12.79
414.31	12.71
414.672	12.92
415.035	12.65
415.397	13.03
415.759	12.79
416.121	12.89
416.483	12.66
416.845	12.8
417.206	13.01
417.568	12.95
417.93	12.99
418.292	12.83
418.653	13.18
419.015	12.9
419.377	12.94
419.738	12.88
420.1	12.89
420.461	12.81
420.822	12.86
421.184	12.96
421.545	12.92
421.906	12.98
422.267	12.86
422.629	12.96
422.99	12.93
423.351	13.03
423.712	13.09
424.073	13.16
424.434	13.21
424.795	13.01
425.155	13.16
425.516	13.19
425.877	13.2
426.238	13.17
426.598	13.3
426.959	13.33
427.32	13.56
427.68	13.63
428.041	13.68
428.401	13.71
428.761	13.73
429.122	13.81
429.482	13.72
429.842	14.01
430.202	13.78
430.563	14.11
430.923	14.25
431.283	14.13
431.643	14.15
432.003	14.02
432.363	14.15
432.722	14.13
433.082	14.2
433.442	14.19
433.802	14.22
434.161	14.22
434.521	14.31
434.881	14.25
435.24	14.14
435.6	14.38
435.959	14.44
436.319	14.44
436.678	14.47
437.037	14.39
437.396	14.63
437.756	14.58
438.115	14.71
438.474	14.71
438.833	14.73
439.192	14.74
439.551	14.78
439.91	14.89
440.269	14.65
440.628	14.79
440.987	14.56
441.345	14.65
441.704	14.86
442.063	14.72
442.421	14.8
442.78	14.81
443.138	14.88
443.497	14.71
443.855	15.07
444.214	15.09
444.572	15.11
444.93	15.19
445.288	15.19
445.647	15.3
446.005	15.08
446.363	15.16
446.721	15.13
447.079	15.13
447.437	15.07
447.795	15.13
448.153	15.14
448.51	15.19
448.868	15.3
449.226	15.37
449.584	15.42
449.941	15.53
450.299	15.6
450.656	15.52
451.014	15.47
451.371	15.85
451.729	15.92
452.086	15.81
452.443	15.97
452.801	15.88
453.158	15.87
453.515	15.99
453.872	15.88
454.229	15.94
454.586	16.08
454.943	16.05
455.3	16.27
455.657	16.18
456.014	16.27
456.371	16.45
456.727	16.18
457.084	16.23
457.441	16.24
457.797	16.4
458.154	16.41
458.51	16.53
458.867	16.5
459.223	16.42
459.58	16.58
459.936	16.33
460.292	16.48
460.648	16.22
461.005	16.33
461.361	16.21
461.717	16.36
462.073	16.64
462.429	16.66
462.785	16.8
463.141	16.87
463.496	16.96
463.852	17.17
464.208	17
464.564	16.89
464.919	17.07
465.275	17.06
465.631	17.27
465.986	17.04
466.342	17.14
466.697	17.33
467.052	17.27
467.408	17.22
467.763	17.15
468.118	17.51
468.473	17.38
468.829	17.53
469.184	17.55
469.539	17.37
469.894	17.66
470.249	17.65
470.603	17.78
470.958	17.74
471.313	17.78
471.668	17.71
472.023	17.9
472.377	17.92
472.732	17.86
473.086	17.95
473.441	17.95
473.795	18.02
474.15	17.85
474.504	18.15
474.859	18.09
475.213	18.01
475.567	17.99
475.921	18.09
476.275	18.12
476.63	18.25
476.984	18.22
477.338	18.49
477.692	18.32
478.045	18.23
478.399	18.19
478.753	18.18
479.107	18.51
479.461	18.46
479.814	18.44
480.168	18.46
480.521	18.69
480.875	18.64
481.228	18.5
481.582	18.51
481.935	18.58
482.289	18.44
482.642	18.67
482.995	18.48
483.348	18.4
483.701	18.36
484.055	18.35
484.408	18.16
484.761	17.75
485.114	17.73
485.466	17.76
485.819	17.9
486.172	18.04
486.525	18.23
486.878	18.3
487.23	18.54
487.583	18.64
487.936	18.64
488.288	18.35
488.641	18.36
488.993	18.18
489.345	18.27
489.698	18.44
490.05	18.51
490.402	18.77
490.754	19
491.107	19.12
491.459	19.14
491.811	19.25
492.163	19.19
492.515	19.03
492.866	18.7
493.218	18.67
493.57	18.9
493.922	18.98
494.274	19.28
494.625	19.43
494.977	19.62
495.328	19.87
495.68	19.99
496.031	20
496.383	20.05
496.734	20.07
497.086	20.03
497.437	19.94
497.788	20.09
498.139	19.98
498.49	19.91
498.842	20.01
499.193	20.03
499.544	20.24
499.894	20.08
500.245	20.17
500.596	20.27
500.947	20.31
501.298	20.36
501.648	20.43
501.999	20.7
502.35	20.53
502.7	20.67
503.051	20.66
503.401	20.68
503.752	20.73
504.102	20.84
504.452	20.83
504.803	20.75
505.153	20.97
505.503	20.76
505.853	20.77
506.203	20.87
506.553	21.14
506.903	20.99
507.253	21.02
507.603	21.11
507.953	21.17
508.303	21.11
508.652	21.2
509.002	21.19
509.352	21.09
509.701	21.08
510.051	21.35
510.4	21.13
510.75	21.28
511.099	21.12
511.449	21.27
511.798	21.46
512.147	21.37
512.496	21.47
512.846	21.37
513.195	21.54
513.544	21.34
513.893	21.42
514.242	21.67
514.591	21.69
514.939	21.62
515.288	21.75
515.637	21.99
515.986	21.85
516.334	21.88
516.683	21.88
517.032	21.94
517.38	22.05
517.729	22.19
518.077	22.06
518.426	21.95
518.774	22.03
519.122	21.93
519.47	21.78
519.819	21.76
520.167	21.86
520.515	21.8
520.863	21.86
521.211	22.08
521.559	22.03
521.907	22.18
522.255	22.46
522.602	22.46
522.95	22.55
523.298	22.46
523.645	22.57
523.993	22.77
524.341	22.88
524.688	22.74
525.036	22.96
525.383	22.7
525.73	22.81
526.078	22.75
526.425	22.58
526.772	22.41
527.119	22.37
527.466	22.43
527.814	22.49
528.161	22.63
528.508	22.63
528.854	22.55
529.201	22.47
529.548	22.18
529.895	22.04
530.242	22.13
530.588	22.22
530.935	22.38
531.282	22.5
531.628	22.53
531.975	22.92
532.321	22.91
532.667	22.96
533.014	23.13
533.36	23.23
533.706	23.11
534.052	23.09
534.399	22.87
534.745	22.75
535.091	22.81
535.437	23.01
535.783	23.23
536.129	23.35
536.474	23.42
536.82	23.67
537.166	23.59
537.512	23.6
537.857	23.52
538.203	23.47
538.549	23.62
538.894	23.68
539.239	23.81
539.585	23.95
539.93	24.08
540.276	24.07
540.621	24.27
540.966	24.26
541.311	24.31
541.656	24.07
542.001	24.09
542.346	23.64
542.691	23.46
543.036	23.47
543.381	23.73
543.726	23.87
544.071	23.87
544.415	23.95
544.76	24.03
545.105	24.22
545.449	24.29
545.794	24.49
546.138	24.63
546.483	24.69
546.827	24.73
547.171	24.62
547.516	24.8
547.86	24.77
548.204	24.63
548.548	24.79
548.892	24.71
549.236	25
549.58	25.04
549.924	25.29
550.268	25.17
550.612	25.36
550.956	25.37
551.3	25.54
551.643	25.71
551.987	25.67
552.33	25.59
552.674	25.67
553.017	25.86
553.361	25.56
553.704	25.62
554.048	25.63
554.391	25.73
554.734	25.54
555.077	25.84
555.42	25.85
555.764	26
556.107	26.09
556.45	25.91
556.793	26.18
557.135	26.24
557.478	26.13
557.821	26.18
558.164	26.38
558.507	26.2
558.849	26.37
559.192	26.51
559.534	26.21
559.877	26.44
560.219	26.75
560.562	26.58
560.904	26.52
561.246	26.72
561.589	26.69
561.931	26.81
562.273	26.72
562.615	26.69
562.957	26.81
563.299	26.62
563.641	26.83
563.983	26.66
564.325	26.67
564.667	26.9
565.008	26.96
565.35	27.25
565.692	27.28
566.033	27.06
566.375	27.09
566.716	27.22
567.058	26.94
567.399	27.11
567.741	27.07
568.082	26.95
568.423	27.03
568.764	27.14
569.105	27.24
569.447	27.16
569.788	27.21
570.129	27.44
570.47	27.68
570.811	27.65
571.151	27.54
571.492	27.4
571.833	27.69
572.174	27.46
572.514	27.6
572.855	27.58
573.195	27.57
573.536	27.38
573.876	27.57
574.217	27.67
574.557	27.63
574.898	27.67
575.238	27.65
575.578	27.94
575.918	27.91
576.258	27.68
576.598	27.76
576.938	28.1
577.278	27.99
577.618	27.83
577.958	28.13
578.298	28.01
578.638	28.09
578.977	28.41
579.317	28.35
579.657	28.73
579.996	28.55
580.336	28.54
580.675	28.82
581.014	28.58
581.354	28.71
581.693	28.47
582.032	28.86
582.372	28.85
582.711	28.79
583.05	28.74
583.389	28.97
583.728	29
584.067	29
584.406	29.3
584.745	29.25
585.083	29.16
585.422	28.86
585.761	29.44
586.1	29.2
586.438	29.17
586.777	29.16
587.115	29.48
587.454	29.54
587.792	29.29
588.13	29.55
588.469	29.66
588.807	29.82
589.145	29.68
589.483	29.52
589.821	29.66
590.159	29.54
590.497	29.08
590.835	29.85
591.173	29.64
591.511	29.82
591.849	29.75
592.187	29.94
592.524	29.57
592.862	29.8
593.2	29.86
593.537	29.76
593.875	30.01
594.212	30.1
594.55	30.19
594.887	29.74
595.224	29.81
595.561	30.39
595.899	30.12
596.236	30.32
596.573	29.81
596.91	30.12
597.247	30.11
597.584	30.26
597.921	30.07
598.258	29.85
598.594	29.84
598.931	30.04
599.268	30.13
599.604	30.24
599.941	30.19
600.277	30.47
600.614	30.58
600.95	30.6
601.287	30.61
601.623	30.79
601.959	30.67
602.296	30.69
602.632	30.92
602.968	30.52
603.304	30.61
603.64	30.71
603.976	30.91
604.312	31.08
604.648	30.68
604.984	30.54
605.319	30.64
605.655	30.88
605.991	30.71
606.326	30.75
606.662	30.58
606.998	30.8
607.333	30.98
607.668	30.97
608.004	31.07
608.339	30.98
608.674	31.35
609.01	31.42
609.345	31.69
609.68	31.11
610.015	31.41
610.35	31.57
610.685	31.18
611.02	31.41
611.355	31.23
611.689	31.1
612.024	31.29
612.359	31.28
612.694	31.74
613.028	31.62
613.363	31.4
613.697	31.86
614.032	31.74
614.366	31.38
614.7	31.92
615.035	31.85
615.369	31.94
615.703	32.4
616.037	31.91
616.371	31.96
616.705	31.76
617.039	32.04
617.373	32.06
617.707	32.34
618.041	32.33
618.375	31.83
618.709	32.26
619.042	32.3
619.376	31.97
619.71	32.42
620.043	32.48
620.377	32.41
620.71	32.23
621.043	32.13
621.377	32.14
621.71	32.47
622.043	32.69
622.376	32.83
622.709	32.98
623.043	32.6
623.376	32.53
623.709	32.87
624.041	33.04
624.374	32.67
624.707	32.75
625.04	32.54
625.373	32.92
625.705	32.92
626.038	32.79
626.37	32.74
626.703	32.81
627.035	32.88
627.368	33.11
627.7	32.87
628.032	32.38
628.365	32.64
628.697	32.84
629.029	33.14
629.361	33.03
629.693	33.3
630.025	32.67
630.357	33.09
630.689	33.78
631.021	33.22
631.353	33.2
631.684	33.37
632.016	32.95
632.348	33.62
632.679	33.15
633.011	33.6
633.342	33.19
633.674	33.36
634.005	33.72
634.336	33.37
634.668	33.49
634.999	33.5
635.33	33.29
635.661	33.73
635.992	33.35
636.323	33.38
636.654	33.45
636.985	33.88
637.316	34.23
637.647	33.93
637.977	34
638.308	33.43
638.639	33.86
638.969	34.29
639.3	34.43
639.63	33.89
639.961	34.09
640.291	34.56
640.622	34.01
640.952	34.41
641.282	33.61
641.612	33.83
641.943	34.24
642.273	34.33
642.603	34.16
642.933	34.12
643.263	34.28
643.592	34.41
643.922	35.32
644.252	34.65
644.582	34.28
644.911	34.17
645.241	34.29
645.571	34.42
645.9	34.45
646.23	34.66
646.559	34.89
646.888	34.35
647.218	34.52
647.547	34.45
647.876	34.79
648.205	34.28
648.534	34.62
648.863	34.75
649.192	34.45
649.521	34.38
649.85	34.78
650.179	34.45
650.508	35.26
650.837	34.64
651.165	34.76
651.494	34.98
651.822	35
652.151	35.08
652.479	35.62
652.808	34.88
653.136	35.12
653.465	35.07
653.793	35.22
654.121	35.11
654.449	35.13
654.777	35.28
655.105	35.29
655.433	35.17
655.761	34.91
656.089	35.61
656.417	35.5
656.745	35.51
657.073	35.39
657.4	35.56
657.728	35.47
658.056	34.96
658.383	35.72
658.711	35.23
659.038	35.57
659.365	35.49
659.693	35.8
660.02	35.66
660.347	35.55
660.674	35.66
661.001	35.27
661.329	35.58
661.656	35.34
661.982	35.59
662.309	35.72
662.636	35.95
662.963	35.89
663.29	35.89
663.616	35.25
663.943	36.83
664.27	35.67
664.596	35.48
664.923	36.33
665.249	36.2
665.576	36.27
665.902	35.69
666.228	35.88
666.554	36.32
666.881	36.41
667.207	36.17
667.533	36.2
667.859	36.76
668.185	36.18
668.511	36.27
668.837	35.87
669.162	36.21
669.488	36.53
669.814	36.67
670.139	36.85
670.465	35.73
670.791	36.57
671.116	36.17
671.442	36.32
671.767	36.58
672.092	36.74
672.418	36.42
672.743	36.59
673.068	36.33
673.393	36.44
673.718	36.24
674.043	36.78
674.368	36.97
674.693	36.59
675.018	36.5
675.343	36.66
675.667	36.54
675.992	36.47
676.317	37.45
676.641	36.95
676.966	37.01
677.29	36.99
677.615	36.67
677.939	36.94
678.264	36.84
678.588	37.47
678.912	36.99
679.236	36.76
679.56	36.99
679.885	36.67
680.209	37.2
680.532	37.19
680.856	37.01
681.18	36.54
681.504	36.79
681.828	36.75
682.152	36.83
682.475	37.04
682.799	37.46
683.122	37.5
683.446	37.33
683.769	37.12
684.093	37.25
684.416	37.1
684.739	37
685.062	38.04
685.386	37.66
685.709	37.93
686.032	37.49
686.355	37.13
686.678	37.7
687.001	36.78
687.324	37.49
687.646	36.5
687.969	37.52
688.292	38.59
688.614	37.65
688.937	37.28
689.26	37.82
689.582	38.19
689.904	37.61
690.227	38.1
690.549	37.59
690.871	37.89
691.194	38.12
691.516	38.58
691.838	37.71
692.16	37.74
692.482	38.08
692.804	37.94
693.126	37.67
693.448	37.91
693.769	37.57
694.091	37.52
694.413	37.75
694.735	38.37
695.056	38.45
695.378	38.81
695.699	38.93
696.021	38.14
696.342	37.26
696.663	37.93
696.984	38.03
697.306	38.04
697.627	37.31
697.948	38.67
698.269	37.15
698.59	38.16
698.911	37.71
699.232	38.5
699.553	38.35
699.873	37.77
700.194	38.12
700.515	38.01
700.835	38.36
701.156	38.53
701.477	37.73
701.797	38.15
702.117	39.12
702.438	38.74
702.758	38.31
703.078	37.87
703.398	38.39
703.719	38.04
704.039	38.01
704.359	38.55
704.679	38.62
704.999	37.79
705.319	38.1
705.638	38.98
705.958	38.48
706.278	39.79
706.597	39.42
706.917	39.28
707.237	38.71
707.556	39.36
707.876	38.49
708.195	38.62
708.514	39.52
708.834	39.09
709.153	39.09
709.472	38.46
709.791	39.11
710.11	39.38
710.429	38.95
710.748	38.65
711.067	38.82
711.386	39.29
711.705	38.99
712.023	39.12
712.342	38.97
712.661	39.9
712.979	39.75
713.298	40.03
713.616	39.76
713.935	38.35
714.253	39.89
714.572	38.36
714.89	39.92
715.208	39.52
715.526	40.01
715.844	39.29
716.162	38.66
716.48	39.63
716.798	39.09
717.116	40.82
717.434	39.67
717.752	38.73
718.069	39.26
718.387	38.69
718.705	39.33
719.022	39.25
719.34	38.51
719.657	39.14
719.975	40.41
720.292	38.84
720.609	37.94
720.927	40.1
721.244	40.09
721.561	38.61
721.878	38.82
722.195	39.63
722.512	39.85
722.829	39.76
723.146	40.25
723.463	39.85
723.779	39.69
724.096	39.71
724.413	38.84
724.729	39.97
725.046	40.32
725.362	39.4
725.679	39.49
725.995	38.28
726.311	39.44
726.628	39.83
726.944	40.05
727.26	39.83
727.576	40.45
727.892	39.98
728.208	38.73
728.524	39.99
728.84	40.82
729.156	39.64
729.472	40.61
729.787	40.41
730.103	40.78
730.419	39.79
730.734	39.65
731.05	40.86
731.365	40.36
731.681	39.3
731.996	39.74
732.311	41.31
732.626	40.03
732.942	40.36
733.257	40.26
733.572	41.44
733.887	39.78
734.202	40.34
734.517	41.51
734.832	39.87
735.146	39.69
735.461	39.67
735.776	41.49
736.091	40.73
736.405	40.71
736.72	41.7
737.034	40.37
737.349	39.67
737.663	41.51
737.977	40.43
738.292	40.93
738.606	41.09
738.92	40.92
739.234	41.07
739.548	40.8
739.862	41.71
740.176	39.08
740.49	41.95
740.804	40.34
741.117	39.87
741.431	39.93
741.745	40.53
742.058	39.97
742.372	41.3
742.685	41.43
742.999	41.28
743.312	39.58
743.626	41.77
743.939	39.92
744.252	40.96
744.565	42.35
744.878	40.35
745.191	40.71
745.505	40.46
745.817	41.94
746.13	40.6
746.443	41.68
746.756	41.46
747.069	41.52
747.381	40.99
747.694	38.25
748.007	41.69
748.319	42.07
748.632	39.72
748.944	41.57
749.256	41.71
749.569	41.85
749.881	41.71
750.193	41.62
750.505	41.37
750.817	40.36
751.129	42.01
751.441	39.07
751.753	40.23
752.065	40.13
752.377	41.96
752.689	41.22
753	40.98
753.312	40.45
753.624	42.27
753.935	38.9
754.247	42.37
754.558	43.01
754.869	43.21
755.181	42.75
755.492	42.62
755.803	41.94
756.114	40.89
756.425	40.18
756.736	40.83
757.047	43.14
757.358	40.52
757.669	44.01
757.98	42.14
758.291	41.46
758.601	40.19
758.912	41.99
759.223	43.69
759.533	43
759.844	42.37
760.154	44.46
760.464	42.28
760.775	43.07
761.085	41.34
761.395	43.36
761.705	44.19
762.016	42.41
762.326	41.32
762.636	42.51
762.945	41.84
763.255	42.51
763.565	41.86
763.875	39.85
764.185	41.41
764.494	42.06
764.804	42.34
765.113	41.81
765.423	41.91
765.732	43.15
766.042	42.52
766.351	43.3
766.66	44.27
766.97	43.01
767.279	42.43
767.588	44.4
767.897	45.2
768.206	42.28
768.515	42.82
768.824	43.84
769.133	41.99
769.441	44.34
769.75	41.24
770.059	42.75
770.367	42.19
770.676	42.05
770.984	41.53
771.293	41.61
771.601	39.49
771.91	44.61
772.218	42.2
772.526	42.76
772.834	44.1
773.142	44.7
773.45	42.8
773.758	43.09
774.066	41.32
774.374	43.09
774.682	42.59
774.99	41.54
775.298	41.43
775.605	43.59
775.913	43.96
776.22	42.83
776.528	42
776.835	41.13
777.143	43.11
777.45	39.72
777.757	41.09
778.065	39.58
778.372	42.99
778.679	46.07
778.986	43.79
779.293	41.2
779.6	39.98
779.907	39.78
780.214	41.98
780.52	43.13
780.827	43.29
781.134	43.44
781.44	43.35
781.747	42.3
782.053	44.84
782.36	43.47
782.666	43.29
782.973	41.29
783.279	42.34
783.585	43.31
783.891	42.47
784.197	45.59
784.503	44.26
784.809	45.18
785.115	41.51
785.421	46.79
785.727	43.16
786.033	42.64
786.339	43.39
786.644	40.94
786.95	47.37
787.255	42.85
787.561	42.81
787.866	41.03
788.172	43.49
788.477	40.76
788.782	44.73
789.088	44.88
789.393	42.26
789.698	41.7
790.003	44.93
790.308	41.3
790.613	45.19
790.918	42.93
791.223	43.19
791.527	42.76
791.832	44.31
792.137	43.15
792.441	42.88
792.746	45.72
793.05	43.46
793.355	47.64
793.659	42.12
793.963	42.87
794.268	44.13
794.572	46.87
794.876	45.68
795.18	42.33
795.484	41.12
795.788	41.16
796.092	44.1
796.396	45.87
796.7	43.58
797.004	45.37
797.307	45.95
797.611	44.26
797.915	45.27
798.218	45.32
798.522	42.89
798.825	44.3
799.128	44.14
799.432	42.92
799.735	41.07
800.038	42.93
800.341	42.12
800.644	41.17
800.947	45.12
801.25	43
801.553	43.91
801.856	45.88
802.159	44.16
802.462	39.86
802.764	44.94
803.067	41.01
803.37	45.66
803.672	45.58
803.975	49.63
804.277	43.33
804.579	41.67
804.882	40.99
805.184	44.63
805.486	44.42
805.788	44.97
806.09	47.26
806.392	42.85
806.694	43.84
806.996	44.99
807.298	46.13
807.6	40.79
807.902	45.99
808.203	43.72
808.505	44.98
808.807	50.14
809.108	43.04
809.409	46.84
809.711	44.23
810.012	41.53
810.313	49.98
810.615	43.61
810.916	42.44
811.217	44.19
811.518	47.49
811.819	45.37
812.12	46.59
812.421	41.17
812.722	39.86
813.023	45.29
813.323	45.85
813.624	48.54
813.925	46.73
814.225	47.3
814.526	42.87
814.826	44.48
815.126	41.01
815.427	45.18
815.727	44.66
816.027	45.66
816.327	42.64
816.627	46.51
816.927	42.24
817.227	46.19
817.527	44.64
817.827	43.48
818.127	49.6
818.427	45.82
818.727	52.32
819.026	47.92
819.326	45.2
819.625	49.51
819.925	48.2
820.224	45.38
820.524	45.54
820.823	46.62
821.122	44.76
821.421	40.35
821.72	44.38
822.019	41.91
822.318	46.43
822.617	45.31
822.916	45.57
823.215	47.8
823.514	42.76
823.813	44.92
824.111	45.16
824.41	45.23
824.709	45.71
825.007	44.54
825.306	46.25
825.604	45.78
825.902	45.96
826.201	46.25
826.499	45.9
826.797	45.09
827.095	44.66
827.393	44.99
827.691	46.11
827.989	46.04
828.287	45.76
828.585	45.19
828.882	45.73
829.18	45.21
829.478	46.23
829.775	47.02
830.073	46.23
830.37	44.84
830.668	44.21
830.965	45.41
831.263	47.06
831.56	45.9
831.857	47.27
832.154	48.93
832.451	50.83
832.748	49.54
833.045	48.37
833.342	42.94
833.639	43.98
833.936	44.71
834.232	45.15
834.529	48
834.826	43.32
835.122	46.47
835.419	46.13
835.715	43.7
836.012	45.88
836.308	46.07
836.604	45
836.901	49.5
837.197	46.14
837.493	45.54
837.789	48.79
838.085	45.8
838.381	46.33
838.677	42.77
838.972	44.31
839.268	43.12
839.564	46.92
839.86	44.6
840.155	43.01
840.451	49.24
840.746	45.37
841.042	49.03
841.337	51.71
841.632	43.33
841.928	55.69
842.223	34.63
842.518	47.34
842.813	44.47
843.108	48.78
843.403	54.33
843.698	43
843.993	45.01
844.287	46.17
844.582	50.26
844.877	56.66
845.171	44.35
845.466	46.87
845.761	48.54
846.055	45.48
846.349	46.61
846.644	40.07
846.938	45.61
847.232	42.36
847.526	57.21
847.82	29.35
848.114	41
848.408	43.8
848.702	55.88
848.996	47.47
849.29	36.85
849.584	52.45
849.877	53.5
850.171	46.53
850.465	42.94
850.758	43.36
851.052	45.77
851.345	44.38
851.638	52.59
851.932	43.86
852.225	42.75
852.518	47.47
852.811	50.04
853.104	33.67
853.397	62.56
853.69	35.35
853.983	34.22
854.276	49.8
854.569	24.72
854.861	44.71
855.154	59.32
855.447	48.1
855.739	51.94
856.032	75.71
856.324	37.89
856.616	59.13
856.909	42.26
857.201	27.02
857.493	44.95
857.785	44.15
858.077	44.87
858.369	38.89
858.661	52.01
858.953	35.97
859.245	53.43
859.537	60.1
859.829	58.12
860.12	40.61
860.412	32.6
860.703	49.43
860.995	42.71
861.286	61.82
861.578	53.56
861.869	44.32
862.16	49.47
862.452	55.12
862.743	34.7
863.034	30.54
863.325	40.46
863.616	59.17
863.907	51.71
864.198	39.34
864.488	69.51
864.779	35.81
865.07	58.11
865.36	38.07
865.651	38.47
865.941	58.5
866.232	25.01
866.522	38.73
866.813	58.97
867.103	73.35
867.393	52.39
867.683	37.91
867.973	20.61
868.263	40.39
868.553	26.82
868.843	14.2
869.133	37.92
869.423	46.42
869.713	38.99
870.002	13.76
870.292	32.85
870.582	43.51
870.871	52.38
871.161	63.97
871.45	53.53
871.739	21.84
872.029	27.66
872.318	33.93
872.607	82.11
872.896	53.35
873.185	64.53
873.474	34.92
873.763	32.5
874.052	44.36
874.341	20.7
874.63	40.95
874.918	52.92
875.207	68.89
875.496	41.64
875.784	36.2
876.073	61.15
876.361	35.6
876.649	70.89
876.938	33.49
877.226	32.29
877.514	22.4
877.802	37.31
878.09	30.63
878.378	57.29
878.666	38.83
878.954	57.03
879.242	38.96
879.53	59.94
879.817	35.89
880.105	35.54
880.392	43.99
880.68	54.65
880.967	59.37
881.255	45.05
881.542	64.3
881.83	51.09
882.117	55.92
882.404	30.11
882.691	38.42
882.978	54.12
883.265	54.96
883.552	44.15
883.839	55.37
884.126	52.66
884.413	44.99
884.699	53.95
884.986	47.17
885.273	42.89
885.559	42.89
885.846	42.89
