Data from 0027_crown_Reflection__0__96.txt Node

Date: Thu Oct 20 21:43:01 CDT 2022
User: ToomeyLab
Spectrometer: FLMS14357
Trigger mode: 0
Integration Time (sec): 1.000000E-2
Scans to average: 100
Electric dark correction enabled: true
Nonlinearity correction enabled: false
Boxcar width: 0
XAxis mode: Wavelengths
Number of Pixels in Spectrum: 2048
>>>>>Begin Spectral Data<<<<<
189.047	95.6
189.435	95.6
189.823	95.6
190.211	-29.35
190.599	8.67
190.987	-1210.59
191.375	79.71
191.763	-179.42
192.151	152.19
192.538	56.58
192.926	190.85
193.314	-7.54
193.702	33.92
194.089	96.17
194.477	153.02
194.864	-63.61
195.252	-49
195.639	82.02
196.027	6.64
196.414	109.92
196.801	338.3
197.189	91.94
197.576	278.98
197.963	-338.95
198.351	9.76
198.738	-36.44
199.125	25.97
199.512	13.5
199.899	-15.82
200.286	20.76
200.673	9.38
201.06	32.91
201.447	2.02
201.833	-11.22
202.22	-23.82
202.607	22.26
202.994	-19.66
203.38	-35.88
203.767	8.7
204.154	9.03
204.54	-9
204.927	-7.35
205.313	7.77
205.699	-10.06
206.086	-25.88
206.472	-0.66
206.858	-28
207.245	-3.95
207.631	-1.45
208.017	-19.15
208.403	-67.55
208.789	14.03
209.175	36.89
209.561	25.45
209.947	-0.54
210.333	6.36
210.719	14.69
211.105	18.19
211.491	-151.33
211.876	-43.42
212.262	9.06
212.648	-9.29
213.034	10.16
213.419	-10.68
213.805	-4.57
214.19	-6.34
214.576	-19.07
214.961	-25.59
215.346	-16.46
215.732	-0.08
216.117	-33.13
216.502	1.79
216.888	-25.73
217.273	8.17
217.658	16.87
218.043	15.95
218.428	-14.37
218.813	32
219.198	-8.63
219.583	11.8
219.968	16.75
220.353	6.22
220.738	0.71
221.122	-4.27
221.507	6.06
221.892	7.17
222.276	11.75
222.661	4.02
223.046	6.85
223.43	-7.33
223.815	5.96
224.199	-5.7
224.583	4.21
224.968	2.54
225.352	6.04
225.736	6.12
226.121	-4.91
226.505	2.09
226.889	3.28
227.273	-1.05
227.657	-0.72
228.041	3.08
228.425	3.52
228.809	3.86
229.193	3.95
229.577	0.85
229.961	2.1
230.344	1.69
230.728	2.26
231.112	2.47
231.495	2.96
231.879	2.42
232.263	1.35
232.646	1.89
233.03	2.2
233.413	0.9
233.797	0.96
234.18	-0.05
234.563	0.91
234.946	2.54
235.33	1.37
235.713	1.6
236.096	0.5
236.479	2.78
236.862	2.12
237.245	1.54
237.628	1.73
238.011	4.24
238.394	2.13
238.777	2.8
239.16	1.14
239.543	-0.39
239.925	1.92
240.308	2.06
240.691	2.89
241.073	0.91
241.456	1.63
241.838	1.56
242.221	1.56
242.603	2.1
242.986	1.65
243.368	1.72
243.75	1.68
244.133	2.39
244.515	1.82
244.897	1.73
245.279	1.17
245.661	2.13
246.043	2.17
246.425	1.73
246.807	2.14
247.189	2.08
247.571	1.72
247.953	1.74
248.335	1.88
248.717	1.84
249.098	1.82
249.48	1.64
249.862	1.84
250.243	1.61
250.625	1.78
251.006	2.09
251.388	1.7
251.769	2.09
252.151	1.86
252.532	1.1
252.913	1.67
253.295	1.4
253.676	1.46
254.057	1.3
254.438	1.76
254.819	1.86
255.2	2.62
255.581	1.07
255.962	1.87
256.343	0.45
256.724	1.23
257.105	1.38
257.486	2.38
257.867	2.42
258.247	1.52
258.628	1.74
259.009	1.44
259.389	1.8
259.77	1.71
260.15	2.03
260.531	1.64
260.911	1.47
261.292	1.65
261.672	1.71
262.052	1.74
262.432	1.98
262.813	1.52
263.193	2.21
263.573	1.17
263.953	1.07
264.333	1.1
264.713	1.93
265.093	2.28
265.473	1.41
265.853	1.49
266.233	2.22
266.612	1.39
266.992	1.31
267.372	2.04
267.752	1.68
268.131	1.76
268.511	1.58
268.89	1.54
269.27	1.7
269.649	0.62
270.029	1.29
270.408	1.16
270.787	1.1
271.167	1.26
271.546	1.28
271.925	1.82
272.304	1.6
272.683	1.52
273.062	1.25
273.441	1.38
273.82	1.64
274.199	1.29
274.578	1.45
274.957	1.38
275.336	1.34
275.715	1.88
276.093	1.84
276.472	1.69
276.851	1.78
277.229	1.6
277.608	1.48
277.986	1.15
278.365	1.39
278.743	1.6
279.122	1.47
279.5	1.48
279.878	1.45
280.257	1.74
280.635	1.96
281.013	1.46
281.391	1.79
281.769	1.54
282.147	1.46
282.525	1.36
282.903	1.39
283.281	1.06
283.659	1
284.037	1.18
284.415	1.28
284.792	1.32
285.17	1.85
285.548	1.27
285.925	1.23
286.303	1.44
286.68	1.67
287.058	1.6
287.435	1.29
287.813	1.43
288.19	1.48
288.567	1.87
288.945	1.47
289.322	1.28
289.699	0.89
290.076	1.11
290.453	1.06
290.83	1.28
291.207	2
291.584	1.57
291.961	1.47
292.338	1.13
292.715	1.24
293.092	1.49
293.469	1.44
293.845	1.49
294.222	1.79
294.599	2.36
294.975	1.54
295.352	1.59
295.728	1.29
296.105	1.72
296.481	0.91
296.858	1.23
297.234	1.73
297.61	1.68
297.986	1.37
298.363	1.13
298.739	1.4
299.115	1.1
299.491	1.36
299.867	1.08
300.243	1.31
300.619	1.34
300.995	0.98
301.371	1.45
301.746	1.67
302.122	1.7
302.498	1.37
302.874	2.32
303.249	2.14
303.625	1.24
304	1.76
304.376	1.37
304.751	1.02
305.127	1.11
305.502	1.54
305.878	1.48
306.253	1.32
306.628	1.59
307.003	1.43
307.378	0.65
307.754	1.41
308.129	1.04
308.504	1.31
308.879	1.39
309.254	1.75
309.629	1.58
310.003	0.88
310.378	1.3
310.753	1.44
311.128	1.17
311.502	1.18
311.877	1.57
312.252	1.29
312.626	1.54
313.001	1.34
313.375	1.68
313.75	1.22
314.124	1.17
314.498	1.52
314.873	1.25
315.247	1.5
315.621	1.67
315.995	1.41
316.369	1.64
316.743	1.43
317.117	1.2
317.491	1.46
317.865	1.51
318.239	1.37
318.613	2.17
318.987	1.07
319.361	1.28
319.734	0.84
320.108	1.4
320.482	1.48
320.855	1.42
321.229	1.41
321.602	0.73
321.976	1.69
322.349	2.02
322.723	2.15
323.096	1.3
323.469	1.6
323.843	1.62
324.216	1.13
324.589	1.78
324.962	1.6
325.335	1.33
325.708	1.54
326.081	1.8
326.454	1.24
326.827	1.28
327.2	1.71
327.573	1.43
327.945	1.51
328.318	1.37
328.691	1.88
329.063	1.55
329.436	1.39
329.809	1.7
330.181	1.34
330.553	1.22
330.926	1.08
331.298	1.4
331.671	1.62
332.043	1.57
332.415	1.7
332.787	2.25
333.159	1.6
333.532	1.59
333.904	1.26
334.276	1.49
334.648	1.41
335.02	1.34
335.391	1.25
335.763	1.63
336.135	1.6
336.507	1.15
336.879	1.85
337.25	1.26
337.622	1.49
337.993	1.36
338.365	1.97
338.736	1.26
339.108	1.21
339.479	1.49
339.851	1.5
340.222	1.47
340.593	1.69
340.964	2.03
341.336	1.18
341.707	0.84
342.078	1.22
342.449	1.15
342.82	1.46
343.191	1.65
343.562	1.54
343.933	1.53
344.303	1.55
344.674	1.7
345.045	1.61
345.416	1.64
345.786	1.6
346.157	1.32
346.527	1.27
346.898	1.62
347.268	1.65
347.639	1.28
348.009	1.73
348.38	1.69
348.75	1.05
349.12	1.53
349.49	1.23
349.861	1.92
350.231	1.42
350.601	2.09
350.971	1.58
351.341	1.67
351.711	1.84
352.081	1.26
352.45	1.44
352.82	1.17
353.19	1.65
353.56	1.51
353.929	1.48
354.299	2
354.669	1.69
355.038	1.67
355.408	1.25
355.777	1.68
356.147	2.16
356.516	1.48
356.885	1.48
357.254	1.66
357.624	1.82
357.993	1.66
358.362	1.65
358.731	1.83
359.1	1.38
359.469	1.89
359.838	1.49
360.207	2.11
360.576	1.59
360.945	1.82
361.314	1.5
361.682	1.71
362.051	1.51
362.42	1.71
362.788	1.52
363.157	1.47
363.525	1.74
363.894	1.65
364.262	1.73
364.631	1.43
364.999	1.39
365.367	1.92
365.735	1.78
366.104	1.3
366.472	1.55
366.84	1.82
367.208	1.55
367.576	1.58
367.944	1.82
368.312	1.48
368.68	1.76
369.048	1.66
369.416	1.75
369.783	1.68
370.151	1.82
370.519	1.44
370.886	1.59
371.254	1.61
371.621	1.47
371.989	1.81
372.356	1.38
372.724	1.83
373.091	1.66
373.458	1.46
373.826	1.72
374.193	1.6
374.56	1.54
374.927	1.45
375.294	1.48
375.661	1.93
376.028	1.65
376.395	1.95
376.762	1.66
377.129	1.36
377.496	1.33
377.863	1.69
378.229	1.44
378.596	1.43
378.963	1.63
379.329	1.89
379.696	1.68
380.062	1.47
380.429	1.82
380.795	1.63
381.161	2
381.528	1.75
381.894	1.52
382.26	1.35
382.626	1.56
382.993	1.46
383.359	1.71
383.725	1.82
384.091	1.81
384.457	1.37
384.823	1.63
385.188	1.83
385.554	1.42
385.92	1.6
386.286	1.34
386.651	1.35
387.017	1.61
387.383	1.73
387.748	2.14
388.114	1.93
388.479	1.6
388.845	1.83
389.21	1.72
389.575	1.39
389.94	1.96
390.306	1.81
390.671	1.65
391.036	1.76
391.401	1.41
391.766	2.02
392.131	1.94
392.496	1.63
392.861	1.52
393.226	1.69
393.591	1.94
393.956	1.98
394.32	1.83
394.685	1.76
395.05	1.6
395.414	1.63
395.779	1.76
396.143	1.69
396.508	1.73
396.872	1.82
397.236	1.53
397.601	2.01
397.965	1.94
398.329	1.75
398.694	1.62
399.058	1.47
399.422	1.87
399.786	1.72
400.15	1.65
400.514	1.93
400.878	1.67
401.242	1.94
401.605	1.97
401.969	1.84
402.333	1.82
402.697	2.02
403.06	1.66
403.424	1.75
403.787	1.92
404.151	1.75
404.514	1.59
404.878	1.76
405.241	1.67
405.604	1.93
405.968	1.67
406.331	1.67
406.694	1.66
407.057	1.92
407.42	1.74
407.783	1.65
408.146	1.87
408.509	1.72
408.872	1.9
409.235	1.69
409.598	1.82
409.961	1.77
410.323	2.03
410.686	1.8
411.049	1.66
411.411	1.58
411.774	1.7
412.136	1.9
412.499	1.96
412.861	1.77
413.223	1.71
413.586	1.66
413.948	1.63
414.31	1.73
414.672	1.82
415.035	1.86
415.397	1.68
415.759	1.89
416.121	1.89
416.483	1.62
416.845	1.76
417.206	1.6
417.568	1.78
417.93	1.64
418.292	2
418.653	1.78
419.015	1.78
419.377	1.76
419.738	1.78
420.1	1.8
420.461	1.72
420.822	1.75
421.184	1.65
421.545	1.73
421.906	1.62
422.267	1.69
422.629	1.72
422.99	1.74
423.351	1.73
423.712	1.72
424.073	1.85
424.434	1.74
424.795	1.73
425.155	1.75
425.516	1.72
425.877	1.73
426.238	1.87
426.598	1.89
426.959	1.72
427.32	1.81
427.68	1.78
428.041	1.83
428.401	1.88
428.761	1.71
429.122	1.8
429.482	1.82
429.842	1.83
430.202	1.82
430.563	1.65
430.923	1.92
431.283	1.63
431.643	1.75
432.003	1.92
432.363	1.99
432.722	2.07
433.082	1.71
433.442	1.72
433.802	1.78
434.161	1.82
434.521	1.7
434.881	1.74
435.24	1.62
435.6	1.77
435.959	1.82
436.319	1.83
436.678	1.69
437.037	1.93
437.396	1.84
437.756	1.87
438.115	1.98
438.474	1.69
438.833	1.79
439.192	1.78
439.551	1.68
439.91	1.8
440.269	1.77
440.628	1.8
440.987	1.78
441.345	1.84
441.704	1.73
442.063	1.91
442.421	1.59
442.78	1.79
443.138	1.85
443.497	1.93
443.855	1.81
444.214	1.87
444.572	1.89
444.93	1.55
445.288	1.61
445.647	1.8
446.005	1.72
446.363	1.73
446.721	1.75
447.079	1.75
447.437	1.74
447.795	1.72
448.153	1.78
448.51	1.74
448.868	1.79
449.226	1.8
449.584	1.82
449.941	1.82
450.299	1.79
450.656	1.8
451.014	1.8
451.371	1.79
451.729	1.69
452.086	2
452.443	1.84
452.801	1.89
453.158	1.73
453.515	1.74
453.872	1.79
454.229	1.69
454.586	1.79
454.943	1.79
455.3	1.82
455.657	1.89
456.014	1.77
456.371	1.72
456.727	1.76
457.084	1.7
457.441	1.91
457.797	1.95
458.154	1.83
458.51	1.68
458.867	1.93
459.223	2.05
459.58	1.72
459.936	1.85
460.292	1.7
460.648	1.57
461.005	1.58
461.361	1.79
461.717	1.81
462.073	1.94
462.429	1.93
462.785	1.91
463.141	1.92
463.496	1.97
463.852	1.69
464.208	1.96
464.564	1.9
464.919	1.87
465.275	1.88
465.631	1.79
465.986	1.88
466.342	1.69
466.697	1.83
467.052	1.87
467.408	1.72
467.763	1.69
468.118	1.89
468.473	1.96
468.829	1.89
469.184	1.84
469.539	1.81
469.894	1.7
470.249	1.92
470.603	1.72
470.958	1.87
471.313	1.78
471.668	1.85
472.023	1.89
472.377	1.86
472.732	1.92
473.086	2.03
473.441	1.79
473.795	1.82
474.15	1.81
474.504	1.84
474.859	1.99
475.213	1.9
475.567	1.95
475.921	1.71
476.275	1.88
476.63	1.95
476.984	1.8
477.338	1.8
477.692	1.75
478.045	1.85
478.399	2
478.753	1.72
479.107	1.86
479.461	1.9
479.814	1.77
480.168	1.94
480.521	1.83
480.875	1.91
481.228	1.87
481.582	1.85
481.935	1.79
482.289	1.73
482.642	1.63
482.995	1.8
483.348	1.91
483.701	1.74
484.055	1.75
484.408	1.72
484.761	1.7
485.114	1.59
485.466	1.61
485.819	1.69
486.172	1.79
486.525	1.82
486.878	1.87
487.23	1.87
487.583	1.78
487.936	1.78
488.288	1.7
488.641	1.7
488.993	1.72
489.345	1.74
489.698	1.74
490.05	1.8
490.402	1.91
490.754	1.88
491.107	1.79
491.459	1.89
491.811	1.87
492.163	1.82
492.515	1.7
492.866	1.69
493.218	1.67
493.57	1.77
493.922	1.87
494.274	1.88
494.625	1.93
494.977	2.02
495.328	1.88
495.68	1.91
496.031	1.91
496.383	1.85
496.734	1.79
497.086	1.81
497.437	1.85
497.788	1.83
498.139	1.77
498.49	1.88
498.842	1.72
499.193	1.8
499.544	1.89
499.894	1.9
500.245	1.79
500.596	1.88
500.947	1.84
501.298	1.97
501.648	1.85
501.999	1.92
502.35	1.89
502.7	1.97
503.051	1.99
503.401	1.9
503.752	1.93
504.102	1.83
504.452	1.94
504.803	1.91
505.153	1.92
505.503	2.03
505.853	1.86
506.203	1.88
506.553	1.92
506.903	1.83
507.253	1.84
507.603	1.93
507.953	1.95
508.303	1.94
508.652	1.81
509.002	1.74
509.352	1.86
509.701	1.87
510.051	1.81
510.4	1.87
510.75	1.76
511.099	1.79
511.449	1.97
511.798	1.86
512.147	1.87
512.496	1.97
512.846	1.99
513.195	1.97
513.544	1.82
513.893	1.87
514.242	1.85
514.591	1.95
514.939	1.95
515.288	1.94
515.637	1.92
515.986	1.85
516.334	1.88
516.683	1.93
517.032	1.93
517.38	1.88
517.729	1.94
518.077	1.79
518.426	1.89
518.774	1.84
519.122	1.94
519.47	1.83
519.819	1.82
520.167	1.82
520.515	1.85
520.863	1.93
521.211	1.85
521.559	1.91
521.907	1.84
522.255	1.93
522.602	1.92
522.95	1.9
523.298	1.89
523.645	2.03
523.993	1.84
524.341	1.96
524.688	1.85
525.036	1.97
525.383	1.88
525.73	1.74
526.078	1.87
526.425	1.85
526.772	1.79
527.119	1.79
527.466	1.83
527.814	1.89
528.161	1.85
528.508	1.89
528.854	1.86
529.201	1.82
529.548	1.77
529.895	1.67
530.242	1.72
530.588	1.76
530.935	1.86
531.282	1.87
531.628	1.93
531.975	1.96
532.321	1.94
532.667	1.91
533.014	1.92
533.36	1.88
533.706	1.81
534.052	1.84
534.399	1.83
534.745	1.72
535.091	1.79
535.437	1.86
535.783	1.86
536.129	1.92
536.474	1.87
536.82	1.85
537.166	1.99
537.512	1.85
537.857	1.81
538.203	1.84
538.549	1.9
538.894	1.87
539.239	2.03
539.585	2
539.93	1.95
540.276	2.04
540.621	1.79
540.966	1.89
541.311	1.92
541.656	1.91
542.001	1.8
542.346	1.76
542.691	1.69
543.036	1.73
543.381	1.83
543.726	1.81
544.071	1.95
544.415	1.92
544.76	1.86
545.105	1.9
545.449	1.9
545.794	1.91
546.138	1.95
546.483	1.95
546.827	2
547.171	1.93
547.516	1.88
547.86	1.88
548.204	1.91
548.548	1.86
548.892	1.85
549.236	2.01
549.58	2.06
549.924	1.98
550.268	1.89
550.612	2.06
550.956	1.92
551.3	1.93
551.643	2.05
551.987	1.98
552.33	1.93
552.674	1.84
553.017	1.95
553.361	1.96
553.704	2.01
554.048	1.89
554.391	1.78
554.734	1.85
555.077	1.91
555.42	1.99
555.764	1.97
556.107	1.77
556.45	1.88
556.793	2.04
557.135	2.14
557.478	1.95
557.821	2.02
558.164	2.07
558.507	2.03
558.849	2.04
559.192	1.96
559.534	2.14
559.877	1.99
560.219	2.01
560.562	2.04
560.904	1.85
561.246	2.02
561.589	2.18
561.931	1.91
562.273	2.05
562.615	2
562.957	1.91
563.299	2.07
563.641	1.97
563.983	2.13
564.325	1.79
564.667	2.06
565.008	2.07
565.35	1.98
565.692	2.02
566.033	1.75
566.375	2.06
566.716	1.99
567.058	1.93
567.399	1.95
567.741	1.9
568.082	1.94
568.423	1.9
568.764	1.78
569.105	2
569.447	2.06
569.788	1.96
570.129	1.94
570.47	2
570.811	1.72
571.151	1.93
571.492	1.86
571.833	2.03
572.174	1.99
572.514	2.06
572.855	1.95
573.195	1.97
573.536	1.97
573.876	1.85
574.217	1.99
574.557	1.89
574.898	2.01
575.238	2.19
575.578	1.9
575.918	1.99
576.258	2.04
576.598	1.94
576.938	2.01
577.278	2.03
577.618	2.19
577.958	2.02
578.298	2.13
578.638	2.06
578.977	2.15
579.317	1.97
579.657	1.78
579.996	2.16
580.336	2.32
580.675	2.36
581.014	1.88
581.354	2.03
581.693	1.94
582.032	2.1
582.372	2.06
582.711	2
583.05	2.03
583.389	1.85
583.728	2.03
584.067	2.07
584.406	2.02
584.745	1.85
585.083	2.02
585.422	2.13
585.761	2.25
586.1	2.24
586.438	2.19
586.777	2.07
587.115	2.08
587.454	1.97
587.792	2.01
588.13	2.23
588.469	2.12
588.807	2.17
589.145	2.02
589.483	1.92
589.821	1.79
590.159	2.09
590.497	2.03
590.835	1.81
591.173	1.96
591.511	2.17
591.849	2.05
592.187	1.94
592.524	2.09
592.862	1.85
593.2	2.07
593.537	2.06
593.875	2
594.212	1.9
594.55	1.96
594.887	2
595.224	1.98
595.561	2.05
595.899	2.22
596.236	2.26
596.573	2.03
596.91	2.02
597.247	2.03
597.584	2.01
597.921	2.07
598.258	1.96
598.594	1.92
598.931	2.12
599.268	1.99
599.604	1.96
599.941	2.1
600.277	1.97
600.614	2.2
600.95	2.09
601.287	1.93
601.623	1.92
601.959	1.95
602.296	1.92
602.632	1.83
602.968	2.08
603.304	1.96
603.64	2.15
603.976	1.93
604.312	2.07
604.648	1.95
604.984	1.94
605.319	1.87
605.655	2.09
605.991	1.97
606.326	2.11
606.662	2.12
606.998	2.1
607.333	1.96
607.668	2.09
608.004	2.02
608.339	2.06
608.674	2.29
609.01	2.02
609.345	2.12
609.68	1.95
610.015	1.99
610.35	2.06
610.685	1.95
611.02	2
611.355	1.88
611.689	2.01
612.024	1.99
612.359	1.99
612.694	2.05
613.028	1.93
613.363	1.98
613.697	2.19
614.032	2.33
614.366	2.25
614.7	1.99
615.035	1.86
615.369	1.9
615.703	2.15
616.037	2.3
616.371	2.02
616.705	2.03
617.039	2.09
617.373	2.17
617.707	2.38
618.041	2.06
618.375	1.79
618.709	2.09
619.042	2.04
619.376	2.11
619.71	2.06
620.043	1.94
620.377	2.31
620.71	2.01
621.043	2.25
621.377	1.95
621.71	1.89
622.043	1.83
622.376	2.22
622.709	2.36
623.043	2.19
623.376	2.35
623.709	2.28
624.041	1.89
624.374	2.16
624.707	1.77
625.04	2.44
625.373	2.24
625.705	2.24
626.038	2.32
626.37	1.84
626.703	2.13
627.035	2.25
627.368	1.99
627.7	2.01
628.032	2.06
628.365	2.03
628.697	2.1
629.029	2.16
629.361	2.22
629.693	2.33
630.025	2.22
630.357	2.18
630.689	2.51
631.021	2.38
631.353	2.38
631.684	2.2
632.016	2.06
632.348	2.4
632.679	1.95
633.011	2.48
633.342	2.45
633.674	2.05
634.005	2.31
634.336	2.43
634.668	2.24
634.999	2.25
635.33	2.11
635.661	2.32
635.992	2.26
636.323	2.62
636.654	1.95
636.985	2.29
637.316	2.31
637.647	2.14
637.977	2.48
638.308	1.91
638.639	2.27
638.969	2.13
639.3	2.34
639.63	2.34
639.961	1.84
640.291	1.94
640.622	2.35
640.952	2.13
641.282	2.39
641.612	2.26
641.943	2.3
642.273	2.05
642.603	2.05
642.933	2.82
643.263	2.14
643.592	2.07
643.922	2.44
644.252	2.39
644.582	1.77
644.911	2.31
645.241	2.51
645.571	2.21
645.9	2.23
646.23	2.4
646.559	2.5
646.888	2.5
647.218	1.64
647.547	1.96
647.876	1.74
648.205	2.42
648.534	2.4
648.863	2.05
649.192	2.23
649.521	2.01
649.85	2.46
650.179	1.99
650.508	2.2
650.837	1.89
651.165	2.09
651.494	2.37
651.822	2.21
652.151	2.27
652.479	1.99
652.808	2
653.136	1.84
653.465	2.15
653.793	2.44
654.121	2.25
654.449	2.37
654.777	2.24
655.105	2.83
655.433	2.38
655.761	2.35
656.089	1.75
656.417	2.36
656.745	2.52
657.073	2.19
657.4	2
657.728	2.46
658.056	2.23
658.383	2.42
658.711	2.48
659.038	2.34
659.365	2.15
659.693	2.05
660.02	2.18
660.347	2.46
660.674	2.46
661.001	2.34
661.329	2.17
661.656	1.92
661.982	2.09
662.309	2.35
662.636	2.51
662.963	1.74
663.29	2.13
663.616	2.34
663.943	2.23
664.27	2.94
664.596	2.44
664.923	2.31
665.249	2.46
665.576	2.51
665.902	2.15
666.228	2.11
666.554	1.8
666.881	2.62
667.207	2.28
667.533	2.69
667.859	2.43
668.185	2.45
668.511	2.12
668.837	2.17
669.162	2.57
669.488	2.11
669.814	2.51
670.139	2.36
670.465	2.48
670.791	2.62
671.116	2.52
671.442	2.5
671.767	2.86
672.092	2.65
672.418	2.45
672.743	1.95
673.068	2.07
673.393	2.26
673.718	2.49
674.043	2.19
674.368	1.96
674.693	2.6
675.018	2.43
675.343	2.03
675.667	2.32
675.992	2.32
676.317	2.67
676.641	2.45
676.966	2.45
677.29	2.73
677.615	2.51
677.939	2.67
678.264	2.47
678.588	2.33
678.912	2.19
679.236	2.45
679.56	2.04
679.885	2.5
680.209	1.96
680.532	2.8
680.856	2.94
681.18	2.4
681.504	1.78
681.828	2.52
682.152	2.72
682.475	2.37
682.799	2.52
683.122	2.64
683.446	2.05
683.769	2.45
684.093	2.55
684.416	2.7
684.739	2.28
685.062	2.64
685.386	2.68
685.709	2.23
686.032	2.34
686.355	2.55
686.678	2.22
687.001	2.13
687.324	2.95
687.646	2
687.969	2.21
688.292	3.04
688.614	1.93
688.937	2.14
689.26	1.99
689.582	1.95
689.904	2.27
690.227	2
690.549	3.21
690.871	2.02
691.194	2.99
691.516	1.96
691.838	2.42
692.16	2.49
692.482	2.88
692.804	2.3
693.126	2.32
693.448	2.38
693.769	2.22
694.091	2.6
694.413	2.32
694.735	2.62
695.056	2.71
695.378	2.65
695.699	2.99
696.021	2.27
696.342	2.38
696.663	2.01
696.984	2.26
697.306	2.65
697.627	2.54
697.948	2.5
698.269	2.15
698.59	1.7
698.911	2.04
699.232	2.64
699.553	3.1
699.873	2.7
700.194	2.85
700.515	2.39
700.835	2.45
701.156	2.37
701.477	2.13
701.797	2.32
702.117	2.49
702.438	2.48
702.758	3.03
703.078	3.1
703.398	2.38
703.719	2.42
704.039	2.74
704.359	3.48
704.679	2.05
704.999	2.49
705.319	2.44
705.638	1.35
705.958	2.44
706.278	2.43
706.597	2.31
706.917	2.44
707.237	1.98
707.556	3.48
707.876	2.32
708.195	2.54
708.514	2.55
708.834	1.85
709.153	1.59
709.472	2.36
709.791	3.16
710.11	2.66
710.429	3.65
710.748	0.93
711.067	2.1
711.386	2.2
711.705	3.03
712.023	2.99
712.342	2.4
712.661	2.05
712.979	3.03
713.298	2.7
713.616	1.93
713.935	3.42
714.253	2.63
714.572	3.14
714.89	2.45
715.208	2.69
715.526	2.18
715.844	3.75
716.162	1.52
716.48	2.48
716.798	3.77
717.116	2.8
717.434	2.75
717.752	2.02
718.069	2.33
718.387	2.46
718.705	3.09
719.022	0.65
719.34	2.49
719.657	2.62
719.975	3.29
720.292	1.48
720.609	2.34
720.927	3.41
721.244	2.62
721.561	2.59
721.878	3.47
722.195	2.27
722.512	2.6
722.829	2.81
723.146	2.27
723.463	2.18
723.779	1.65
724.096	2.31
724.413	3.33
724.729	2.61
725.046	3.17
725.362	4.21
725.679	3.04
725.995	2.33
726.311	2.43
726.628	3.21
726.944	2.13
727.26	1.57
727.576	2.62
727.892	2.38
728.208	1.93
728.524	3.04
728.84	1.38
729.156	2.91
729.472	1.63
729.787	2.82
730.103	2.21
730.419	2.63
730.734	3.05
731.05	2.25
731.365	2.63
731.681	3.26
731.996	2.47
732.311	1.63
732.626	2.26
732.942	1.96
733.257	2.2
733.572	1.76
733.887	2.4
734.202	2.8
734.517	2.66
734.832	1.81
735.146	3.72
735.461	2.72
735.776	2.84
736.091	2.11
736.405	2.33
736.72	2.87
737.034	2
737.349	3.2
737.663	1.43
737.977	3.48
738.292	3.02
738.606	1.47
738.92	3.72
739.234	3.42
739.548	3.43
739.862	3.38
740.176	3.53
740.49	3.87
740.804	3.34
741.117	2.6
741.431	2.33
741.745	3.75
742.058	4.4
742.372	2.13
742.685	0.97
742.999	0.94
743.312	3.37
743.626	1.87
743.939	2.6
744.252	4.06
744.565	3.6
744.878	5.11
745.191	3.65
745.505	4.93
745.817	3.5
746.13	3.66
746.443	4.12
746.756	2.56
747.069	4.35
747.381	2.05
747.694	3.23
748.007	3.18
748.319	3.39
748.632	1.8
748.944	3.59
749.256	3.42
749.569	3.79
749.881	2.11
750.193	5.04
750.505	2.67
750.817	5
751.129	1.7
751.441	3.07
751.753	2.87
752.065	2.44
752.377	3.45
752.689	2.48
753	3.72
753.312	2.71
753.624	1.66
753.935	3.74
754.247	2.8
754.558	5.36
754.869	2.79
755.181	1.64
755.492	1.86
755.803	3.4
756.114	3.44
756.425	1.57
756.736	3.54
757.047	2.36
757.358	5.59
757.669	4.21
757.98	3.88
758.291	3.77
758.601	2.46
758.912	0.41
759.223	3.2
759.533	2.95
759.844	2.7
760.154	5.41
760.464	-0.04
760.775	4.46
761.085	3.02
761.395	4.09
761.705	3.68
762.016	1.91
762.326	3.76
762.636	3.66
762.945	1.98
763.255	1.61
763.565	3.55
763.875	3.39
764.185	1.99
764.494	4.66
764.804	3.91
765.113	2.91
765.423	3.88
765.732	3.84
766.042	3.37
766.351	2.51
766.66	3.09
766.97	3.57
767.279	2.59
767.588	2.67
767.897	2.49
768.206	3.19
768.515	3.47
768.824	3.97
769.133	2.28
769.441	3.01
769.75	2.24
770.059	3.24
770.367	3.8
770.676	2.41
770.984	3.22
771.293	1.18
771.601	1.05
771.91	5.32
772.218	2.43
772.526	3.75
772.834	4
773.142	2.91
773.45	2.38
773.758	3.62
774.066	2.5
774.374	5.11
774.682	3.79
774.99	2.99
775.298	5.11
775.605	6.76
775.913	2.06
776.22	5.9
776.528	0.13
776.835	-0.01
777.143	4.3
777.45	1.91
777.757	4.81
778.065	3.18
778.372	2.74
778.679	5.93
778.986	2.67
779.293	2.54
779.6	0.98
779.907	4.99
780.214	3.6
780.52	4.78
780.827	-1.41
781.134	5.78
781.44	5.15
781.747	3.99
782.053	4.58
782.36	5.46
782.666	3.05
782.973	0.24
783.279	4.64
783.585	3.04
783.891	5.53
784.197	1.27
784.503	2.04
784.809	3.26
785.115	3.09
785.421	3.71
785.727	-0.69
786.033	4.41
786.339	4.85
786.644	0.99
786.95	6.85
787.255	1.23
787.561	-0.28
787.866	2.42
788.172	0.96
788.477	4.11
788.782	4.03
789.088	-0.68
789.393	6.83
789.698	1.17
790.003	2.18
790.308	3.23
790.613	2.56
790.918	1.72
791.223	1.36
791.527	1.47
791.832	2.8
792.137	1.54
792.441	5.89
792.746	2.97
793.05	6.36
793.355	3.2
793.659	1.63
793.963	2.83
794.268	4.23
794.572	0.79
794.876	4.14
795.18	2.37
795.484	3.86
795.788	3.74
796.092	0.33
796.396	2.96
796.7	1.78
797.004	6.3
797.307	0.64
797.611	1.25
797.915	4.85
798.218	-0.29
798.522	3.05
798.825	3.99
799.128	3.43
799.432	2.37
799.735	6.28
800.038	2.87
800.341	2.91
800.644	5.01
800.947	4.89
801.25	3.67
801.553	-0.19
801.856	1.85
802.159	2.88
802.462	2.89
802.764	6.57
803.067	0.98
803.37	4.39
803.672	3.37
803.975	5.46
804.277	1.37
804.579	5.13
804.882	2.74
805.184	5.33
805.486	4.93
805.788	4.02
806.09	5.95
806.392	4.52
806.694	1.63
806.996	4.14
807.298	3.75
807.6	5.41
807.902	6.58
808.203	5.97
808.505	4.14
808.807	3.22
809.108	1.41
809.409	6.09
809.711	4.55
810.012	5.85
810.313	7.23
810.615	4.78
810.916	3.96
811.217	2.02
811.518	-0.11
811.819	-0.91
812.12	5.27
812.421	3.67
812.722	1.83
813.023	3.98
813.323	5.93
813.624	0.8
813.925	0.11
814.225	0
814.526	3.41
814.826	3.34
815.126	2.11
815.427	-0.28
815.727	3.58
816.027	2.17
816.327	8.71
816.627	2.31
816.927	2
817.227	3.76
817.527	6.99
817.827	3.62
818.127	2.18
818.427	5.83
818.727	4.55
819.026	3.7
819.326	-0.77
819.625	0.51
819.925	-0.44
820.224	4.07
820.524	5.21
820.823	4.47
821.122	0.13
821.421	2.02
821.72	5.47
822.019	5.91
822.318	5.58
822.617	6.08
822.916	4.47
823.215	2.69
823.514	5.37
823.813	3.26
824.111	4.38
824.41	5.1
824.709	4.09
825.007	4
825.306	3.85
825.604	3.71
825.902	3.64
826.201	5.09
826.499	3
826.797	4.11
827.095	3.53
827.393	5.03
827.691	3.91
827.989	3.22
828.287	5
828.585	4.67
828.882	3.63
829.18	3.09
829.478	3.01
829.775	3.21
830.073	4.65
830.37	5.04
830.668	5.79
830.965	6.25
831.263	3.52
831.56	1.34
831.857	5.28
832.154	2.52
832.451	6.54
832.748	4.77
833.045	-0.79
833.342	1.72
833.639	6.18
833.936	5.3
834.232	9.75
834.529	4.24
834.826	6.78
835.122	7.14
835.419	0.59
835.715	3.28
836.012	3.06
836.308	4.08
836.604	1.46
836.901	1.66
837.197	2.64
837.493	4.98
837.789	3.89
838.085	5.45
838.381	3.21
838.677	5.31
838.972	5.86
839.268	9.44
839.564	4.71
839.86	6.59
840.155	1.62
840.451	4.24
840.746	3.9
841.042	4.69
841.337	-3.27
841.632	3.69
841.928	4.09
842.223	9.22
842.518	-1.41
842.813	4.14
843.108	9.6
843.403	8.8
843.698	2.37
843.993	5.77
844.287	-2.8
844.582	5.05
844.877	5.93
845.171	7.18
845.466	-2.71
845.761	0.19
846.055	-3.61
846.349	11.09
846.644	2.5
846.938	11.77
847.232	5.09
847.526	-1.92
847.82	-13.79
848.114	-14.86
848.408	3.94
848.702	-20.28
848.996	-3.65
849.29	-10.71
849.584	3.4
849.877	-1.89
850.171	-10.34
850.465	19.3
850.758	12.89
851.052	-7.17
851.345	15.69
851.638	8.22
851.932	-4.23
852.225	3.41
852.518	-5.39
852.811	5.82
853.104	2.53
853.397	-9.86
853.69	7.73
853.983	13.86
854.276	-15.31
854.569	-28.99
854.861	-7.62
855.154	2.02
855.447	-9.97
855.739	0.9
856.032	11.15
856.324	-3.29
856.616	-0.92
856.909	-7.01
857.201	6.61
857.493	7.67
857.785	23.9
858.077	8.62
858.369	0.54
858.661	12.08
858.953	-5.13
859.245	-4.51
859.537	1.61
859.829	14.62
860.12	6.71
860.412	-1.58
860.703	3.31
860.995	1.95
861.286	3.49
861.578	15.98
861.869	-0.64
862.16	2.17
862.452	-7.21
862.743	13.48
863.034	0.84
863.325	-6.33
863.616	9.63
863.907	1.43
864.198	-0.96
864.488	-1.03
864.779	16.47
865.07	-5.82
865.36	-0.42
865.651	17.12
865.941	-10.09
866.232	25.75
866.522	-5.83
866.813	-12.06
867.103	-1.47
867.393	8.92
867.683	-4.17
867.973	-7.68
868.263	-3.39
868.553	-7.26
868.843	-1.17
869.133	-6.45
869.423	-15.49
869.713	-7.92
870.002	22.26
870.292	-2.05
870.582	-24.43
870.871	1.87
871.161	14.27
871.45	14.42
871.739	29.55
872.029	10.95
872.318	5.97
872.607	12.87
872.896	3.3
873.185	-5.26
873.474	14.18
873.763	10.74
874.052	-12.62
874.341	5.52
874.63	5
874.918	9.94
875.207	15.59
875.496	22.68
875.784	1.32
876.073	-18.44
876.361	-9.42
876.649	7.78
876.938	4.87
877.226	19.71
877.514	14.95
877.802	-30.25
878.09	-11.04
878.378	9.33
878.666	5.19
878.954	23.37
879.242	19.28
879.53	-13.89
879.817	-0.12
880.105	7.3
880.392	-3.68
880.68	11.12
880.967	6.04
881.255	5.9
881.542	-23.89
881.83	14.31
882.117	-9.45
882.404	13.11
882.691	-5.52
882.978	13.25
883.265	15.19
883.552	7.47
883.839	1.9
884.126	7.96
884.413	8.76
884.699	5.04
884.986	-0.37
885.273	6.68
885.559	6.68
885.846	6.68
