Data from 434_forehead_Reflection__1__258.txt Node

Date: Fri Dec 15 18:37:10 CST 2023
User: ToomeyLab
Spectrometer: FLMS14357
Trigger mode: 0
Integration Time (sec): 1.000000E-2
Scans to average: 100
Electric dark correction enabled: true
Nonlinearity correction enabled: false
Boxcar width: 0
XAxis mode: Wavelengths
Number of Pixels in Spectrum: 2048
>>>>>Begin Spectral Data<<<<<
189.047	56.9
189.435	56.9
189.823	56.9
190.211	23.79
190.599	-41.27
190.987	87.97
191.375	-200.44
191.763	-155.5
192.151	68.22
192.538	232.88
192.926	-120.3
193.314	31.36
193.702	-195.21
194.089	691.15
194.477	232.14
194.864	-56.63
195.252	101.34
195.639	119.02
196.027	-1219.22
196.414	102.94
196.801	2461.54
197.189	67.31
197.576	890.15
197.963	13.04
198.351	-58.79
198.738	11.94
199.125	84.08
199.512	-10.86
199.899	4.76
200.286	21.81
200.673	-31.31
201.06	0.55
201.447	-19.05
201.833	5.43
202.22	43.5
202.607	15.37
202.994	26.43
203.38	25.55
203.767	25.62
204.154	23.81
204.54	27.31
204.927	15.83
205.313	-20.55
205.699	15.98
206.086	37.99
206.472	32.6
206.858	-1.76
207.245	-24.25
207.631	1.52
208.017	-19.34
208.403	22.82
208.789	31.98
209.175	22.5
209.561	47.09
209.947	8.29
210.333	15.63
210.719	0.98
211.105	35.69
211.491	15.13
211.876	24.38
212.262	5.75
212.648	20.49
213.034	58.32
213.419	-24.96
213.805	-19.57
214.19	-27.4
214.576	0.99
214.961	-58.14
215.346	-86.47
215.732	-11.97
216.117	13.66
216.502	-54.19
216.888	-16.39
217.273	9.33
217.658	46.93
218.043	31.74
218.428	-83.74
218.813	-32.73
219.198	-30.82
219.583	-10.63
219.968	0.81
220.353	-20.23
220.738	5.91
221.122	-12.28
221.507	3.88
221.892	-32.41
222.276	-17.61
222.661	-0.44
223.046	20.23
223.43	6.77
223.815	14.26
224.199	-16.41
224.583	6.75
224.968	0.26
225.352	19.15
225.736	-6.83
226.121	3.55
226.505	8.28
226.889	5.41
227.273	4.94
227.657	10.06
228.041	3.2
228.425	1.64
228.809	6.7
229.193	6
229.577	5.43
229.961	5.38
230.344	5.11
230.728	4.93
231.112	6.03
231.495	5.61
231.879	5.32
232.263	6.77
232.646	5.13
233.03	4.81
233.413	5.85
233.797	4.97
234.18	2.86
234.563	3.56
234.946	7.09
235.33	5.7
235.713	6.95
236.096	4.41
236.479	8.18
236.862	5.17
237.245	8.18
237.628	6.11
238.011	6.65
238.394	5.24
238.777	5.44
239.16	4.97
239.543	4.59
239.925	7.32
240.308	5.62
240.691	6.31
241.073	8.3
241.456	5.74
241.838	4.79
242.221	5.18
242.603	5.62
242.986	6.36
243.368	5.81
243.75	5.99
244.133	5.82
244.515	5.58
244.897	6.03
245.279	5.07
245.661	4.96
246.043	4.63
246.425	4.61
246.807	7
247.189	7.16
247.571	6.35
247.953	6.38
248.335	5.42
248.717	5.82
249.098	6.04
249.48	5.75
249.862	5.95
250.243	5.98
250.625	5.59
251.006	5.6
251.388	4.91
251.769	5.7
252.151	5.98
252.532	5.04
252.913	5.22
253.295	5.03
253.676	5.87
254.057	5.8
254.438	5.69
254.819	5.04
255.2	5.33
255.581	6.16
255.962	5.44
256.343	6.43
256.724	5.02
257.105	5.37
257.486	4.49
257.867	5.75
258.247	5.53
258.628	4.93
259.009	6.08
259.389	5.68
259.77	5.57
260.15	4.68
260.531	5.09
260.911	5.77
261.292	5.68
261.672	5.91
262.052	5.62
262.432	6.12
262.813	5.76
263.193	6.06
263.573	5.55
263.953	5.85
264.333	6
264.713	5.9
265.093	5.24
265.473	5.46
265.853	4.86
266.233	5.59
266.612	4.73
266.992	4.37
267.372	5.71
267.752	5.38
268.131	5.22
268.511	6.02
268.89	5.58
269.27	5.57
269.649	5.28
270.029	5.26
270.408	6.64
270.787	5.76
271.167	5.79
271.546	5.78
271.925	5.14
272.304	5.27
272.683	5.68
273.062	4.8
273.441	5.46
273.82	4.95
274.199	5.8
274.578	5.43
274.957	5.52
275.336	5.45
275.715	5.31
276.093	5.27
276.472	6.1
276.851	4.56
277.229	4.75
277.608	4.83
277.986	5.62
278.365	5.74
278.743	4.27
279.122	5.78
279.5	5.62
279.878	5.73
280.257	5.27
280.635	5.13
281.013	5.47
281.391	5.8
281.769	5.47
282.147	5.94
282.525	5.66
282.903	5.24
283.281	5.51
283.659	5.58
284.037	5.4
284.415	5.5
284.792	5.46
285.17	4.98
285.548	5.1
285.925	5.38
286.303	5.68
286.68	5.19
287.058	5.54
287.435	5.7
287.813	5.66
288.19	5.63
288.567	5.16
288.945	5.72
289.322	5.77
289.699	5.37
290.076	5.11
290.453	5.36
290.83	5.86
291.207	5.57
291.584	5.64
291.961	6.1
292.338	5.4
292.715	6.24
293.092	6.04
293.469	5.73
293.845	5.66
294.222	4.84
294.599	5.35
294.975	5.67
295.352	6.07
295.728	5.33
296.105	5.51
296.481	6.17
296.858	5.5
297.234	5.62
297.61	5.95
297.986	5.62
298.363	6.1
298.739	5.8
299.115	5.66
299.491	5.89
299.867	6.28
300.243	6.11
300.619	5.63
300.995	6.15
301.371	6.07
301.746	6.28
302.122	6.48
302.498	6.15
302.874	6.43
303.249	6.08
303.625	6.23
304	6.46
304.376	6.07
304.751	5.69
305.127	6.48
305.502	5.62
305.878	6.1
306.253	6.22
306.628	7.38
307.003	6.17
307.378	6.82
307.754	6.37
308.129	5.54
308.504	6.65
308.879	6.32
309.254	7.31
309.629	7.27
310.003	6.52
310.378	7.07
310.753	6.78
311.128	6.83
311.502	6.86
311.877	7.14
312.252	6.44
312.626	6.74
313.001	6.61
313.375	7
313.75	6.38
314.124	6.9
314.498	6.77
314.873	6.77
315.247	7.19
315.621	7.09
315.995	6.44
316.369	7.32
316.743	6.64
317.117	7.36
317.491	6.89
317.865	7.1
318.239	7.5
318.613	6.93
318.987	7.81
319.361	7.14
319.734	7.75
320.108	7.42
320.482	7.48
320.855	7.24
321.229	7.14
321.602	6.93
321.976	7.66
322.349	7.91
322.723	7.56
323.096	7.91
323.469	6.82
323.843	7.58
324.216	7.55
324.589	7.33
324.962	7.67
325.335	7.24
325.708	7.58
326.081	7.86
326.454	7.72
326.827	7.22
327.2	8
327.573	7.58
327.945	7.54
328.318	7.19
328.691	7.29
329.063	8.05
329.436	7.47
329.809	8.25
330.181	7.23
330.553	7.66
330.926	8.53
331.298	8.23
331.671	7.56
332.043	8.69
332.415	8.11
332.787	7.64
333.159	8.5
333.532	8.15
333.904	8.11
334.276	7.22
334.648	8.54
335.02	7.78
335.391	8.13
335.763	7.6
336.135	7.62
336.507	8.47
336.879	8.1
337.25	8.32
337.622	7.99
337.993	8.25
338.365	8.15
338.736	8.4
339.108	8.75
339.479	8.08
339.851	8.14
340.222	7.87
340.593	8.01
340.964	7.81
341.336	9.33
341.707	7.88
342.078	9.06
342.449	8.56
342.82	8.07
343.191	8.66
343.562	8.37
343.933	8.75
344.303	8.37
344.674	8.39
345.045	8.58
345.416	8.73
345.786	7.97
346.157	8.78
346.527	7.89
346.898	8.07
347.268	8.37
347.639	8.19
348.009	8.69
348.38	8.32
348.75	8.58
349.12	8.33
349.49	9.29
349.861	8.61
350.231	8.6
350.601	8.63
350.971	8.7
351.341	8.92
351.711	8.67
352.081	8.78
352.45	8.28
352.82	8.96
353.19	8.65
353.56	8.49
353.929	9.01
354.299	9.22
354.669	8.47
355.038	8.98
355.408	8.58
355.777	8.93
356.147	9.12
356.516	9.2
356.885	8.91
357.254	8.79
357.624	8.96
357.993	9.17
358.362	8.98
358.731	9.13
359.1	9.02
359.469	9.2
359.838	9.16
360.207	8.69
360.576	9.07
360.945	9.28
361.314	9.54
361.682	8.96
362.051	9.15
362.42	9.37
362.788	9.29
363.157	9.34
363.525	9.4
363.894	9.09
364.262	9.23
364.631	9.16
364.999	9.58
365.367	9.07
365.735	10.21
366.104	9.55
366.472	9.46
366.84	9.17
367.208	9.14
367.576	9.7
367.944	10.1
368.312	9.27
368.68	9.3
369.048	9.84
369.416	9.7
369.783	9.79
370.151	9.59
370.519	10.42
370.886	9.69
371.254	9.26
371.621	9.86
371.989	10.13
372.356	9.37
372.724	9.6
373.091	9.83
373.458	9.69
373.826	9.83
374.193	9.86
374.56	9.71
374.927	9.77
375.294	10.28
375.661	10.15
376.028	10.18
376.395	9.98
376.762	9.97
377.129	10.03
377.496	9.79
377.863	10.03
378.229	9.98
378.596	10.28
378.963	9.72
379.329	9.78
379.696	10.49
380.062	10.24
380.429	10
380.795	10.23
381.161	10.33
381.528	10.38
381.894	10.34
382.26	10.09
382.626	10.35
382.993	10.05
383.359	10.52
383.725	10.27
384.091	10.34
384.457	10.63
384.823	10.46
385.188	10.15
385.554	10.4
385.92	10.45
386.286	10.67
386.651	10.78
387.017	10.52
387.383	10.36
387.748	10.51
388.114	10.52
388.479	10.41
388.845	10.82
389.21	10.41
389.575	10.6
389.94	10.7
390.306	10.8
390.671	10.75
391.036	10.44
391.401	10.64
391.766	10.49
392.131	10.87
392.496	11.16
392.861	10.37
393.226	10.6
393.591	10.7
393.956	10.75
394.32	10.79
394.685	10.9
395.05	10.42
395.414	10.67
395.779	10.65
396.143	10.93
396.508	10.93
396.872	10.68
397.236	11.1
397.601	10.82
397.965	10.67
398.329	10.98
398.694	11.11
399.058	11.21
399.422	10.75
399.786	11.11
400.15	11.3
400.514	10.93
400.878	11.52
401.242	11.36
401.605	11.17
401.969	11.21
402.333	11.32
402.697	11.21
403.06	11.2
403.424	11.55
403.787	11.45
404.151	11.5
404.514	11.32
404.878	11.08
405.241	11.34
405.604	11.38
405.968	11.37
406.331	11.28
406.694	11.44
407.057	11.57
407.42	11.48
407.783	11.17
408.146	11.51
408.509	11.3
408.872	11.14
409.235	11.45
409.598	11.76
409.961	11.41
410.323	11.74
410.686	11.42
411.049	11.44
411.411	11.42
411.774	11.65
412.136	11.65
412.499	11.5
412.861	11.66
413.223	11.73
413.586	11.87
413.948	11.75
414.31	11.96
414.672	11.53
415.035	11.71
415.397	12.05
415.759	11.71
416.121	11.87
416.483	11.85
416.845	12.01
417.206	11.55
417.568	11.98
417.93	11.77
418.292	11.82
418.653	12.06
419.015	11.77
419.377	11.84
419.738	12.03
420.1	11.7
420.461	11.88
420.822	12.03
421.184	11.95
421.545	11.95
421.906	11.81
422.267	11.91
422.629	11.8
422.99	12.06
423.351	11.93
423.712	11.88
424.073	11.86
424.434	11.99
424.795	11.97
425.155	12.14
425.516	12.11
425.877	11.97
426.238	11.98
426.598	12.1
426.959	12.17
427.32	12.17
427.68	12.13
428.041	12.15
428.401	12.37
428.761	12.46
429.122	12.45
429.482	12.29
429.842	12.63
430.202	12.67
430.563	12.51
430.923	12.45
431.283	12.59
431.643	12.52
432.003	12.63
432.363	12.78
432.722	12.55
433.082	13.04
433.442	12.68
433.802	12.5
434.161	12.71
434.521	13.01
434.881	12.76
435.24	12.66
435.6	12.79
435.959	12.65
436.319	12.85
436.678	12.88
437.037	12.93
437.396	12.98
437.756	12.73
438.115	12.9
438.474	13.27
438.833	12.88
439.192	12.95
439.551	13.05
439.91	13.04
440.269	13.08
440.628	12.93
440.987	13.18
441.345	13.07
441.704	13.03
442.063	13.06
442.421	13.01
442.78	13.11
443.138	13.04
443.497	13.15
443.855	13.23
444.214	13.41
444.572	13.32
444.93	13.17
445.288	13.47
445.647	13.27
446.005	13.4
446.363	13.49
446.721	13.35
447.079	13.28
447.437	13.29
447.795	13.25
448.153	13.27
448.51	13.34
448.868	13.33
449.226	13.44
449.584	13.43
449.941	13.57
450.299	13.5
450.656	13.49
451.014	13.72
451.371	13.62
451.729	13.61
452.086	14.17
452.443	13.77
452.801	13.88
453.158	13.74
453.515	13.8
453.872	14.09
454.229	13.78
454.586	13.82
454.943	13.98
455.3	14.01
455.657	14.04
456.014	13.88
456.371	13.95
456.727	14.13
457.084	14.31
457.441	14.01
457.797	14.18
458.154	14.38
458.51	14.26
458.867	14.29
459.223	14.23
459.58	14.35
459.936	14.28
460.292	14.26
460.648	14.31
461.005	14.32
461.361	14.4
461.717	14.16
462.073	14.1
462.429	14.21
462.785	14.27
463.141	14.46
463.496	14.44
463.852	14.49
464.208	14.47
464.564	14.67
464.919	14.59
465.275	14.72
465.631	14.95
465.986	14.92
466.342	14.74
466.697	14.62
467.052	14.79
467.408	14.95
467.763	14.95
468.118	14.86
468.473	14.69
468.829	14.87
469.184	14.91
469.539	15.04
469.894	14.74
470.249	14.99
470.603	15.01
470.958	15.16
471.313	15.02
471.668	15.39
472.023	15.04
472.377	15.19
472.732	15.32
473.086	15.16
473.441	15.11
473.795	15.66
474.15	15.55
474.504	15.28
474.859	15.5
475.213	15.25
475.567	15.39
475.921	15.46
476.275	15.43
476.63	15.62
476.984	15.63
477.338	15.85
477.692	15.59
478.045	15.63
478.399	15.63
478.753	15.69
479.107	15.7
479.461	15.57
479.814	15.67
480.168	15.83
480.521	15.58
480.875	15.73
481.228	15.71
481.582	15.73
481.935	15.75
482.289	15.6
482.642	15.64
482.995	15.89
483.348	15.87
483.701	15.67
484.055	15.81
484.408	15.89
484.761	15.57
485.114	15.5
485.466	15.23
485.819	15.22
486.172	15.21
486.525	15.25
486.878	15.33
487.23	15.54
487.583	15.68
487.936	15.86
488.288	15.84
488.641	15.85
488.993	15.74
489.345	15.68
489.698	15.63
490.05	15.63
490.402	15.73
490.754	15.86
491.107	16.02
491.459	16.08
491.811	16.35
492.163	16.33
492.515	16.29
492.866	16.28
493.218	16.1
493.57	16.06
493.922	16.07
494.274	16.12
494.625	16.21
494.977	16.44
495.328	16.6
495.68	16.69
496.031	16.83
496.383	16.81
496.734	16.94
497.086	17.1
497.437	16.87
497.788	16.97
498.139	16.92
498.49	17.02
498.842	16.87
499.193	16.98
499.544	17.09
499.894	17.1
500.245	17.18
500.596	17.01
500.947	17.25
501.298	17.22
501.648	17.48
501.999	17.37
502.35	17.5
502.7	17.49
503.051	17.36
503.401	17.56
503.752	17.62
504.102	17.64
504.452	17.5
504.803	17.54
505.153	17.61
505.503	17.56
505.853	17.83
506.203	17.64
506.553	17.72
506.903	17.6
507.253	17.75
507.603	17.68
507.953	17.92
508.303	18.05
508.652	17.93
509.002	18.07
509.352	18.04
509.701	17.97
510.051	18.01
510.4	18.04
510.75	17.97
511.099	18.02
511.449	17.92
511.798	18.29
512.147	18.06
512.496	18.16
512.846	18.3
513.195	18.28
513.544	18.45
513.893	18.36
514.242	18.35
514.591	18.43
514.939	18.47
515.288	18.48
515.637	18.64
515.986	18.84
516.334	18.73
516.683	18.75
517.032	18.8
517.38	18.91
517.729	18.67
518.077	18.53
518.426	18.83
518.774	18.85
519.122	18.78
519.47	18.78
519.819	18.69
520.167	18.74
520.515	18.53
520.863	18.62
521.211	18.71
521.559	18.74
521.907	18.71
522.255	18.95
522.602	19
522.95	19.19
523.298	19.12
523.645	19.28
523.993	19.29
524.341	19.36
524.688	19.27
525.036	19.43
525.383	19.43
525.73	19.57
526.078	19.47
526.425	19.41
526.772	19.69
527.119	19.42
527.466	19.17
527.814	19.3
528.161	19.3
528.508	19.42
528.854	19.45
529.201	19.54
529.548	19.36
529.895	19.34
530.242	19.13
530.588	19.02
530.935	19.1
531.282	19.08
531.628	19.18
531.975	19.4
532.321	19.6
532.667	19.76
533.014	19.93
533.36	19.97
533.706	19.94
534.052	20.04
534.399	19.98
534.745	19.79
535.091	19.7
535.437	19.89
535.783	19.86
536.129	19.93
536.474	20.07
536.82	20.21
537.166	20.41
537.512	20.51
537.857	20.44
538.203	20.35
538.549	20.36
538.894	20.41
539.239	20.45
539.585	20.66
539.93	20.7
540.276	20.7
540.621	20.99
540.966	20.86
541.311	20.94
541.656	20.98
542.001	21.12
542.346	21.04
542.691	20.76
543.036	20.51
543.381	20.47
543.726	20.56
544.071	20.77
544.415	20.85
544.76	20.87
545.105	20.99
545.449	21.03
545.794	21.1
546.138	21.18
546.483	21.36
546.827	21.6
547.171	21.63
547.516	21.68
547.86	21.45
548.204	21.51
548.548	21.64
548.892	21.7
549.236	21.81
549.58	21.82
549.924	21.96
550.268	22.11
550.612	22.19
550.956	22.37
551.3	22.15
551.643	22.33
551.987	22.29
552.33	22.36
552.674	22.68
553.017	22.58
553.361	22.32
553.704	22.55
554.048	22.42
554.391	22.58
554.734	22.53
555.077	22.7
555.42	22.51
555.764	22.69
556.107	22.55
556.45	22.77
556.793	22.75
557.135	22.88
557.478	23.04
557.821	23.03
558.164	23.1
558.507	23.16
558.849	22.93
559.192	23.13
559.534	23.32
559.877	23.58
560.219	23.43
560.562	23.6
560.904	23.5
561.246	23.34
561.589	23.61
561.931	23.49
562.273	23.86
562.615	23.76
562.957	23.79
563.299	23.46
563.641	23.75
563.983	23.82
564.325	23.68
564.667	23.88
565.008	23.89
565.35	24.14
565.692	23.82
566.033	24.03
566.375	24.31
566.716	23.96
567.058	23.93
567.399	24.27
567.741	23.92
568.082	23.98
568.423	24.05
568.764	24.19
569.105	24.27
569.447	24.48
569.788	24.37
570.129	24.23
570.47	24.7
570.811	24.87
571.151	24.65
571.492	24.7
571.833	24.87
572.174	24.59
572.514	24.83
572.855	24.93
573.195	24.7
573.536	24.79
573.876	24.82
574.217	24.84
574.557	24.89
574.898	25.01
575.238	25.17
575.578	24.86
575.918	25.1
576.258	25.23
576.598	25.16
576.938	25.15
577.278	25.27
577.618	25.26
577.958	25.33
578.298	25.4
578.638	25.44
578.977	25.75
579.317	25.38
579.657	25.57
579.996	25.84
580.336	25.99
580.675	25.74
581.014	25.91
581.354	25.94
581.693	25.9
582.032	26.09
582.372	26.17
582.711	26.06
583.05	25.91
583.389	26.16
583.728	26.03
584.067	26.26
584.406	26.57
584.745	26.61
585.083	26.89
585.422	26.53
585.761	26.57
586.1	26.78
586.438	26.73
586.777	26.82
587.115	27.09
587.454	26.88
587.792	26.86
588.13	26.94
588.469	26.8
588.807	26.95
589.145	26.81
589.483	27.47
589.821	26.95
590.159	27.15
590.497	27.3
590.835	27.67
591.173	26.92
591.511	27.54
591.849	27.38
592.187	27.11
592.524	27.42
592.862	27.46
593.2	27.76
593.537	27.51
593.875	27.59
594.212	27.69
594.55	27.64
594.887	27.66
595.224	27.59
595.561	28.07
595.899	27.81
596.236	27.99
596.573	28.25
596.91	27.76
597.247	27.9
597.584	28.18
597.921	28.18
598.258	28.24
598.594	27.95
598.931	28.19
599.268	28.37
599.604	28.31
599.941	28.3
600.277	28.27
600.614	28.25
600.95	28.37
601.287	28.51
601.623	28.82
601.959	28.88
602.296	28.81
602.632	28.59
602.968	28.82
603.304	28.87
603.64	28.84
603.976	29.04
604.312	28.79
604.648	28.8
604.984	28.94
605.319	28.99
605.655	28.97
605.991	29.16
606.326	29.23
606.662	29.06
606.998	28.97
607.333	29.19
607.668	29.17
608.004	29.67
608.339	29.84
608.674	29.94
609.01	29.51
609.345	29.54
609.68	29.4
610.015	29.72
610.35	29.87
610.685	29.97
611.02	29.89
611.355	30
611.689	29.91
612.024	29.93
612.359	30.04
612.694	29.99
613.028	29.94
613.363	30.22
613.697	30.34
614.032	30.26
614.366	30.41
614.7	30.47
615.035	30.25
615.369	30.59
615.703	30.52
616.037	30.63
616.371	30.7
616.705	30.4
617.039	30.69
617.373	30.75
617.707	30.74
618.041	30.81
618.375	31.01
618.709	30.92
619.042	30.76
619.376	31.44
619.71	31.24
620.043	31.34
620.377	30.99
620.71	31.25
621.043	31.57
621.377	30.93
621.71	31.75
622.043	31.14
622.376	31.68
622.709	31.95
623.043	31.88
623.376	31.98
623.709	31.46
624.041	31.98
624.374	31.48
624.707	31.61
625.04	32.22
625.373	31.83
625.705	32.11
626.038	31.93
626.37	31.82
626.703	32.05
627.035	32.17
627.368	32.14
627.7	32.36
628.032	32.25
628.365	32.78
628.697	32.44
629.029	32.16
629.361	32.61
629.693	32.29
630.025	32.23
630.357	32.64
630.689	32.73
631.021	32.92
631.353	32.65
631.684	32.75
632.016	32.81
632.348	32.86
632.679	33.08
633.011	33.81
633.342	32.89
633.674	33.06
634.005	33.18
634.336	32.77
634.668	33.53
634.999	33.09
635.33	33.44
635.661	33.32
635.992	33.54
636.323	33.77
636.654	34
636.985	33.26
637.316	33.44
637.647	33.79
637.977	33.98
638.308	33.56
638.639	33.72
638.969	33.52
639.3	33.97
639.63	33.31
639.961	34.32
640.291	34.06
640.622	33.9
640.952	34.1
641.282	34.4
641.612	34.29
641.943	34.33
642.273	34.6
642.603	34.4
642.933	34.5
643.263	34.06
643.592	34.52
643.922	34.68
644.252	34.72
644.582	33.81
644.911	34.44
645.241	34.93
645.571	34.88
645.9	34.51
646.23	35.03
646.559	35.02
646.888	34.85
647.218	34.95
647.547	35.16
647.876	35.17
648.205	35.43
648.534	34.87
648.863	34.91
649.192	35.83
649.521	35.08
649.85	35.3
650.179	35.55
650.508	35.63
650.837	35.54
651.165	35.53
651.494	35.91
651.822	35.57
652.151	35.44
652.479	35.99
652.808	35.87
653.136	35.96
653.465	35.1
653.793	35.69
654.121	35.94
654.449	36.27
654.777	35.8
655.105	36.03
655.433	36.29
655.761	36.29
656.089	36.98
656.417	36.07
656.745	35.73
657.073	35.87
657.4	37.02
657.728	36.58
658.056	36.8
658.383	37.38
658.711	36.26
659.038	36.43
659.365	36.73
659.693	37.15
660.02	36.72
660.347	36.56
660.674	37.39
661.001	37.13
661.329	36.41
661.656	36.96
661.982	37.17
662.309	37.16
662.636	36.24
662.963	37.63
663.29	36.87
663.616	36.87
663.943	36.62
664.27	37.56
664.596	37.67
664.923	37.71
665.249	37.44
665.576	37.2
665.902	38.27
666.228	37.77
666.554	37.68
666.881	37.68
667.207	37.45
667.533	38.12
667.859	37.79
668.185	38.61
668.511	38.32
668.837	38.12
669.162	37.8
669.488	38.11
669.814	37.97
670.139	37.81
670.465	38.45
670.791	38.66
671.116	39.08
671.442	37.85
671.767	38.42
672.092	39.1
672.418	38.61
672.743	39.23
673.068	38.26
673.393	39.21
673.718	38.82
674.043	39.1
674.368	39.47
674.693	39.51
675.018	38.9
675.343	38.34
675.667	39.14
675.992	39.21
676.317	39.89
676.641	39.88
676.966	38.92
677.29	39.83
677.615	40.18
677.939	40.83
678.264	39.59
678.588	39.92
678.912	38.91
679.236	39.87
679.56	38.86
679.885	40.53
680.209	39.33
680.532	40.12
680.856	39.8
681.18	39.42
681.504	40.04
681.828	40
682.152	39.96
682.475	40.03
682.799	40.06
683.122	40.15
683.446	40.41
683.769	40.13
684.093	40.65
684.416	40.14
684.739	39.46
685.062	40.39
685.386	40.38
685.709	39.77
686.032	40.93
686.355	40.79
686.678	41.19
687.001	40.55
687.324	40.49
687.646	40.89
687.969	40.9
688.292	40.65
688.614	40.4
688.937	41.28
689.26	40.74
689.582	40.97
689.904	41.37
690.227	40.81
690.549	41.15
690.871	41.44
691.194	40.84
691.516	40.76
691.838	41.47
692.16	41.7
692.482	41.87
692.804	41
693.126	41.38
693.448	41.36
693.769	41.98
694.091	42.1
694.413	42.63
694.735	41.52
695.056	42.48
695.378	41.21
695.699	42.07
696.021	41.75
696.342	41.98
696.663	41.19
696.984	42.56
697.306	41.89
697.627	42.63
697.948	42.19
698.269	41.65
698.59	42.58
698.911	42.49
699.232	42.77
699.553	43.08
699.873	42.35
700.194	43.48
700.515	42.54
700.835	43.3
701.156	43.21
701.477	42.69
701.797	42.52
702.117	43.01
702.438	43.64
702.758	43.59
703.078	43.05
703.398	42.75
703.719	43.03
704.039	43.34
704.359	43.42
704.679	43.46
704.999	42.45
705.319	43.45
705.638	42.83
705.958	43.61
706.278	43.03
706.597	43.84
706.917	43.06
707.237	42.68
707.556	43.15
707.876	43.38
708.195	44.52
708.514	44.25
708.834	43.5
709.153	44.46
709.472	43.68
709.791	44.31
710.11	43.51
710.429	43.81
710.748	44
711.067	44.41
711.386	44.73
711.705	44.73
712.023	45.19
712.342	44.1
712.661	43.84
712.979	44.61
713.298	44.56
713.616	44.68
713.935	44.84
714.253	44.68
714.572	44.57
714.89	44.68
715.208	44.34
715.526	44.49
715.844	44.53
716.162	45.4
716.48	45.07
716.798	43.88
717.116	45.57
717.434	44.77
717.752	44.47
718.069	44.29
718.387	44.19
718.705	45.58
719.022	44.3
719.34	44.92
719.657	44.49
719.975	45.82
720.292	45.99
720.609	45.98
720.927	45.93
721.244	46.61
721.561	45.87
721.878	46.53
722.195	44.75
722.512	47.03
722.829	45.51
723.146	46.27
723.463	45.21
723.779	46.63
724.096	45.38
724.413	45.88
724.729	46.15
725.046	45.03
725.362	46.77
725.679	46.37
725.995	46.48
726.311	44.84
726.628	45.02
726.944	46.31
727.26	46.07
727.576	46.33
727.892	46.04
728.208	46.22
728.524	44.69
728.84	44.87
729.156	46.99
729.472	45.11
729.787	46.17
730.103	47.81
730.419	46.02
730.734	45.55
731.05	46.2
731.365	45.6
731.681	46.57
731.996	47.1
732.311	47.18
732.626	48.08
732.942	46.56
733.257	47.65
733.572	48.22
733.887	46.74
734.202	46.67
734.517	48.09
734.832	47.01
735.146	47.35
735.461	46.59
735.776	47.07
736.091	47.22
736.405	48.74
736.72	46.67
737.034	46.64
737.349	48.4
737.663	47.65
737.977	47.08
738.292	48.52
738.606	48.6
738.92	48.63
739.234	49.1
739.548	48.79
739.862	49.45
740.176	48.58
740.49	46.83
740.804	49.01
741.117	48.07
741.431	47.4
741.745	47.39
742.058	47.05
742.372	46.71
742.685	47.22
742.999	49.02
743.312	46.64
743.626	47.85
743.939	47.96
744.252	50.01
744.565	48.14
744.878	48.07
745.191	47.37
745.505	46.51
745.817	50.53
746.13	48.41
746.443	49.24
746.756	48.32
747.069	48.13
747.381	47.93
747.694	47.84
748.007	48.79
748.319	50.56
748.632	49.87
748.944	48.92
749.256	49.09
749.569	49
749.881	48.7
750.193	50.3
750.505	45.58
750.817	47.97
751.129	48.29
751.441	48.95
751.753	50.63
752.065	49.78
752.377	50.65
752.689	50.47
753	50.04
753.312	49.02
753.624	49.36
753.935	51.92
754.247	50.91
754.558	50.68
754.869	50.15
755.181	49.27
755.492	49.96
755.803	48.61
756.114	49.04
756.425	47.75
756.736	50.22
757.047	52.38
757.358	49.64
757.669	49.11
757.98	50.41
758.291	50.31
758.601	52.27
758.912	50.46
759.223	50.34
759.533	51.8
759.844	48.89
760.154	50.39
760.464	51.21
760.775	50.59
761.085	49.08
761.395	51.31
761.705	51.83
762.016	50.6
762.326	49.2
762.636	50.42
762.945	49.76
763.255	51.41
763.565	50.01
763.875	49.71
764.185	51.62
764.494	49.66
764.804	52.21
765.113	49.48
765.423	49.07
765.732	51.77
766.042	49.97
766.351	50.36
766.66	52.21
766.97	51.9
767.279	49.92
767.588	53.61
767.897	52.1
768.206	50.21
768.515	52.3
768.824	50.07
769.133	50.87
769.441	50.57
769.75	49.97
770.059	52.49
770.367	51.35
770.676	54.02
770.984	52.07
771.293	50.93
771.601	53.72
771.91	48.61
772.218	54.67
772.526	52.19
772.834	48.88
773.142	49.67
773.45	50.95
773.758	49.87
774.066	53.71
774.374	49.99
774.682	52.63
774.99	55.64
775.298	51.49
775.605	49.93
775.913	49.55
776.22	51.95
776.528	54.3
776.835	54.55
777.143	50.2
777.45	51.06
777.757	50.96
778.065	54.02
778.372	55.22
778.679	54
778.986	48.9
779.293	52.14
779.6	57.3
779.907	53.63
780.214	55.5
780.52	53.19
780.827	54.72
781.134	51.95
781.44	53.45
781.747	53.33
782.053	50.73
782.36	49.72
782.666	54.34
782.973	56.51
783.279	55.43
783.585	52.71
783.891	51.33
784.197	53.27
784.503	49.7
784.809	52.84
785.115	52.91
785.421	56.64
785.727	57.44
786.033	54.53
786.339	53.32
786.644	54.1
786.95	57.6
787.255	58.78
787.561	55.5
787.866	50.99
788.172	51.74
788.477	55.99
788.782	52.62
789.088	46.68
789.393	51.01
789.698	54.55
790.003	52.97
790.308	52.64
790.613	53.67
790.918	55.3
791.223	55.21
791.527	52.35
791.832	52.51
792.137	50.62
792.441	49.82
792.746	53.43
793.05	50.83
793.355	56.35
793.659	56.68
793.963	50.39
794.268	51.04
794.572	54.53
794.876	49.67
795.18	51.38
795.484	52.18
795.788	57.45
796.092	53.08
796.396	55.89
796.7	54.71
797.004	53.55
797.307	52.1
797.611	55.58
797.915	49.86
798.218	52.28
798.522	55.43
798.825	52.4
799.128	53.01
799.432	51.62
799.735	52.45
800.038	52.58
800.341	53.51
800.644	52.6
800.947	55.4
801.25	53
801.553	53.58
801.856	52.68
802.159	54.85
802.462	56.18
802.764	52.09
803.067	54.88
803.37	55.34
803.672	54.75
803.975	56.17
804.277	56.39
804.579	54.65
804.882	60.39
805.184	51.56
805.486	53.77
805.788	53.67
806.09	54.84
806.392	50.21
806.694	54
806.996	57.66
807.298	58.91
807.6	57.56
807.902	53.71
808.203	51.67
808.505	59.69
808.807	50.32
809.108	58.93
809.409	54.33
809.711	51.53
810.012	53.08
810.313	58.01
810.615	50.29
810.916	54.76
811.217	48.45
811.518	56.44
811.819	50.72
812.12	51.18
812.421	52.91
812.722	55.79
813.023	55.22
813.323	56.42
813.624	51.96
813.925	60.65
814.225	52.75
814.526	61.73
814.826	57.78
815.126	53.97
815.427	44.12
815.727	44.89
816.027	49.96
816.327	49.14
816.627	57.85
816.927	51.11
817.227	59.88
817.527	54.04
817.827	59.3
818.127	53.36
818.427	51.99
818.727	48.53
819.026	56.8
819.326	59.82
819.625	55.96
819.925	51.31
820.224	55.29
820.524	57
820.823	51.21
821.122	48.16
821.421	52.99
821.72	57.93
822.019	53.4
822.318	53.03
822.617	48.61
822.916	58.26
823.215	55.77
823.514	56.09
823.813	56.66
824.111	54.25
824.41	58.58
824.709	58.13
825.007	58.93
825.306	58.32
825.604	58.82
825.902	56.99
826.201	57.49
826.499	57.4
826.797	57.23
827.095	59.1
827.393	57.5
827.691	59.2
827.989	55.73
828.287	56
828.585	56.28
828.882	58.53
829.18	57.86
829.478	61.07
829.775	57.46
830.073	56.97
830.37	58.63
830.668	56.81
830.965	59.2
831.263	58.8
831.56	56.73
831.857	59.67
832.154	57.7
832.451	56.3
832.748	59.03
833.045	60.99
833.342	59.3
833.639	56.26
833.936	52.81
834.232	54.15
834.529	62.15
834.826	59.56
835.122	58.21
835.419	64
835.715	52.81
836.012	55.23
836.308	56.3
836.604	54.53
836.901	58.07
837.197	56.59
837.493	60
837.789	54.8
838.085	59.65
838.381	57.86
838.677	57.62
838.972	51.54
839.268	57.02
839.564	54.48
839.86	60.84
840.155	52.4
840.451	52.93
840.746	49.84
841.042	61.76
841.337	54.69
841.632	61.6
841.928	64.09
842.223	59.12
842.518	52.54
842.813	59.84
843.108	54.57
843.403	63.31
843.698	53.61
843.993	47.48
844.287	61.88
844.582	53.88
844.877	57.52
845.171	60.79
845.466	55.98
845.761	61.99
846.055	50.28
846.349	55.93
846.644	58.81
846.938	41.38
847.232	64.48
847.526	59.08
847.82	64.96
848.114	51.63
848.408	40.6
848.702	38.83
848.996	42.27
849.29	56.58
849.584	69.83
849.877	69.11
850.171	55.7
850.465	51.75
850.758	46.97
851.052	40.45
851.345	48.01
851.638	48.14
851.932	76.9
852.225	51.99
852.518	78.84
852.811	44.47
853.104	37.81
853.397	54.8
853.69	63.04
853.983	45.54
854.276	82.71
854.569	50.35
854.861	53.41
855.154	73.24
855.447	49.22
855.739	48.74
856.032	35
856.324	59.75
856.616	74.4
856.909	64.91
857.201	47.61
857.493	61.83
857.785	39.13
858.077	56.11
858.369	57.26
858.661	56.71
858.953	25.32
859.245	81.02
859.537	65.5
859.829	82.93
860.12	56.67
860.412	66.07
860.703	42.54
860.995	55.26
861.286	28.69
861.578	45.75
861.869	76.95
862.16	70.6
862.452	63.88
862.743	32.5
863.034	45.77
863.325	41.76
863.616	41.52
863.907	29.36
864.198	25.61
864.488	69.07
864.779	38.17
865.07	63.05
865.36	61.62
865.651	26.13
865.941	44.21
866.232	31.87
866.522	46.6
866.813	52.51
867.103	54.96
867.393	51.28
867.683	49.98
867.973	43.26
868.263	59.48
868.553	64.25
868.843	50.23
869.133	16.08
869.423	37.28
869.713	42.77
870.002	62.16
870.292	73.69
870.582	52.1
870.871	90.21
871.161	45.18
871.45	21.54
871.739	43.73
872.029	22.72
872.318	47.45
872.607	64.87
872.896	43.03
873.185	51.19
873.474	50.54
873.763	31.52
874.052	64.52
874.341	74.48
874.63	62.09
874.918	61.64
875.207	56.09
875.496	53.86
875.784	-23.02
876.073	5.39
876.361	40.38
876.649	42.18
876.938	39.25
877.226	65.03
877.514	52.74
877.802	39.63
878.09	49.52
878.378	77.08
878.666	39.89
878.954	31.12
879.242	36.47
879.53	99.51
879.817	49.25
880.105	39.05
880.392	70.58
880.68	54.04
880.967	91.47
881.255	47.22
881.542	31.36
881.83	106.35
882.117	52.06
882.404	5.05
882.691	53.98
882.978	37.71
883.265	97.72
883.552	50.88
883.839	42.03
884.126	61.18
884.413	67.05
884.699	72.93
884.986	53.09
885.273	60.73
885.559	60.73
885.846	60.73
