Data from 434_chest_Reflection__0__247.txt Node

Date: Fri Dec 15 18:34:07 CST 2023
User: ToomeyLab
Spectrometer: FLMS14357
Trigger mode: 0
Integration Time (sec): 1.000000E-2
Scans to average: 100
Electric dark correction enabled: true
Nonlinearity correction enabled: false
Boxcar width: 0
XAxis mode: Wavelengths
Number of Pixels in Spectrum: 2048
>>>>>Begin Spectral Data<<<<<
189.047	16.88
189.435	16.88
189.823	16.88
190.211	239.28
190.599	105.65
190.987	55.54
191.375	-183.9
191.763	-162.77
192.151	13.62
192.538	87.32
192.926	-1713.53
193.314	130.15
193.702	-200.65
194.089	289.91
194.477	-93.16
194.864	-42.63
195.252	79.17
195.639	30.88
196.027	-118.76
196.414	244.43
196.801	1713.19
197.189	62.14
197.576	365.24
197.963	-27.28
198.351	-78.5
198.738	-26.57
199.125	9.91
199.512	0.8
199.899	-9.15
200.286	25.77
200.673	46.14
201.06	-8.68
201.447	1.47
201.833	-18.52
202.22	50.58
202.607	7.96
202.994	-24
203.38	0.47
203.767	43.14
204.154	61.21
204.54	22.81
204.927	36.86
205.313	-10.13
205.699	19.31
206.086	21.78
206.472	28.3
206.858	10.08
207.245	-17.85
207.631	-8.48
208.017	10.82
208.403	-8.91
208.789	25.4
209.175	5.05
209.561	-11
209.947	67.97
210.333	-45.12
210.719	7.68
211.105	62.74
211.491	-42.31
211.876	31.97
212.262	13.21
212.648	-24.59
213.034	21.25
213.419	-4.01
213.805	-14.19
214.19	-42.52
214.576	1.06
214.961	-24.97
215.346	-60.79
215.732	5.3
216.117	-15.89
216.502	-28.82
216.888	-8.03
217.273	8.22
217.658	-10.77
218.043	43.6
218.428	-61.49
218.813	-25.72
219.198	-14.32
219.583	14.39
219.968	-9.09
220.353	-40.74
220.738	25.21
221.122	6.44
221.507	-33.04
221.892	-36.13
222.276	-24.34
222.661	-1.61
223.046	15.31
223.43	12.04
223.815	6.43
224.199	4.43
224.583	2.3
224.968	0.76
225.352	21.1
225.736	-9.83
226.121	-14.51
226.505	6.78
226.889	7.7
227.273	1.68
227.657	15.41
228.041	5.63
228.425	2.57
228.809	8.7
229.193	3.96
229.577	2.18
229.961	4.33
230.344	4.66
230.728	4.4
231.112	4.88
231.495	4.62
231.879	4.28
232.263	4.97
232.646	4.4
233.03	6.2
233.413	4.38
233.797	3.35
234.18	3.28
234.563	6.45
234.946	2.59
235.33	5.04
235.713	3.07
236.096	4.04
236.479	5.19
236.862	2.99
237.245	4.11
237.628	4.99
238.011	3.76
238.394	5.47
238.777	3.66
239.16	3.1
239.543	4.01
239.925	5.35
240.308	4.19
240.691	4.52
241.073	5.55
241.456	4.52
241.838	4.94
242.221	3.61
242.603	4.3
242.986	3.55
243.368	5.15
243.75	4.95
244.133	4.31
244.515	4.8
244.897	4.34
245.279	4.88
245.661	4.97
246.043	3.12
246.425	3.77
246.807	5.46
247.189	4.7
247.571	4.21
247.953	4.51
248.335	4.37
248.717	4.52
249.098	4.67
249.48	4.55
249.862	4.6
250.243	4.37
250.625	4.6
251.006	4.42
251.388	3.65
251.769	3.94
252.151	4.96
252.532	5.16
252.913	3.52
253.295	3.59
253.676	4.65
254.057	4.41
254.438	4.22
254.819	4.41
255.2	3.9
255.581	3.99
255.962	3.91
256.343	6.03
256.724	4.16
257.105	5.24
257.486	4.46
257.867	4.93
258.247	4.46
258.628	3.72
259.009	4.65
259.389	4.03
259.77	4.19
260.15	2.83
260.531	4.03
260.911	5.14
261.292	4.18
261.672	4.54
262.052	4.41
262.432	4.38
262.813	4.18
263.193	3.85
263.573	3.85
263.953	4.05
264.333	4.36
264.713	4.63
265.093	4.19
265.473	4.19
265.853	4.31
266.233	4.23
266.612	2.17
266.992	3.41
267.372	4.07
267.752	4.5
268.131	3.94
268.511	4.26
268.89	4.5
269.27	3.85
269.649	3.3
270.029	3.76
270.408	4.96
270.787	3.94
271.167	4.47
271.546	4.55
271.925	3.72
272.304	4.51
272.683	4.16
273.062	4.04
273.441	4.28
273.82	3.6
274.199	4.48
274.578	4.02
274.957	4.1
275.336	4.15
275.715	3.83
276.093	3.72
276.472	4.43
276.851	4.07
277.229	3.47
277.608	3.64
277.986	3.36
278.365	3.87
278.743	3.6
279.122	4.21
279.5	3.82
279.878	4.73
280.257	3.97
280.635	2.72
281.013	3.35
281.391	4.46
281.769	4.22
282.147	3.96
282.525	4.41
282.903	4.04
283.281	4.38
283.659	4.1
284.037	4.06
284.415	4.37
284.792	4.34
285.17	3.61
285.548	3.76
285.925	4.12
286.303	4.32
286.68	3.95
287.058	4.13
287.435	3.72
287.813	4.13
288.19	4
288.567	3.67
288.945	4.69
289.322	4.03
289.699	4.28
290.076	4.38
290.453	4.08
290.83	3.61
291.207	3.78
291.584	4.13
291.961	4.77
292.338	4.37
292.715	4.42
293.092	4.12
293.469	4.24
293.845	4.82
294.222	3.7
294.599	3.92
294.975	4.16
295.352	4.09
295.728	4.06
296.105	3.86
296.481	4.34
296.858	4.13
297.234	4.08
297.61	4.12
297.986	4.09
298.363	4.66
298.739	4.62
299.115	4.13
299.491	3.99
299.867	4.23
300.243	4.54
300.619	4.07
300.995	4.11
301.371	4.2
301.746	4.03
302.122	5.17
302.498	4.29
302.874	4.4
303.249	4.44
303.625	4.65
304	4.43
304.376	4.45
304.751	3.91
305.127	4.92
305.502	3.8
305.878	3.87
306.253	4.36
306.628	4.58
307.003	4.22
307.378	4.43
307.754	4.69
308.129	3.75
308.504	4.19
308.879	4.38
309.254	5
309.629	4.78
310.003	5.07
310.378	4.64
310.753	5.07
311.128	4.72
311.502	4.43
311.877	4.56
312.252	4.26
312.626	4.73
313.001	4.45
313.375	4.54
313.75	4.62
314.124	4.81
314.498	4.66
314.873	4.48
315.247	3.81
315.621	4.58
315.995	4.17
316.369	4.9
316.743	3.78
317.117	4.76
317.491	4.58
317.865	4.85
318.239	4.21
318.613	4.53
318.987	4.82
319.361	4.15
319.734	5.36
320.108	4.79
320.482	4.65
320.855	5.03
321.229	5.12
321.602	4.68
321.976	4.87
322.349	5.28
322.723	4.12
323.096	5.06
323.469	3.2
323.843	4.29
324.216	5.03
324.589	4.45
324.962	4.68
325.335	5.03
325.708	4.93
326.081	4.55
326.454	4.79
326.827	4.41
327.2	5.29
327.573	5.15
327.945	4.21
328.318	4.42
328.691	4.62
329.063	4.9
329.436	4.63
329.809	5.09
330.181	4.22
330.553	4.42
330.926	4.57
331.298	5.04
331.671	4.44
332.043	4.83
332.415	4.4
332.787	4.54
333.159	5.23
333.532	4.59
333.904	4.71
334.276	4.43
334.648	4.93
335.02	4.85
335.391	4.58
335.763	4.38
336.135	4.3
336.507	4.78
336.879	4.6
337.25	4.01
337.622	4.74
337.993	4.69
338.365	4.71
338.736	4.64
339.108	4.6
339.479	4.65
339.851	5.09
340.222	4.67
340.593	4.73
340.964	4.38
341.336	5.38
341.707	4.03
342.078	5.07
342.449	4.96
342.82	4.89
343.191	4.75
343.562	4.7
343.933	4.91
344.303	4.94
344.674	4.74
345.045	5.2
345.416	5.41
345.786	4.45
346.157	4.91
346.527	4.37
346.898	4.9
347.268	4.82
347.639	4.67
348.009	4.2
348.38	4.48
348.75	4.31
349.12	4.62
349.49	5.61
349.861	5.02
350.231	4.9
350.601	4.81
350.971	5.01
351.341	4.75
351.711	4.7
352.081	4.91
352.45	4.7
352.82	4.56
353.19	4.74
353.56	4.92
353.929	5.15
354.299	5.28
354.669	4.8
355.038	5.11
355.408	4.72
355.777	5.12
356.147	4.85
356.516	5.32
356.885	5.41
357.254	4.94
357.624	5.04
357.993	5.28
358.362	4.84
358.731	4.68
359.1	5.07
359.469	4.91
359.838	5.21
360.207	5.03
360.576	4.9
360.945	4.56
361.314	5.2
361.682	4.8
362.051	5.13
362.42	5.22
362.788	4.97
363.157	5.14
363.525	5.07
363.894	5.09
364.262	4.91
364.631	5.11
364.999	4.94
365.367	4.8
365.735	5.8
366.104	5.5
366.472	5.15
366.84	4.9
367.208	5.02
367.576	5.4
367.944	5.14
368.312	4.87
368.68	4.57
369.048	5.26
369.416	5.14
369.783	4.5
370.151	5.08
370.519	5.49
370.886	5.1
371.254	4.96
371.621	5.25
371.989	5.08
372.356	4.43
372.724	5.27
373.091	5.1
373.458	5.31
373.826	5.12
374.193	4.9
374.56	5.16
374.927	5.31
375.294	4.98
375.661	4.98
376.028	5.45
376.395	4.85
376.762	5.06
377.129	5.06
377.496	5.16
377.863	4.81
378.229	4.94
378.596	5.35
378.963	5.15
379.329	4.67
379.696	5.56
380.062	5.42
380.429	5.19
380.795	4.95
381.161	5.38
381.528	5.39
381.894	5.13
382.26	5.06
382.626	5.18
382.993	4.83
383.359	5.5
383.725	5.03
384.091	5.31
384.457	5.53
384.823	5.14
385.188	5.45
385.554	5.37
385.92	5.43
386.286	5.52
386.651	5.48
387.017	5.32
387.383	5.15
387.748	5.18
388.114	5.38
388.479	5
388.845	5.31
389.21	5.49
389.575	5.49
389.94	5.22
390.306	5.54
390.671	5.82
391.036	4.87
391.401	4.99
391.766	5.42
392.131	5.18
392.496	5.36
392.861	5.1
393.226	5.56
393.591	5.46
393.956	4.99
394.32	5.15
394.685	5.4
395.05	5.17
395.414	5.44
395.779	5.14
396.143	5.5
396.508	5.5
396.872	5.55
397.236	5.38
397.601	4.94
397.965	5.1
398.329	5.63
398.694	5.43
399.058	5.47
399.422	5.1
399.786	5.54
400.15	5.3
400.514	5.55
400.878	5.56
401.242	5.53
401.605	5.3
401.969	5.34
402.333	5.23
402.697	5.41
403.06	5.59
403.424	5.34
403.787	5.26
404.151	5.63
404.514	5.39
404.878	5.19
405.241	5.37
405.604	5.21
405.968	5.61
406.331	5.38
406.694	5.37
407.057	5.37
407.42	5.42
407.783	5.33
408.146	5.32
408.509	5.45
408.872	5.54
409.235	5.6
409.598	5.8
409.961	5.22
410.323	5.61
410.686	5.46
411.049	5.35
411.411	5.26
411.774	5.44
412.136	5.4
412.499	5.49
412.861	5.5
413.223	5.14
413.586	5.6
413.948	5.41
414.31	5.65
414.672	5.22
415.035	5.36
415.397	5.79
415.759	5.15
416.121	5.33
416.483	5.35
416.845	5.37
417.206	5.34
417.568	5.55
417.93	5.31
418.292	5.51
418.653	5.59
419.015	5.54
419.377	5.4
419.738	5.6
420.1	5.51
420.461	5.42
420.822	5.5
421.184	5.31
421.545	5.44
421.906	5.36
422.267	5.44
422.629	5.42
422.99	5.47
423.351	5.43
423.712	5.39
424.073	5.41
424.434	5.4
424.795	5.41
425.155	5.48
425.516	5.25
425.877	5.44
426.238	5.38
426.598	5.45
426.959	5.42
427.32	5.53
427.68	5.49
428.041	5.33
428.401	5.63
428.761	5.63
429.122	5.55
429.482	5.35
429.842	5.65
430.202	5.6
430.563	5.48
430.923	5.49
431.283	5.75
431.643	5.65
432.003	5.71
432.363	5.55
432.722	5.56
433.082	5.68
433.442	5.57
433.802	5.47
434.161	5.58
434.521	5.81
434.881	5.73
435.24	5.41
435.6	5.58
435.959	5.66
436.319	5.68
436.678	5.68
437.037	5.51
437.396	5.79
437.756	5.67
438.115	5.63
438.474	5.66
438.833	5.54
439.192	5.61
439.551	5.89
439.91	5.67
440.269	5.66
440.628	5.7
440.987	5.62
441.345	5.55
441.704	5.71
442.063	5.73
442.421	5.54
442.78	5.74
443.138	5.62
443.497	5.67
443.855	5.62
444.214	5.75
444.572	5.73
444.93	5.78
445.288	5.77
445.647	5.72
446.005	5.58
446.363	5.83
446.721	5.73
447.079	5.53
447.437	5.62
447.795	5.79
448.153	5.53
448.51	5.67
448.868	5.67
449.226	5.73
449.584	5.57
449.941	5.91
450.299	5.71
450.656	5.71
451.014	5.73
451.371	5.58
451.729	5.79
452.086	5.87
452.443	5.77
452.801	5.79
453.158	5.68
453.515	5.73
453.872	5.88
454.229	5.64
454.586	5.69
454.943	5.75
455.3	5.97
455.657	5.87
456.014	5.79
456.371	5.73
456.727	5.88
457.084	6.09
457.441	5.85
457.797	5.88
458.154	5.89
458.51	5.86
458.867	6.02
459.223	6.04
459.58	5.8
459.936	5.95
460.292	5.94
460.648	5.88
461.005	5.98
461.361	5.9
461.717	5.93
462.073	5.67
462.429	5.8
462.785	5.81
463.141	5.9
463.496	6.01
463.852	5.94
464.208	5.83
464.564	6.14
464.919	5.91
465.275	6.04
465.631	6.08
465.986	5.9
466.342	6.05
466.697	5.68
467.052	6.15
467.408	6.05
467.763	5.91
468.118	5.91
468.473	6.04
468.829	5.85
469.184	6.01
469.539	6.14
469.894	5.86
470.249	6.18
470.603	6.15
470.958	6.18
471.313	6.22
471.668	6.19
472.023	6.03
472.377	6.13
472.732	6.06
473.086	6.01
473.441	5.95
473.795	6.22
474.15	5.99
474.504	5.87
474.859	6.26
475.213	6
475.567	5.9
475.921	6.04
476.275	6.07
476.63	6.1
476.984	6
477.338	6.36
477.692	6.05
478.045	6.09
478.399	5.98
478.753	6.07
479.107	6.04
479.461	6.07
479.814	6.13
480.168	6.21
480.521	5.97
480.875	6.03
481.228	6.02
481.582	6.07
481.935	6.06
482.289	5.95
482.642	6.1
482.995	5.98
483.348	5.94
483.701	6.09
484.055	6.09
484.408	6.18
484.761	5.93
485.114	5.8
485.466	5.74
485.819	5.73
486.172	5.75
486.525	5.82
486.878	5.92
487.23	5.91
487.583	6.05
487.936	6.12
488.288	6.01
488.641	6.05
488.993	5.91
489.345	5.89
489.698	5.86
490.05	5.84
490.402	6
490.754	5.94
491.107	6.11
491.459	6.21
491.811	6.15
492.163	6.15
492.515	6.16
492.866	6.17
493.218	6.1
493.57	5.96
493.922	5.95
494.274	6.17
494.625	6.23
494.977	6.27
495.328	6.24
495.68	6.22
496.031	6.3
496.383	6.36
496.734	6.44
497.086	6.5
497.437	6.38
497.788	6.23
498.139	6.21
498.49	6.35
498.842	6.14
499.193	6.33
499.544	6.26
499.894	6.29
500.245	6.47
500.596	6.25
500.947	6.35
501.298	6.4
501.648	6.47
501.999	6.42
502.35	6.48
502.7	6.54
503.051	6.29
503.401	6.49
503.752	6.52
504.102	6.47
504.452	6.45
504.803	6.46
505.153	6.34
505.503	6.46
505.853	6.46
506.203	6.53
506.553	6.52
506.903	6.53
507.253	6.56
507.603	6.46
507.953	6.6
508.303	6.75
508.652	6.29
509.002	6.67
509.352	6.53
509.701	6.45
510.051	6.61
510.4	6.53
510.75	6.58
511.099	6.58
511.449	6.43
511.798	6.55
512.147	6.51
512.496	6.46
512.846	6.71
513.195	6.61
513.544	6.7
513.893	6.7
514.242	6.57
514.591	6.76
514.939	6.66
515.288	6.73
515.637	6.78
515.986	6.83
516.334	6.68
516.683	6.84
517.032	6.91
517.38	6.86
517.729	6.79
518.077	6.66
518.426	6.75
518.774	6.88
519.122	6.74
519.47	6.68
519.819	6.64
520.167	6.78
520.515	6.76
520.863	6.72
521.211	6.88
521.559	6.84
521.907	6.69
522.255	6.78
522.602	6.89
522.95	6.79
523.298	6.87
523.645	6.98
523.993	6.84
524.341	6.99
524.688	7.02
525.036	6.9
525.383	7.04
525.73	7.02
526.078	7.02
526.425	6.82
526.772	7.08
527.119	6.85
527.466	6.88
527.814	6.9
528.161	6.95
528.508	6.98
528.854	6.92
529.201	6.89
529.548	6.86
529.895	6.88
530.242	6.73
530.588	6.71
530.935	6.76
531.282	6.85
531.628	6.82
531.975	7.04
532.321	6.96
532.667	7.09
533.014	7.11
533.36	7.15
533.706	7.14
534.052	7.13
534.399	7.12
534.745	7.05
535.091	6.95
535.437	7.01
535.783	7.13
536.129	7.21
536.474	7.28
536.82	7.21
537.166	7.33
537.512	7.41
537.857	7.39
538.203	7.28
538.549	7.23
538.894	7.32
539.239	7.33
539.585	7.44
539.93	7.34
540.276	7.56
540.621	7.54
540.966	7.5
541.311	7.46
541.656	7.43
542.001	7.56
542.346	7.52
542.691	7.42
543.036	7.28
543.381	7.25
543.726	7.28
544.071	7.51
544.415	7.51
544.76	7.51
545.105	7.58
545.449	7.57
545.794	7.68
546.138	7.69
546.483	7.79
546.827	7.78
547.171	7.75
547.516	7.84
547.86	7.68
548.204	7.76
548.548	7.69
548.892	7.82
549.236	7.76
549.58	7.86
549.924	8.02
550.268	8.03
550.612	8.07
550.956	8.03
551.3	8.1
551.643	8.23
551.987	8.19
552.33	8.14
552.674	8.18
553.017	8.19
553.361	8.17
553.704	8.21
554.048	8.06
554.391	8.05
554.734	8.14
555.077	8.14
555.42	8.1
555.764	8.22
556.107	8.08
556.45	8.26
556.793	8.43
557.135	8.35
557.478	8.46
557.821	8.48
558.164	8.36
558.507	8.71
558.849	8.55
559.192	8.54
559.534	8.65
559.877	8.63
560.219	8.43
560.562	8.6
560.904	8.56
561.246	8.69
561.589	8.81
561.931	8.73
562.273	8.65
562.615	8.79
562.957	8.86
563.299	8.51
563.641	8.81
563.983	8.81
564.325	8.43
564.667	8.71
565.008	8.9
565.35	8.75
565.692	8.65
566.033	8.89
566.375	9.15
566.716	9.07
567.058	8.77
567.399	8.84
567.741	8.78
568.082	8.8
568.423	8.85
568.764	8.85
569.105	9.05
569.447	9.15
569.788	9.1
570.129	9.08
570.47	9.09
570.811	9.19
571.151	9.11
571.492	9.21
571.833	9.12
572.174	9.18
572.514	9.14
572.855	9.16
573.195	9.41
573.536	9.41
573.876	9.13
574.217	9.26
574.557	9.4
574.898	9.49
575.238	9.51
575.578	9.3
575.918	9.64
576.258	9.6
576.598	9.6
576.938	9.57
577.278	9.75
577.618	9.6
577.958	9.64
578.298	9.67
578.638	9.76
578.977	9.59
579.317	9.69
579.657	9.81
579.996	9.86
580.336	9.82
580.675	10.04
581.014	9.99
581.354	10.06
581.693	9.82
582.032	9.65
582.372	9.83
582.711	9.99
583.05	9.81
583.389	10.13
583.728	9.96
584.067	10.18
584.406	9.98
584.745	10.19
585.083	10.32
585.422	10.25
585.761	10.26
586.1	10.24
586.438	10.17
586.777	10.39
587.115	10.49
587.454	10.22
587.792	10.28
588.13	10.62
588.469	10.44
588.807	10.44
589.145	10.35
589.483	10.5
589.821	10.56
590.159	10.37
590.497	11.02
590.835	11.15
591.173	10.67
591.511	11.05
591.849	10.91
592.187	10.83
592.524	10.9
592.862	10.76
593.2	11.04
593.537	10.98
593.875	10.79
594.212	11.01
594.55	11.05
594.887	11.27
595.224	10.91
595.561	10.96
595.899	10.98
596.236	11.03
596.573	11.2
596.91	10.76
597.247	10.9
597.584	11.31
597.921	11.26
598.258	11.12
598.594	11.27
598.931	11.33
599.268	11.35
599.604	11.11
599.941	11.51
600.277	11.29
600.614	11.28
600.95	11.27
601.287	11.46
601.623	11.56
601.959	11.58
602.296	11.57
602.632	11.65
602.968	11.65
603.304	11.69
603.64	11.66
603.976	11.7
604.312	11.54
604.648	11.5
604.984	11.85
605.319	11.9
605.655	11.73
605.991	11.91
606.326	11.79
606.662	11.9
606.998	11.7
607.333	11.96
607.668	12.05
608.004	12.15
608.339	12.25
608.674	12.05
609.01	12.31
609.345	11.95
609.68	12.09
610.015	12.22
610.35	12.23
610.685	12.1
611.02	12.02
611.355	12.44
611.689	12.26
612.024	12.42
612.359	12.62
612.694	12.23
613.028	12.44
613.363	12.7
613.697	12.71
614.032	12.84
614.366	12.48
614.7	12.88
615.035	12.63
615.369	12.56
615.703	12.73
616.037	12.88
616.371	12.23
616.705	12.62
617.039	12.72
617.373	12.57
617.707	12.44
618.041	12.59
618.375	13.01
618.709	13.18
619.042	12.9
619.376	13.34
619.71	13.22
620.043	12.8
620.377	12.75
620.71	13.14
621.043	12.99
621.377	12.96
621.71	13.64
622.043	13.03
622.376	12.97
622.709	13.29
623.043	13.68
623.376	13.92
623.709	13.28
624.041	13.97
624.374	13.43
624.707	13.48
625.04	13.67
625.373	13.22
625.705	13.39
626.038	13.38
626.37	13.29
626.703	13.72
627.035	14
627.368	14.16
627.7	13.75
628.032	13.85
628.365	14.06
628.697	13.74
629.029	13.74
629.361	13.96
629.693	13.87
630.025	13.83
630.357	14.37
630.689	14.38
631.021	13.96
631.353	14.15
631.684	13.91
632.016	13.86
632.348	14.37
632.679	14.15
633.011	14.36
633.342	14.62
633.674	14.31
634.005	14.68
634.336	14.65
634.668	14.71
634.999	14.39
635.33	14.6
635.661	14.88
635.992	14.67
636.323	14.81
636.654	14.97
636.985	14.52
637.316	14.55
637.647	14.61
637.977	14.76
638.308	14.93
638.639	15.07
638.969	14.96
639.3	14.65
639.63	14.55
639.961	15.15
640.291	14.55
640.622	15.45
640.952	15.13
641.282	15.61
641.612	14.93
641.943	14.83
642.273	15.09
642.603	15.23
642.933	15.62
643.263	15.72
643.592	14.95
643.922	15.29
644.252	15.24
644.582	15.59
644.911	14.83
645.241	15.07
645.571	15.76
645.9	15.25
646.23	15.27
646.559	16.12
646.888	15.09
647.218	15.75
647.547	15.64
647.876	15.41
648.205	15.95
648.534	15.61
648.863	15.03
649.192	15.94
649.521	15.46
649.85	15.97
650.179	16.03
650.508	16.03
650.837	15.78
651.165	16.05
651.494	15.89
651.822	16.14
652.151	16.07
652.479	16.29
652.808	16.22
653.136	16.08
653.465	15.98
653.793	16.09
654.121	16.08
654.449	16.86
654.777	16.43
655.105	16.28
655.433	16.24
655.761	16.03
656.089	16.74
656.417	15.88
656.745	16.56
657.073	16.09
657.4	17.44
657.728	16.46
658.056	16.81
658.383	16.48
658.711	16.99
659.038	16.8
659.365	17
659.693	16.56
660.02	16.4
660.347	16.87
660.674	16.96
661.001	17.03
661.329	16.5
661.656	16.6
661.982	17.01
662.309	16.82
662.636	16.63
662.963	17.44
663.29	17.32
663.616	17.24
663.943	17.13
664.27	17.41
664.596	17.52
664.923	17.6
665.249	17.51
665.576	16.85
665.902	18.12
666.228	17.17
666.554	17.77
666.881	16.81
667.207	17.49
667.533	17.23
667.859	18.03
668.185	18.36
668.511	17.21
668.837	17.15
669.162	17.44
669.488	17.29
669.814	17.91
670.139	18.1
670.465	18.25
670.791	17.85
671.116	18.54
671.442	18.14
671.767	17.84
672.092	18.47
672.418	18.6
672.743	18.59
673.068	17.97
673.393	18.64
673.718	18.59
674.043	18.23
674.368	18.18
674.693	18.97
675.018	18.2
675.343	18.71
675.667	18.99
675.992	18.33
676.317	19.54
676.641	19.09
676.966	18.49
677.29	19.01
677.615	19.13
677.939	19.35
678.264	18.93
678.588	18.79
678.912	19.22
679.236	19.08
679.56	18.23
679.885	18.93
680.209	18.73
680.532	19.12
680.856	18.89
681.18	18.64
681.504	18.91
681.828	19.89
682.152	18.73
682.475	19.47
682.799	19.63
683.122	19.34
683.446	19.25
683.769	19.24
684.093	19.6
684.416	19.73
684.739	19.76
685.062	19.29
685.386	19.2
685.709	19.35
686.032	19.4
686.355	19.94
686.678	19.25
687.001	19.54
687.324	19.53
687.646	19.46
687.969	19.99
688.292	19.73
688.614	19.39
688.937	20.35
689.26	19.75
689.582	20.25
689.904	19.92
690.227	19.89
690.549	20.03
690.871	20.94
691.194	20.35
691.516	19.34
691.838	19.79
692.16	19.58
692.482	19.91
692.804	20.77
693.126	20.95
693.448	20.26
693.769	20.51
694.091	20.21
694.413	20.86
694.735	19.63
695.056	20.7
695.378	19.92
695.699	20.64
696.021	20.36
696.342	20.35
696.663	20.42
696.984	20.52
697.306	19.4
697.627	20.67
697.948	21.87
698.269	21.41
698.59	20.91
698.911	20.69
699.232	20.33
699.553	20.83
699.873	20.93
700.194	21.45
700.515	21.29
700.835	20.79
701.156	21.66
701.477	20.59
701.797	20.7
702.117	21.18
702.438	21.53
702.758	21.05
703.078	21.09
703.398	20.35
703.719	20.6
704.039	21.35
704.359	22.77
704.679	21.91
704.999	20.52
705.319	21.39
705.638	21.29
705.958	22.16
706.278	21.8
706.597	22.29
706.917	20.53
707.237	22.38
707.556	20.64
707.876	22.08
708.195	22.04
708.514	22.02
708.834	21.8
709.153	22.18
709.472	22.22
709.791	23.48
710.11	22.26
710.429	21.65
710.748	23.22
711.067	21.49
711.386	22.73
711.705	22.92
712.023	21.95
712.342	22.26
712.661	21.15
712.979	21.33
713.298	21.74
713.616	22.96
713.935	23.47
714.253	21.97
714.572	23.39
714.89	23.27
715.208	23.48
715.526	21.44
715.844	22.07
716.162	22.85
716.48	22.76
716.798	23.05
717.116	22.83
717.434	22.35
717.752	21.53
718.069	23.46
718.387	23.58
718.705	22.78
719.022	21.74
719.34	23.34
719.657	22.81
719.975	23.21
720.292	23.36
720.609	22.83
720.927	22.23
721.244	24.49
721.561	23.16
721.878	23.2
722.195	21.18
722.512	24.46
722.829	22.26
723.146	23.63
723.463	24.47
723.779	22.97
724.096	24.16
724.413	22.8
724.729	23.41
725.046	23.16
725.362	24.71
725.679	23.26
725.995	22.87
726.311	22.07
726.628	23.29
726.944	24.1
727.26	22.8
727.576	24.49
727.892	22.76
728.208	23.57
728.524	23.1
728.84	22.66
729.156	23.98
729.472	23.02
729.787	23.96
730.103	24.26
730.419	23.15
730.734	23.08
731.05	24.24
731.365	23.86
731.681	24.09
731.996	24.98
732.311	23.07
732.626	23.5
732.942	23.29
733.257	25.57
733.572	25.36
733.887	23.72
734.202	24.84
734.517	24.32
734.832	24.19
735.146	24.77
735.461	26.11
735.776	24.31
736.091	25.36
736.405	25.7
736.72	23.59
737.034	24.8
737.349	26.2
737.663	24.31
737.977	26.02
738.292	25.56
738.606	25.35
738.92	27.85
739.234	24.88
739.548	24.68
739.862	25.61
740.176	23.63
740.49	25.51
740.804	26.46
741.117	25.6
741.431	24.52
741.745	23.1
742.058	27.53
742.372	24.2
742.685	24.69
742.999	24.48
743.312	25.27
743.626	26.31
743.939	25.03
744.252	26.49
744.565	24.98
744.878	24.42
745.191	23.1
745.505	24.63
745.817	27.25
746.13	24.59
746.443	25.47
746.756	26.52
747.069	24.8
747.381	26.26
747.694	26.95
748.007	26.9
748.319	25.72
748.632	27.22
748.944	28.81
749.256	27.63
749.569	25.29
749.881	25.78
750.193	24.51
750.505	24.64
750.817	26.52
751.129	26.29
751.441	26.43
751.753	26.91
752.065	27.42
752.377	26.3
752.689	25.93
753	26.18
753.312	23.4
753.624	28.94
753.935	27.84
754.247	25.26
754.558	27.77
754.869	28.24
755.181	27.61
755.492	28.47
755.803	25.68
756.114	26.57
756.425	26.3
756.736	26.09
757.047	27.94
757.358	27.25
757.669	25.13
757.98	25.7
758.291	25
758.601	27.78
758.912	28.19
759.223	27.37
759.533	26.53
759.844	27.4
760.154	27.09
760.464	27.93
760.775	28.58
761.085	27.3
761.395	28.94
761.705	26.33
762.016	26.66
762.326	27.9
762.636	27.22
762.945	26.4
763.255	27.71
763.565	27.99
763.875	26.32
764.185	27.17
764.494	28.01
764.804	29.77
765.113	27.96
765.423	28
765.732	28.59
766.042	26.87
766.351	27.32
766.66	28.88
766.97	28.22
767.279	27.31
767.588	28.99
767.897	29.76
768.206	28.6
768.515	27.95
768.824	25.8
769.133	27.42
769.441	28.4
769.75	30.17
770.059	28.78
770.367	26.93
770.676	30.45
770.984	27.75
771.293	29.4
771.601	30.46
771.91	27.98
772.218	30.14
772.526	31.53
772.834	28.57
773.142	26.9
773.45	27.34
773.758	26.06
774.066	27.37
774.374	26.35
774.682	26.93
774.99	31.81
775.298	26.47
775.605	26.68
775.913	25.85
776.22	29.42
776.528	30.39
776.835	32.13
777.143	27.49
777.45	27.55
777.757	30.04
778.065	28.87
778.372	28.41
778.679	28.54
778.986	26.47
779.293	29.28
779.6	28.15
779.907	26.83
780.214	31.39
780.52	29.28
780.827	31.27
781.134	29.41
781.44	26.39
781.747	28.99
782.053	27.04
782.36	22.78
782.666	34.58
782.973	31.47
783.279	28.77
783.585	28.9
783.891	27.63
784.197	26.62
784.503	29.39
784.809	29.68
785.115	29.52
785.421	31.53
785.727	31.5
786.033	27.78
786.339	26.9
786.644	27.57
786.95	25.61
787.255	35.42
787.561	30.38
787.866	27.71
788.172	26.61
788.477	24.5
788.782	32.6
789.088	30.41
789.393	29.33
789.698	27.95
790.003	29.33
790.308	30.5
790.613	27.53
790.918	28.77
791.223	28.64
791.527	26.96
791.832	31.93
792.137	26.12
792.441	29.98
792.746	30.57
793.05	27.69
793.355	32.27
793.659	31.55
793.963	30.91
794.268	31.6
794.572	34.98
794.876	29.61
795.18	25.95
795.484	29.94
795.788	27.08
796.092	31.91
796.396	29.43
796.7	32.05
797.004	30.6
797.307	27.84
797.611	34
797.915	26.43
798.218	32.38
798.522	30.62
798.825	29.28
799.128	27.59
799.432	28.35
799.735	29.08
800.038	33.57
800.341	32.1
800.644	31.93
800.947	29.43
801.25	28.58
801.553	28.3
801.856	27.49
802.159	26.49
802.462	37.17
802.764	30.24
803.067	30.15
803.37	32.2
803.672	26.92
803.975	31.75
804.277	31.17
804.579	27.5
804.882	30.08
805.184	29.36
805.486	26.92
805.788	28.79
806.09	36.94
806.392	32.01
806.694	34.51
806.996	33.66
807.298	35.73
807.6	31.34
807.902	33.58
808.203	31.43
808.505	32.33
808.807	29.29
809.108	30.8
809.409	35.5
809.711	28.03
810.012	32.17
810.313	28.92
810.615	34.02
810.916	30.75
811.217	32.05
811.518	30.42
811.819	31.46
812.12	29.38
812.421	24.71
812.722	34.06
813.023	33.25
813.323	24.32
813.624	28.15
813.925	35.42
814.225	26.55
814.526	36.48
814.826	36.42
815.126	24.12
815.427	33.35
815.727	27.48
816.027	27.31
816.327	34.87
816.627	34.11
816.927	36.32
817.227	30.55
817.527	29.54
817.827	38.87
818.127	38.19
818.427	30.7
818.727	29.32
819.026	35.22
819.326	39.19
819.625	29.9
819.925	32.06
820.224	37.12
820.524	27.22
820.823	35.76
821.122	26.08
821.421	32.83
821.72	31.41
822.019	31.92
822.318	32.17
822.617	26.38
822.916	33.34
823.215	32.24
823.514	35.96
823.813	32.08
824.111	33.48
824.41	37.76
824.709	34.9
825.007	33.12
825.306	34.54
825.604	34.7
825.902	33.96
826.201	33.73
826.499	34.17
826.797	35.25
827.095	35.34
827.393	34.95
827.691	35.35
827.989	34.36
828.287	34.43
828.585	33.68
828.882	34.69
829.18	35.81
829.478	37.68
829.775	34.75
830.073	35.17
830.37	37.17
830.668	32.31
830.965	37.6
831.263	32.91
831.56	33.8
831.857	33.22
832.154	31.42
832.451	36.49
832.748	34.43
833.045	35.35
833.342	34.58
833.639	30.99
833.936	34.97
834.232	42.5
834.529	39.03
834.826	28.73
835.122	37.74
835.419	31.7
835.715	35.75
836.012	33.68
836.308	30.62
836.604	32.81
836.901	35.11
837.197	32.25
837.493	34.38
837.789	34.76
838.085	36.69
838.381	34.27
838.677	34.27
838.972	33.15
839.268	39.39
839.564	31.45
839.86	33.55
840.155	30.42
840.451	27.58
840.746	30.57
841.042	37.45
841.337	32.87
841.632	27.68
841.928	34.69
842.223	40.01
842.518	35.6
842.813	36.01
843.108	35.96
843.403	43.68
843.698	32.86
843.993	29.8
844.287	30.82
844.582	29.03
844.877	31.59
845.171	34.01
845.466	32.64
845.761	42.44
846.055	30.97
846.349	39.62
846.644	33.61
846.938	24.42
847.232	35.83
847.526	38.98
847.82	40.53
848.114	14.65
848.408	22.55
848.702	42.96
848.996	3.25
849.29	50.32
849.584	53.73
849.877	36.3
850.171	40.91
850.465	12.4
850.758	29.7
851.052	30.89
851.345	22.97
851.638	40.48
851.932	3.72
852.225	26.93
852.518	25.1
852.811	23.5
853.104	13.03
853.397	39.51
853.69	23.74
853.983	-5.45
854.276	26.97
854.569	28.78
854.861	30.16
855.154	58.74
855.447	15.48
855.739	38.31
856.032	22.48
856.324	58.74
856.616	41.41
856.909	47.9
857.201	63.23
857.493	17.04
857.785	-6.49
858.077	28.14
858.369	33.99
858.661	24.28
858.953	28.84
859.245	24.59
859.537	30.22
859.829	49.56
860.12	27.71
860.412	52.89
860.703	4.65
860.995	14.89
861.286	28.76
861.578	25.39
861.869	28
862.16	44.57
862.452	43.4
862.743	29.79
863.034	31.8
863.325	13.57
863.616	38.82
863.907	25.74
864.198	6.13
864.488	35.22
864.779	34.33
865.07	27.19
865.36	23.89
865.651	19.25
865.941	36.16
866.232	20.19
866.522	-19.32
866.813	19.99
867.103	51.63
867.393	40.06
867.683	36.75
867.973	47.96
868.263	35.8
868.553	35.85
868.843	10.22
869.133	3.91
869.423	13.71
869.713	31.45
870.002	33.08
870.292	34.52
870.582	29.34
870.871	6.59
871.161	12.18
871.45	19.69
871.739	45.77
872.029	11.28
872.318	37.72
872.607	53.65
872.896	24.44
873.185	36.82
873.474	-30.88
873.763	35.68
874.052	44.24
874.341	46.84
874.63	25.82
874.918	61.94
875.207	50.37
875.496	47.37
875.784	-23.21
876.073	-24.77
876.361	-16.09
876.649	19.99
876.938	21.81
877.226	17.15
877.514	45.3
877.802	30.58
878.09	28.82
878.378	52.56
878.666	46.03
878.954	44.51
879.242	38.98
879.53	40.55
879.817	33.65
880.105	37.06
880.392	20.06
880.68	35.71
880.967	48.87
881.255	63.12
881.542	56.92
881.83	-91.83
882.117	27.53
882.404	-0.74
882.691	51.37
882.978	31.32
883.265	49.89
883.552	61
883.839	35.93
884.126	32.27
884.413	52.02
884.699	48.1
884.986	38.23
885.273	39.44
885.559	39.44
885.846	39.44
