Data from 0046_crown_Reflection__4__175.txt Node

Date: Fri Nov 04 16:15:22 CDT 2022
User: ToomeyLab
Spectrometer: FLMS14357
Trigger mode: 0
Integration Time (sec): 1.000000E-2
Scans to average: 100
Electric dark correction enabled: true
Nonlinearity correction enabled: false
Boxcar width: 0
XAxis mode: Wavelengths
Number of Pixels in Spectrum: 2048
>>>>>Begin Spectral Data<<<<<
189.047	8.55
189.435	8.55
189.823	8.55
190.211	46.9
190.599	77.71
190.987	420.17
191.375	404.6
191.763	53.53
192.151	65.46
192.538	93.31
192.926	-16.33
193.314	78.39
193.702	48.85
194.089	99.79
194.477	50.64
194.864	-14.69
195.252	122.02
195.639	-169.78
196.027	-113.95
196.414	370.81
196.801	66.45
197.189	-128.8
197.576	135.88
197.963	22.05
198.351	5.87
198.738	8.61
199.125	-0.46
199.512	-73.27
199.899	-6.12
200.286	36.92
200.673	-35.84
201.06	0.26
201.447	-24.08
201.833	-29.89
202.22	-1.41
202.607	0.72
202.994	25.22
203.38	33.82
203.767	16.68
204.154	20.85
204.54	-42.14
204.927	-11.91
205.313	36.17
205.699	22.32
206.086	13.95
206.472	-23.22
206.858	19.58
207.245	-27.19
207.631	10.62
208.017	-0.19
208.403	32.06
208.789	25.46
209.175	12.32
209.561	-42.52
209.947	-83.65
210.333	20.3
210.719	-28.61
211.105	-59.92
211.491	14.98
211.876	2
212.262	-11.4
212.648	0.13
213.034	14.43
213.419	19.99
213.805	-5.01
214.19	-78.72
214.576	-18.03
214.961	10.06
215.346	-2.8
215.732	4.74
216.117	-28.22
216.502	3.69
216.888	-38.15
217.273	-7.02
217.658	-9.66
218.043	8.53
218.428	8.65
218.813	10.64
219.198	-15.14
219.583	-25.57
219.968	-9.37
220.353	-61.95
220.738	-45.54
221.122	-1.93
221.507	15.42
221.892	-14.31
222.276	-8
222.661	7.09
223.046	3.99
223.43	3.83
223.815	-8.61
224.199	9.64
224.583	2.25
224.968	-5.84
225.352	3.79
225.736	-2.83
226.121	-4.33
226.505	2.28
226.889	-1.46
227.273	3.72
227.657	1.67
228.041	4.84
228.425	5.64
228.809	5.89
229.193	4.76
229.577	1.83
229.961	6.36
230.344	6
230.728	6.24
231.112	5.29
231.495	5.33
231.879	5.39
232.263	4.21
232.646	3.55
233.03	5.29
233.413	4.24
233.797	3.89
234.18	5.85
234.563	5.66
234.946	2.84
235.33	6.75
235.713	5.25
236.096	6.11
236.479	3.86
236.862	3.68
237.245	4.56
237.628	5.09
238.011	2
238.394	7.35
238.777	3.63
239.16	5.34
239.543	4.88
239.925	5.07
240.308	6.87
240.691	5.11
241.073	6.46
241.456	4.63
241.838	4.48
242.221	4.4
242.603	4.12
242.986	4.38
243.368	5.1
243.75	5.28
244.133	5.06
244.515	5.24
244.897	4.98
245.279	5.15
245.661	5.75
246.043	5.84
246.425	4.38
246.807	6.18
247.189	4.9
247.571	5.23
247.953	5.16
248.335	4.95
248.717	5.01
249.098	4.83
249.48	4.94
249.862	5.29
250.243	5.1
250.625	4.45
251.006	4.85
251.388	4.68
251.769	4.94
252.151	4.85
252.532	4.9
252.913	4.31
253.295	4.78
253.676	4.94
254.057	4.39
254.438	4.89
254.819	4.55
255.2	3.78
255.581	5.04
255.962	5.24
256.343	4.19
256.724	4.27
257.105	4.2
257.486	4.97
257.867	6.2
258.247	3.9
258.628	4.21
259.009	3.96
259.389	4.67
259.77	5.13
260.15	4.73
260.531	4.21
260.911	4.32
261.292	4.27
261.672	4.37
262.052	4.44
262.432	4.47
262.813	4.2
263.193	3.85
263.573	4.06
263.953	4.46
264.333	4.48
264.713	4.12
265.093	3.9
265.473	4.92
265.853	3.53
266.233	4.47
266.612	4.17
266.992	4.26
267.372	3.5
267.752	3.99
268.131	4.36
268.511	4.09
268.89	4.05
269.27	4.29
269.649	4.19
270.029	4.04
270.408	4.29
270.787	4.44
271.167	4.04
271.546	4.82
271.925	4.18
272.304	3.42
272.683	3.83
273.062	4.01
273.441	4.11
273.82	3.77
274.199	4.1
274.578	3.83
274.957	4.08
275.336	3.71
275.715	3.96
276.093	4.31
276.472	3.87
276.851	3.66
277.229	3.87
277.608	4.33
277.986	4.32
278.365	4.1
278.743	3.94
279.122	3.91
279.5	3.8
279.878	3.73
280.257	3.23
280.635	3.29
281.013	3.78
281.391	4.13
281.769	4.07
282.147	3.54
282.525	3.92
282.903	3.62
283.281	4.12
283.659	3.81
284.037	3.3
284.415	3.44
284.792	4.05
285.17	3.42
285.548	3.81
285.925	3.94
286.303	3.84
286.68	4
287.058	3.83
287.435	3.66
287.813	3.79
288.19	3.76
288.567	3.74
288.945	3.81
289.322	3.71
289.699	3.89
290.076	3.56
290.453	3.45
290.83	3.39
291.207	3.45
291.584	3.89
291.961	3.92
292.338	3.86
292.715	3.74
293.092	3.57
293.469	4.1
293.845	3.36
294.222	3.55
294.599	3.14
294.975	3.61
295.352	3.54
295.728	3.82
296.105	3.59
296.481	3.68
296.858	3.33
297.234	4.39
297.61	3.65
297.986	3.15
298.363	3.61
298.739	3.55
299.115	3.66
299.491	3.67
299.867	3.35
300.243	3.73
300.619	3.87
300.995	3.81
301.371	3.99
301.746	3.42
302.122	3.44
302.498	3.48
302.874	3.39
303.249	3.34
303.625	3.33
304	3.45
304.376	3.29
304.751	3.56
305.127	3.5
305.502	3.38
305.878	3.71
306.253	3.73
306.628	3.42
307.003	3.41
307.378	3.55
307.754	3.54
308.129	2.57
308.504	3.47
308.879	3.77
309.254	3.11
309.629	3.6
310.003	3.39
310.378	3.86
310.753	3.78
311.128	3.27
311.502	2.75
311.877	3.82
312.252	3.32
312.626	3.17
313.001	3.33
313.375	3.56
313.75	3.29
314.124	3.29
314.498	3.54
314.873	3.59
315.247	3.81
315.621	3.51
315.995	3.76
316.369	3.11
316.743	3.95
317.117	3.95
317.491	3.18
317.865	3.33
318.239	3.13
318.613	3.81
318.987	3.49
319.361	3.72
319.734	3.72
320.108	3.53
320.482	3.08
320.855	3.64
321.229	3.44
321.602	3.45
321.976	3.58
322.349	4
322.723	3.2
323.096	4.15
323.469	3.7
323.843	3.21
324.216	3.47
324.589	3.69
324.962	3.46
325.335	3.4
325.708	3.21
326.081	3.14
326.454	3.53
326.827	3.66
327.2	3.66
327.573	3.37
327.945	3.98
328.318	3.18
328.691	3.51
329.063	3.01
329.436	3.33
329.809	3.71
330.181	3.33
330.553	3.21
330.926	3.76
331.298	3.45
331.671	3.34
332.043	3.87
332.415	3.65
332.787	3.54
333.159	3.44
333.532	2.72
333.904	4.02
334.276	3.41
334.648	3.43
335.02	3.02
335.391	3.62
335.763	3.55
336.135	3.74
336.507	3.71
336.879	3.28
337.25	3.63
337.622	3.6
337.993	3.51
338.365	3.28
338.736	3.66
339.108	4.16
339.479	3.59
339.851	3.72
340.222	3.29
340.593	3.56
340.964	3.75
341.336	3.47
341.707	3.43
342.078	3.94
342.449	3.93
342.82	3.51
343.191	3.44
343.562	3.65
343.933	3.88
344.303	3.67
344.674	3.91
345.045	3.47
345.416	3.4
345.786	3.87
346.157	3.57
346.527	4
346.898	4.15
347.268	3.94
347.639	3.81
348.009	4.14
348.38	3.67
348.75	3.73
349.12	3.84
349.49	3.71
349.861	3.4
350.231	4.1
350.601	3.97
350.971	3.2
351.341	3.55
351.711	3.7
352.081	3.84
352.45	3.66
352.82	3.6
353.19	3.67
353.56	4.15
353.929	3.48
354.299	4.13
354.669	4.29
355.038	4.11
355.408	3.48
355.777	3.81
356.147	3.81
356.516	3.68
356.885	3.54
357.254	3.73
357.624	3.82
357.993	3.74
358.362	3.6
358.731	3.78
359.1	3.87
359.469	4.01
359.838	4.09
360.207	3.76
360.576	4.05
360.945	4
361.314	3.98
361.682	3.8
362.051	4
362.42	3.83
362.788	3.76
363.157	3.73
363.525	3.79
363.894	4.04
364.262	3.96
364.631	4.14
364.999	4.12
365.367	3.78
365.735	4.2
366.104	4.02
366.472	4.21
366.84	3.71
367.208	4.11
367.576	3.75
367.944	3.96
368.312	3.97
368.68	3.99
369.048	3.93
369.416	3.97
369.783	3.94
370.151	3.89
370.519	4.44
370.886	3.96
371.254	4
371.621	3.95
371.989	4.28
372.356	4.02
372.724	4.09
373.091	4.09
373.458	4.19
373.826	4.17
374.193	4.08
374.56	3.83
374.927	4.55
375.294	3.97
375.661	4.09
376.028	3.84
376.395	4.2
376.762	4.35
377.129	4.25
377.496	4.25
377.863	4.12
378.229	3.86
378.596	4.13
378.963	4.1
379.329	4.13
379.696	3.97
380.062	4.6
380.429	3.98
380.795	3.93
381.161	4.27
381.528	4.41
381.894	3.77
382.26	4.12
382.626	3.93
382.993	4.3
383.359	3.88
383.725	4.15
384.091	4.29
384.457	4.2
384.823	4.25
385.188	4.35
385.554	4.1
385.92	3.93
386.286	4.04
386.651	4.34
387.017	4.11
387.383	4.39
387.748	3.93
388.114	3.97
388.479	4.67
388.845	4.34
389.21	4.52
389.575	4.49
389.94	4.44
390.306	4.5
390.671	4.6
391.036	4.19
391.401	4.4
391.766	4.14
392.131	4.33
392.496	4.32
392.861	4.43
393.226	4.22
393.591	4.3
393.956	4.48
394.32	4.36
394.685	4.32
395.05	4.57
395.414	4.17
395.779	4.13
396.143	4.11
396.508	4.18
396.872	4.31
397.236	4.29
397.601	4.45
397.965	4.41
398.329	4.37
398.694	4.51
399.058	4.36
399.422	4.25
399.786	4.16
400.15	4.22
400.514	4.23
400.878	4.06
401.242	4.54
401.605	4.13
401.969	4.3
402.333	4.39
402.697	4.44
403.06	4.35
403.424	4.47
403.787	4.24
404.151	4.37
404.514	4.32
404.878	4.27
405.241	4.32
405.604	4.56
405.968	4.33
406.331	4.25
406.694	4.14
407.057	4.56
407.42	4.3
407.783	4.34
408.146	4.38
408.509	4.49
408.872	4.5
409.235	4.44
409.598	4.46
409.961	4.27
410.323	4.33
410.686	4.38
411.049	4.43
411.411	4.25
411.774	4.36
412.136	4.56
412.499	4.43
412.861	4.55
413.223	4.48
413.586	4.34
413.948	4.45
414.31	4.29
414.672	4.81
415.035	4.62
415.397	4.25
415.759	4.62
416.121	4.36
416.483	4.54
416.845	4.46
417.206	4.51
417.568	4.66
417.93	4.47
418.292	4.4
418.653	4.52
419.015	4.49
419.377	4.41
419.738	4.41
420.1	4.5
420.461	4.41
420.822	4.29
421.184	4.33
421.545	4.33
421.906	4.43
422.267	4.27
422.629	4.45
422.99	4.27
423.351	4.21
423.712	4.42
424.073	4.36
424.434	4.42
424.795	4.41
425.155	4.41
425.516	4.4
425.877	4.38
426.238	4.31
426.598	4.4
426.959	4.28
427.32	4.22
427.68	4.36
428.041	4.41
428.401	4.47
428.761	4.45
429.122	4.44
429.482	4.51
429.842	4.37
430.202	4.55
430.563	4.46
430.923	4.61
431.283	4.45
431.643	4.46
432.003	4.61
432.363	4.51
432.722	4.52
433.082	4.57
433.442	4.46
433.802	4.59
434.161	4.57
434.521	4.37
434.881	4.5
435.24	4.27
435.6	4.64
435.959	4.42
436.319	4.42
436.678	4.44
437.037	4.55
437.396	4.58
437.756	4.48
438.115	4.43
438.474	4.49
438.833	4.57
439.192	4.49
439.551	4.49
439.91	4.65
440.269	4.59
440.628	4.57
440.987	4.49
441.345	4.44
441.704	4.45
442.063	4.42
442.421	4.5
442.78	4.42
443.138	4.4
443.497	4.33
443.855	4.47
444.214	4.53
444.572	4.43
444.93	4.4
445.288	4.46
445.647	4.48
446.005	4.47
446.363	4.57
446.721	4.36
447.079	4.44
447.437	4.37
447.795	4.41
448.153	4.37
448.51	4.46
448.868	4.41
449.226	4.3
449.584	4.38
449.941	4.39
450.299	4.45
450.656	4.48
451.014	4.51
451.371	4.57
451.729	4.5
452.086	4.44
452.443	4.48
452.801	4.5
453.158	4.6
453.515	4.6
453.872	4.39
454.229	4.54
454.586	4.49
454.943	4.59
455.3	4.44
455.657	4.49
456.014	4.51
456.371	4.44
456.727	4.5
457.084	4.52
457.441	4.43
457.797	4.41
458.154	4.53
458.51	4.54
458.867	4.49
459.223	4.56
459.58	4.8
459.936	4.35
460.292	4.59
460.648	4.46
461.005	4.42
461.361	4.42
461.717	4.46
462.073	4.45
462.429	4.45
462.785	4.43
463.141	4.49
463.496	4.34
463.852	4.67
464.208	4.56
464.564	4.48
464.919	4.59
465.275	4.64
465.631	4.61
465.986	4.51
466.342	4.54
466.697	4.47
467.052	4.48
467.408	4.51
467.763	4.61
468.118	4.7
468.473	4.53
468.829	4.29
469.184	4.49
469.539	4.45
469.894	4.59
470.249	4.37
470.603	4.57
470.958	4.48
471.313	4.54
471.668	4.47
472.023	4.45
472.377	4.68
472.732	4.42
473.086	4.6
473.441	4.56
473.795	4.48
474.15	4.54
474.504	4.51
474.859	4.53
475.213	4.52
475.567	4.5
475.921	4.53
476.275	4.59
476.63	4.49
476.984	4.44
477.338	4.61
477.692	4.51
478.045	4.6
478.399	4.36
478.753	4.49
479.107	4.59
479.461	4.54
479.814	4.65
480.168	4.52
480.521	4.44
480.875	4.49
481.228	4.48
481.582	4.52
481.935	4.41
482.289	4.49
482.642	4.54
482.995	4.56
483.348	4.41
483.701	4.51
484.055	4.37
484.408	4.45
484.761	4.47
485.114	4.29
485.466	4.22
485.819	4.18
486.172	4.18
486.525	4.23
486.878	4.31
487.23	4.37
487.583	4.31
487.936	4.37
488.288	4.36
488.641	4.35
488.993	4.3
489.345	4.23
489.698	4.26
490.05	4.29
490.402	4.28
490.754	4.34
491.107	4.36
491.459	4.44
491.811	4.35
492.163	4.51
492.515	4.48
492.866	4.38
493.218	4.32
493.57	4.26
493.922	4.32
494.274	4.26
494.625	4.35
494.977	4.42
495.328	4.47
495.68	4.39
496.031	4.42
496.383	4.42
496.734	4.37
497.086	4.63
497.437	4.66
497.788	4.59
498.139	4.41
498.49	4.34
498.842	4.59
499.193	4.46
499.544	4.45
499.894	4.37
500.245	4.44
500.596	4.39
500.947	4.44
501.298	4.5
501.648	4.47
501.999	4.61
502.35	4.43
502.7	4.5
503.051	4.44
503.401	4.46
503.752	4.52
504.102	4.52
504.452	4.45
504.803	4.65
505.153	4.49
505.503	4.53
505.853	4.47
506.203	4.44
506.553	4.5
506.903	4.43
507.253	4.45
507.603	4.32
507.953	4.43
508.303	4.42
508.652	4.38
509.002	4.55
509.352	4.51
509.701	4.36
510.051	4.4
510.4	4.32
510.75	4.34
511.099	4.38
511.449	4.36
511.798	4.34
512.147	4.39
512.496	4.24
512.846	4.23
513.195	4.43
513.544	4.29
513.893	4.35
514.242	4.35
514.591	4.39
514.939	4.41
515.288	4.42
515.637	4.45
515.986	4.42
516.334	4.33
516.683	4.43
517.032	4.42
517.38	4.5
517.729	4.38
518.077	4.37
518.426	4.33
518.774	4.45
519.122	4.32
519.47	4.34
519.819	4.36
520.167	4.4
520.515	4.17
520.863	4.24
521.211	4.28
521.559	4.38
521.907	4.33
522.255	4.44
522.602	4.34
522.95	4.39
523.298	4.43
523.645	4.39
523.993	4.41
524.341	4.38
524.688	4.38
525.036	4.4
525.383	4.37
525.73	4.41
526.078	4.37
526.425	4.36
526.772	4.31
527.119	4.26
527.466	4.32
527.814	4.23
528.161	4.23
528.508	4.22
528.854	4.23
529.201	4.25
529.548	4.31
529.895	4.15
530.242	4.08
530.588	4.05
530.935	4.08
531.282	4.08
531.628	4.1
531.975	4.13
532.321	4.22
532.667	4.22
533.014	4.28
533.36	4.24
533.706	4.3
534.052	4.26
534.399	4.2
534.745	4.21
535.091	4.07
535.437	4.12
535.783	4.1
536.129	4.19
536.474	4.19
536.82	4.2
537.166	4.28
537.512	4.21
537.857	4.23
538.203	4.15
538.549	4.12
538.894	4.24
539.239	4.19
539.585	4.18
539.93	4.24
540.276	4.27
540.621	4.23
540.966	4.26
541.311	4.18
541.656	4.26
542.001	4.21
542.346	4.2
542.691	4.11
543.036	4.09
543.381	4.03
543.726	4.07
544.071	4.03
544.415	4.06
544.76	4.14
545.105	4.16
545.449	4.21
545.794	4.2
546.138	4.12
546.483	4.14
546.827	4.22
547.171	4.15
547.516	4.22
547.86	4.09
548.204	4.2
548.548	4.07
548.892	4.05
549.236	4.12
549.58	4.19
549.924	4.22
550.268	4.23
550.612	4.13
550.956	4.25
551.3	4.21
551.643	4.21
551.987	4.17
552.33	4.21
552.674	4.2
553.017	4.24
553.361	4.31
553.704	4.19
554.048	4.15
554.391	4.04
554.734	4.25
555.077	4.19
555.42	4.19
555.764	4.24
556.107	4.32
556.45	4.21
556.793	4.29
557.135	4.18
557.478	4.01
557.821	4.3
558.164	4.32
558.507	4.22
558.849	4.37
559.192	4.33
559.534	4.21
559.877	4.19
560.219	4.22
560.562	4.09
560.904	4.18
561.246	4.15
561.589	4.31
561.931	4.06
562.273	4.31
562.615	4.02
562.957	4.18
563.299	3.99
563.641	4.16
563.983	4.14
564.325	4.11
564.667	4.19
565.008	4.07
565.35	4.15
565.692	4.32
566.033	4.23
566.375	4.23
566.716	4.21
567.058	4.28
567.399	4.1
567.741	4.15
568.082	4.15
568.423	4.03
568.764	3.96
569.105	4.16
569.447	4.1
569.788	4.1
570.129	4.12
570.47	4.09
570.811	4.26
571.151	3.98
571.492	4.25
571.833	4.02
572.174	4.19
572.514	4.11
572.855	3.98
573.195	4.09
573.536	3.97
573.876	3.97
574.217	3.89
574.557	3.94
574.898	4.1
575.238	3.95
575.578	4.2
575.918	4.08
576.258	3.91
576.598	4.05
576.938	4.09
577.278	3.92
577.618	3.95
577.958	3.95
578.298	4.05
578.638	4.01
578.977	4.14
579.317	4.05
579.657	3.97
579.996	4.09
580.336	3.96
580.675	3.96
581.014	4.2
581.354	3.96
581.693	4.16
582.032	3.99
582.372	4.2
582.711	3.98
583.05	4.01
583.389	4
583.728	4.19
584.067	4.17
584.406	3.78
584.745	4.18
585.083	3.9
585.422	4.05
585.761	3.9
586.1	3.75
586.438	3.82
586.777	4.06
587.115	3.89
587.454	4.17
587.792	4.16
588.13	4.09
588.469	4.17
588.807	4.18
589.145	4.2
589.483	3.8
589.821	3.81
590.159	3.91
590.497	4.14
590.835	3.96
591.173	3.72
591.511	4.06
591.849	4.11
592.187	3.75
592.524	4.03
592.862	3.93
593.2	3.86
593.537	3.97
593.875	4.07
594.212	3.72
594.55	3.88
594.887	4.18
595.224	4.08
595.561	3.67
595.899	3.89
596.236	4.14
596.573	4.18
596.91	3.97
597.247	4.01
597.584	3.82
597.921	4.03
598.258	3.93
598.594	3.66
598.931	3.98
599.268	3.85
599.604	3.7
599.941	3.96
600.277	3.89
600.614	3.93
600.95	3.96
601.287	3.77
601.623	3.75
601.959	3.76
602.296	3.96
602.632	4.04
602.968	3.92
603.304	3.69
603.64	3.71
603.976	3.71
604.312	3.94
604.648	3.92
604.984	3.7
605.319	3.8
605.655	3.86
605.991	3.83
606.326	3.85
606.662	3.69
606.998	3.58
607.333	3.73
607.668	4.01
608.004	3.73
608.339	3.85
608.674	3.88
609.01	3.84
609.345	3.85
609.68	3.99
610.015	3.73
610.35	3.84
610.685	3.89
611.02	3.89
611.355	3.71
611.689	3.85
612.024	3.72
612.359	3.72
612.694	3.87
613.028	4.02
613.363	4.1
613.697	3.54
614.032	3.83
614.366	3.82
614.7	3.63
615.035	3.84
615.369	3.83
615.703	3.97
616.037	3.6
616.371	4.04
616.705	3.68
617.039	4.14
617.373	4.12
617.707	4.05
618.041	3.71
618.375	3.57
618.709	3.95
619.042	3.67
619.376	3.8
619.71	3.69
620.043	3.75
620.377	4.22
620.71	3.93
621.043	3.68
621.377	3.87
621.71	4.14
622.043	3.97
622.376	4
622.709	3.87
623.043	3.61
623.376	4.1
623.709	3.84
624.041	4.06
624.374	3.61
624.707	3.83
625.04	4.11
625.373	3.91
625.705	3.68
626.038	3.66
626.37	3.96
626.703	4.03
627.035	3.78
627.368	3.87
627.7	3.83
628.032	3.69
628.365	3.89
628.697	3.75
629.029	3.54
629.361	3.74
629.693	3.9
630.025	3.87
630.357	3.82
630.689	3.64
631.021	3.34
631.353	3.65
631.684	4.03
632.016	4.06
632.348	3.93
632.679	4.04
633.011	3.97
633.342	3.96
633.674	3.88
634.005	3.83
634.336	3.85
634.668	3.9
634.999	4.15
635.33	3.36
635.661	4.14
635.992	3.99
636.323	3.74
636.654	3.48
636.985	3.78
637.316	3.61
637.647	3.51
637.977	4.04
638.308	4.2
638.639	3.85
638.969	3.61
639.3	4.21
639.63	3.71
639.961	3.9
640.291	3.95
640.622	3.93
640.952	3.65
641.282	3.86
641.612	4.05
641.943	3.54
642.273	3.77
642.603	3.79
642.933	3.53
643.263	3.66
643.592	3.8
643.922	4.18
644.252	3.71
644.582	3.67
644.911	3.85
645.241	3.71
645.571	3.75
645.9	3.77
646.23	3.72
646.559	3.98
646.888	3.78
647.218	3.97
647.547	3.69
647.876	3.86
648.205	3.39
648.534	3.71
648.863	3.79
649.192	3.89
649.521	3.77
649.85	4.35
650.179	3.68
650.508	3.77
650.837	3.97
651.165	4.03
651.494	3.88
651.822	3.6
652.151	3.86
652.479	3.38
652.808	3.24
653.136	4.01
653.465	4.02
653.793	3.93
654.121	3.75
654.449	3.53
654.777	3.59
655.105	3.84
655.433	3.68
655.761	3.74
656.089	3.73
656.417	3.64
656.745	3.21
657.073	3.26
657.4	3.68
657.728	3.66
658.056	3.54
658.383	3.75
658.711	3.76
659.038	4
659.365	4.32
659.693	4.06
660.02	3.99
660.347	3.53
660.674	3.59
661.001	3.94
661.329	3.98
661.656	3.77
661.982	3.28
662.309	3.87
662.636	3.71
662.963	3.42
663.29	3.71
663.616	4.05
663.943	4.1
664.27	4.06
664.596	3.81
664.923	3.46
665.249	3.93
665.576	3.71
665.902	3.52
666.228	3.33
666.554	4.22
666.881	3.86
667.207	3.73
667.533	3.8
667.859	4.14
668.185	3.91
668.511	4.07
668.837	3.16
669.162	3.93
669.488	2.93
669.814	3.7
670.139	3.46
670.465	4.2
670.791	4.11
671.116	3.63
671.442	3.95
671.767	3.56
672.092	3.73
672.418	3.7
672.743	4.37
673.068	4.07
673.393	4.21
673.718	4.17
674.043	3.3
674.368	3.12
674.693	3.88
675.018	3.71
675.343	3.66
675.667	3.93
675.992	3.79
676.317	3.87
676.641	4.05
676.966	3.96
677.29	3.73
677.615	4.37
677.939	3.85
678.264	4.41
678.588	3.71
678.912	4.49
679.236	4.1
679.56	3.48
679.885	4.26
680.209	3.51
680.532	3.69
680.856	3.61
681.18	3.11
681.504	3.93
681.828	3.37
682.152	4.04
682.475	3.62
682.799	3.89
683.122	3.98
683.446	3.87
683.769	3.26
684.093	3.91
684.416	3.59
684.739	3.7
685.062	4.21
685.386	3.26
685.709	3.99
686.032	4.49
686.355	4.04
686.678	4.2
687.001	3.87
687.324	3.7
687.646	4.16
687.969	3.25
688.292	3.7
688.614	4.22
688.937	3.99
689.26	3.41
689.582	3.82
689.904	4.14
690.227	3.86
690.549	4.43
690.871	3.92
691.194	4.18
691.516	4.15
691.838	3.86
692.16	4.25
692.482	4
692.804	3.93
693.126	3.99
693.448	4.47
693.769	3.78
694.091	4.3
694.413	3.34
694.735	3.92
695.056	3.85
695.378	4
695.699	4.82
696.021	4.76
696.342	4.35
696.663	3.84
696.984	3.59
697.306	3.89
697.627	3.74
697.948	3.15
698.269	4.22
698.59	3.77
698.911	3.95
699.232	3.57
699.553	4.42
699.873	3.7
700.194	3.97
700.515	4.12
700.835	3.68
701.156	3.35
701.477	4.03
701.797	4.02
702.117	4.31
702.438	3.36
702.758	3.33
703.078	4.03
703.398	3.76
703.719	3.37
704.039	4.09
704.359	3.86
704.679	3.75
704.999	3.49
705.319	3.69
705.638	3.46
705.958	2.96
706.278	4.23
706.597	4.49
706.917	3.07
707.237	3.03
707.556	3.71
707.876	3.31
708.195	3.56
708.514	3.33
708.834	4.14
709.153	4.2
709.472	4.29
709.791	3.97
710.11	4.21
710.429	4.86
710.748	3.82
711.067	4.16
711.386	3.42
711.705	2.77
712.023	3.67
712.342	4.23
712.661	4.27
712.979	3.64
713.298	3.98
713.616	3.63
713.935	3.29
714.253	4.36
714.572	3.4
714.89	4.85
715.208	4.26
715.526	4.43
715.844	3.07
716.162	4.06
716.48	3.69
716.798	4.34
717.116	4.43
717.434	3.75
717.752	3.98
718.069	3.77
718.387	3.44
718.705	4.78
719.022	4.3
719.34	4.18
719.657	4.33
719.975	3.95
720.292	5.04
720.609	4.18
720.927	3.7
721.244	3.45
721.561	3.94
721.878	3.45
722.195	3.59
722.512	4.84
722.829	5.3
723.146	3.48
723.463	4.55
723.779	5.2
724.096	4.72
724.413	2.87
724.729	4.86
725.046	2.81
725.362	4.71
725.679	5.71
725.995	4.27
726.311	3.1
726.628	4.57
726.944	3.31
727.26	4.38
727.576	4.12
727.892	5.05
728.208	4.81
728.524	3.81
728.84	3.81
729.156	4.39
729.472	4.67
729.787	3.38
730.103	3.67
730.419	3.96
730.734	3.81
731.05	4.59
731.365	3.34
731.681	2.5
731.996	5.07
732.311	4.74
732.626	4
732.942	4.03
733.257	3.11
733.572	4.09
733.887	4.7
734.202	3.24
734.517	4.28
734.832	6.45
735.146	3.84
735.461	3.48
735.776	3.59
736.091	3.72
736.405	5.29
736.72	2.81
737.034	4.05
737.349	4.8
737.663	4.22
737.977	4.21
738.292	4.03
738.606	4.18
738.92	3.4
739.234	2.99
739.548	4.92
739.862	4.82
740.176	3.19
740.49	2.92
740.804	4.01
741.117	2.02
741.431	4.75
741.745	4.94
742.058	5.12
742.372	2.38
742.685	3.54
742.999	5.02
743.312	4
743.626	3.62
743.939	5.78
744.252	2.29
744.565	1.89
744.878	3.26
745.191	3.43
745.505	2.3
745.817	3.95
746.13	2.77
746.443	3.69
746.756	4.25
747.069	3.02
747.381	4.28
747.694	3.29
748.007	4.07
748.319	3.55
748.632	4.56
748.944	4.15
749.256	3.92
749.569	4.03
749.881	3.27
750.193	3.76
750.505	3.94
750.817	4.32
751.129	3.78
751.441	5.36
751.753	3.43
752.065	4.54
752.377	4.07
752.689	4.27
753	3.64
753.312	5
753.624	3.8
753.935	5.65
754.247	6.44
754.558	3.89
754.869	3.26
755.181	4.82
755.492	4.6
755.803	4.58
756.114	5.8
756.425	3.7
756.736	4.85
757.047	4.5
757.358	3.88
757.669	5.36
757.98	3.93
758.291	4.12
758.601	3.56
758.912	3.66
759.223	5.17
759.533	3.1
759.844	2.54
760.154	4.61
760.464	2.86
760.775	4.88
761.085	2.91
761.395	4.08
761.705	4.27
762.016	5.01
762.326	5.21
762.636	3.76
762.945	5.65
763.255	3.64
763.565	5.87
763.875	4.25
764.185	3.8
764.494	3.39
764.804	5.81
765.113	5.61
765.423	5.37
765.732	5.71
766.042	4.55
766.351	4.82
766.66	5.3
766.97	3.79
767.279	3.67
767.588	4.48
767.897	3.09
768.206	6.49
768.515	4.67
768.824	4.05
769.133	4.85
769.441	2.87
769.75	5.8
770.059	3.97
770.367	4.21
770.676	4.87
770.984	3.95
771.293	5.25
771.601	3.77
771.91	5.02
772.218	3.2
772.526	3.8
772.834	5.16
773.142	3.39
773.45	2.69
773.758	3.31
774.066	4.37
774.374	6.1
774.682	2.25
774.99	5.24
775.298	4.41
775.605	5.34
775.913	2.86
776.22	5.12
776.528	4.85
776.835	3.75
777.143	2.17
777.45	3.33
777.757	2.65
778.065	2.57
778.372	4.36
778.679	6.36
778.986	1.96
779.293	5.19
779.6	3.55
779.907	6.11
780.214	6.11
780.52	5.3
780.827	6.84
781.134	3.25
781.44	1.93
781.747	3.67
782.053	2.57
782.36	4.42
782.666	2.97
782.973	3.18
783.279	6.21
783.585	5.6
783.891	6.5
784.197	3.32
784.503	3.63
784.809	4.27
785.115	4.9
785.421	4.76
785.727	6.42
786.033	2.06
786.339	4.53
786.644	3.49
786.95	2.87
787.255	3.88
787.561	5.68
787.866	0.81
788.172	5.56
788.477	7.15
788.782	7.78
789.088	4.69
789.393	3.51
789.698	3.3
790.003	4.44
790.308	4.12
790.613	3.17
790.918	2.72
791.223	7.01
791.527	2.71
791.832	2.08
792.137	4.61
792.441	5.97
792.746	4.35
793.05	2.59
793.355	4.37
793.659	3.04
793.963	3.06
794.268	2.88
794.572	4.9
794.876	4.51
795.18	4.83
795.484	0.23
795.788	4.32
796.092	8.29
796.396	7.34
796.7	5.73
797.004	7.99
797.307	7.31
797.611	4.89
797.915	6.59
798.218	0.16
798.522	1.09
798.825	5.43
799.128	1.58
799.432	4.67
799.735	8.52
800.038	3.54
800.341	7.59
800.644	4.76
800.947	5.85
801.25	4.61
801.553	6.5
801.856	4.7
802.159	5.86
802.462	5.02
802.764	1.61
803.067	-2.1
803.37	2.3
803.672	5.34
803.975	6.88
804.277	5.12
804.579	3.17
804.882	4.04
805.184	0.65
805.486	3.03
805.788	5.59
806.09	1.52
806.392	5.69
806.694	1.08
806.996	4.94
807.298	0.32
807.6	6.16
807.902	4.15
808.203	0.62
808.505	2.33
808.807	4.47
809.108	3.74
809.409	6.21
809.711	4.16
810.012	9.77
810.313	10.73
810.615	-0.64
810.916	4.57
811.217	4.16
811.518	2.57
811.819	3.81
812.12	5.84
812.421	6.24
812.722	6.97
813.023	3.78
813.323	9.38
813.624	0.97
813.925	6.02
814.225	7.74
814.526	5.22
814.826	-3.35
815.126	0.93
815.427	4.31
815.727	1.54
816.027	-1.07
816.327	5.8
816.627	1.57
816.927	-0.24
817.227	6.62
817.527	5.47
817.827	0.78
818.127	7.62
818.427	6.62
818.727	8.17
819.026	-0.77
819.326	-1.9
819.625	5.07
819.925	1.97
820.224	10.69
820.524	11.01
820.823	3.22
821.122	2.99
821.421	2.13
821.72	6.09
822.019	3.36
822.318	4.74
822.617	3.14
822.916	2.32
823.215	3.83
823.514	7.23
823.813	6.59
824.111	7.56
824.41	3.96
824.709	7.18
825.007	6.8
825.306	5.69
825.604	6.58
825.902	5.78
826.201	6.83
826.499	5.92
826.797	5.81
827.095	5.56
827.393	5.69
827.691	6.84
827.989	5.42
828.287	7.31
828.585	6.09
828.882	5.76
829.18	4.97
829.478	5.95
829.775	5.68
830.073	6.76
830.37	8.06
830.668	6.22
830.965	3.89
831.263	6.12
831.56	4.83
831.857	5.65
832.154	6.84
832.451	7.34
832.748	4.47
833.045	8.4
833.342	9.9
833.639	10.9
833.936	6.34
834.232	3.65
834.529	10.52
834.826	2.7
835.122	9
835.419	6.55
835.715	-1.59
836.012	7.21
836.308	4.07
836.604	5.72
836.901	5.29
837.197	3.82
837.493	2.96
837.789	7.27
838.085	5.61
838.381	5.76
838.677	7.05
838.972	4.36
839.268	7.23
839.564	2.9
839.86	5.37
840.155	6.88
840.451	7.92
840.746	-1.44
841.042	3.34
841.337	5.51
841.632	1.41
841.928	-1.31
842.223	-3.28
842.518	10.18
842.813	6.48
843.108	4.32
843.403	3.5
843.698	3.08
843.993	3.29
844.287	6.17
844.582	3.22
844.877	8.56
845.171	2.06
845.466	-3.73
845.761	2.25
846.055	-0.06
846.349	3.35
846.644	10.75
846.938	-8.12
847.232	-5.27
847.526	0.95
847.82	-8.73
848.114	13.12
848.408	9.03
848.702	4.34
848.996	-1.03
849.29	18.6
849.584	7.76
849.877	-7.45
850.171	11.62
850.465	8.36
850.758	1.87
851.052	5.42
851.345	0.5
851.638	-4.6
851.932	1.41
852.225	14.68
852.518	-3.42
852.811	7.1
853.104	12.75
853.397	-26.13
853.69	9.06
853.983	4.87
854.276	12.26
854.569	1.12
854.861	-19.47
855.154	3.46
855.447	-14.96
855.739	-1.51
856.032	6.73
856.324	29.23
856.616	11.73
856.909	2.53
857.201	-10.74
857.493	3.79
857.785	-4.73
858.077	-4.55
858.369	0.43
858.661	4.17
858.953	-2.56
859.245	-6.23
859.537	-14.18
859.829	19.19
860.12	-21.03
860.412	-12.77
860.703	-32.72
860.995	-33.04
861.286	-9.3
861.578	24.69
861.869	6.67
862.16	22
862.452	-0.71
862.743	18.53
863.034	0.83
863.325	-16.88
863.616	10.07
863.907	-0.84
864.198	19.82
864.488	-9.44
864.779	17.29
865.07	5.99
865.36	-6.59
865.651	6.49
865.941	-6.74
866.232	-3.91
866.522	2.65
866.813	-2.23
867.103	-1.69
867.393	3.56
867.683	-41.2
867.973	6.7
868.263	11.33
868.553	-3.98
868.843	15.22
869.133	15.44
869.423	6.05
869.713	6.39
870.002	-10.35
870.292	-24.41
870.582	23.31
870.871	-7.84
871.161	-1.78
871.45	9.92
871.739	5.62
872.029	-31.82
872.318	3.07
872.607	-32.19
872.896	4.42
873.185	2.73
873.474	-9.56
873.763	-30.93
874.052	-0.08
874.341	14.06
874.63	-0.3
874.918	-3.14
875.207	0.37
875.496	-27.39
875.784	-7.01
876.073	-2.6
876.361	-6.19
876.649	-18.73
876.938	4.12
877.226	22.76
877.514	22.8
877.802	21.25
878.09	-45.16
878.378	-11.89
878.666	-1.29
878.954	18.06
879.242	2.38
879.53	-17.35
879.817	-19.84
880.105	-19.81
880.392	3.22
880.68	-23.11
880.967	2.17
881.255	13.89
881.542	-9.13
881.83	9.4
882.117	-17.18
882.404	1.91
882.691	-3.15
882.978	16.72
883.265	4.35
883.552	0.96
883.839	6.15
884.126	2.01
884.413	14.56
884.699	3.67
884.986	9.26
885.273	4.58
885.559	4.58
885.846	4.58
