Data from 0371_chest_Reflection__2__171.txt Node

Date: Fri Dec 15 18:06:39 CST 2023
User: ToomeyLab
Spectrometer: FLMS14357
Trigger mode: 0
Integration Time (sec): 1.000000E-2
Scans to average: 100
Electric dark correction enabled: true
Nonlinearity correction enabled: false
Boxcar width: 0
XAxis mode: Wavelengths
Number of Pixels in Spectrum: 2048
>>>>>Begin Spectral Data<<<<<
189.047	-116.35
189.435	-116.35
189.823	-116.35
190.211	94.14
190.599	-345.25
190.987	82.84
191.375	-155.63
191.763	66.77
192.151	71.09
192.538	137.56
192.926	-113.35
193.314	156.6
193.702	195.59
194.089	159.04
194.477	-22.12
194.864	-53.49
195.252	146.78
195.639	94.51
196.027	219.47
196.414	-659.74
196.801	237.93
197.189	33.07
197.576	80.3
197.963	54.75
198.351	24.9
198.738	29.21
199.125	69.78
199.512	26.29
199.899	82.57
200.286	56.52
200.673	-15.22
201.06	21.52
201.447	7.78
201.833	-2.69
202.22	12.99
202.607	28.74
202.994	38.24
203.38	51
203.767	23.9
204.154	24.69
204.54	16.24
204.927	-20.72
205.313	-77.21
205.699	91.98
206.086	33.6
206.472	45.05
206.858	32.41
207.245	2.3
207.631	43.05
208.017	13.75
208.403	27.25
208.789	17.77
209.175	17.51
209.561	-1.02
209.947	7.57
210.333	69.15
210.719	25.81
211.105	-2.86
211.491	23.98
211.876	6.97
212.262	34
212.648	6.94
213.034	22.78
213.419	16.22
213.805	-18.5
214.19	22.1
214.576	-14.54
214.961	-16.26
215.346	-51.36
215.732	27.17
216.117	-0.55
216.502	14.96
216.888	2.8
217.273	22.21
217.658	16.13
218.043	26.09
218.428	-27.4
218.813	-5.03
219.198	-2.52
219.583	17.68
219.968	17.48
220.353	-15.52
220.738	36.67
221.122	20.55
221.507	-3.21
221.892	-27.06
222.276	-1.55
222.661	0.36
223.046	17.02
223.43	26.06
223.815	13.91
224.199	-1.21
224.583	10.45
224.968	6.32
225.352	14.17
225.736	13.82
226.121	-1.22
226.505	7.7
226.889	10.77
227.273	-0.56
227.657	12.9
228.041	5.12
228.425	6.4
228.809	6.13
229.193	4.27
229.577	3.82
229.961	4.67
230.344	4.29
230.728	6.33
231.112	7.12
231.495	6.31
231.879	5.44
232.263	5.74
232.646	7.59
233.03	4.72
233.413	6.03
233.797	5.55
234.18	5.12
234.563	7.6
234.946	4.85
235.33	7.2
235.713	6.07
236.096	5.94
236.479	7.93
236.862	3.77
237.245	5.04
237.628	2.74
238.011	6.26
238.394	7.95
238.777	4.22
239.16	2.32
239.543	6.23
239.925	5.55
240.308	5.56
240.691	6.04
241.073	4.98
241.456	5.12
241.838	5.21
242.221	4.24
242.603	7.37
242.986	5.79
243.368	5.71
243.75	6.19
244.133	6.03
244.515	6.32
244.897	6.08
245.279	5.75
245.661	5.37
246.043	4.84
246.425	4.03
246.807	5.62
247.189	5.74
247.571	6.32
247.953	5.85
248.335	5.74
248.717	5.72
249.098	5.37
249.48	5.49
249.862	5.25
250.243	5.39
250.625	5.62
251.006	5.86
251.388	4.59
251.769	5.87
252.151	5.24
252.532	6.18
252.913	4.69
253.295	5.3
253.676	4.77
254.057	5.29
254.438	4.94
254.819	4.64
255.2	4.67
255.581	5.97
255.962	4.07
256.343	6.7
256.724	4.68
257.105	4.75
257.486	4.9
257.867	5.04
258.247	4.94
258.628	4.54
259.009	5.7
259.389	4.33
259.77	5
260.15	4.29
260.531	4.32
260.911	5.47
261.292	5.21
261.672	4.98
262.052	5.1
262.432	5.32
262.813	5.17
263.193	4.99
263.573	4.61
263.953	4.07
264.333	5.7
264.713	4.56
265.093	4.59
265.473	5.08
265.853	4.98
266.233	5.19
266.612	3.75
266.992	3.55
267.372	4.94
267.752	4.05
268.131	5.05
268.511	4.81
268.89	5.18
269.27	4.73
269.649	4.32
270.029	4.61
270.408	5.73
270.787	4.57
271.167	5.65
271.546	4.85
271.925	3.94
272.304	4.96
272.683	4.87
273.062	4.54
273.441	4.69
273.82	4.32
274.199	5.16
274.578	4.26
274.957	4.75
275.336	4.37
275.715	4.86
276.093	4.45
276.472	5.57
276.851	4.54
277.229	4.87
277.608	3.87
277.986	4.44
278.365	4.4
278.743	4.71
279.122	4.42
279.5	5.09
279.878	4.87
280.257	4.5
280.635	4.72
281.013	4.22
281.391	4.56
281.769	4.72
282.147	4.92
282.525	5.42
282.903	4.24
283.281	5.16
283.659	4.95
284.037	4.73
284.415	4.95
284.792	5.33
285.17	4.16
285.548	4.36
285.925	4.76
286.303	4.96
286.68	4.59
287.058	4.48
287.435	4.6
287.813	5.04
288.19	4.46
288.567	4.5
288.945	5.08
289.322	4.21
289.699	4.64
290.076	4.06
290.453	4.47
290.83	4.06
291.207	4.14
291.584	4.65
291.961	4.98
292.338	4.73
292.715	4.92
293.092	4.09
293.469	4.75
293.845	4.12
294.222	4.19
294.599	4.15
294.975	4.17
295.352	4.8
295.728	3.94
296.105	4.4
296.481	4.71
296.858	4.66
297.234	4.76
297.61	4.2
297.986	4.69
298.363	4.51
298.739	4.71
299.115	4.28
299.491	4.34
299.867	4.43
300.243	4.58
300.619	4.04
300.995	4.17
301.371	4.69
301.746	3.6
302.122	4.77
302.498	4.33
302.874	4.63
303.249	4.57
303.625	4.63
304	5.04
304.376	4.83
304.751	3.77
305.127	5.06
305.502	3.86
305.878	3.9
306.253	4.33
306.628	4.77
307.003	4.71
307.378	4.8
307.754	4.56
308.129	3.64
308.504	4.82
308.879	4.46
309.254	5.17
309.629	5.17
310.003	4.15
310.378	4.65
310.753	4.81
311.128	4.53
311.502	5.07
311.877	5
312.252	4.12
312.626	4.73
313.001	4.4
313.375	4.43
313.75	4.1
314.124	4.85
314.498	4.43
314.873	4.55
315.247	4.27
315.621	4.22
315.995	4.31
316.369	4.14
316.743	4.48
317.117	5.24
317.491	4.35
317.865	4.08
318.239	4.87
318.613	5.08
318.987	4.66
319.361	4.44
319.734	4.71
320.108	4.39
320.482	4.5
320.855	4.98
321.229	4.72
321.602	4.06
321.976	4.52
322.349	4.48
322.723	4.49
323.096	4.73
323.469	3.73
323.843	4.6
324.216	5.03
324.589	4.58
324.962	4.51
325.335	4.35
325.708	3.95
326.081	4.43
326.454	4.67
326.827	4.46
327.2	3.97
327.573	4.32
327.945	4.78
328.318	4.5
328.691	4.04
329.063	4.89
329.436	4.17
329.809	5.09
330.181	3.91
330.553	4.46
330.926	5.32
331.298	4.45
331.671	4.56
332.043	5.29
332.415	5.03
332.787	4.56
333.159	5.2
333.532	4.7
333.904	4.36
334.276	4.32
334.648	4.83
335.02	3.99
335.391	4.26
335.763	4.51
336.135	4.92
336.507	5.14
336.879	4.43
337.25	4.74
337.622	4.65
337.993	4.64
338.365	5.24
338.736	4.81
339.108	4.75
339.479	4.79
339.851	4.4
340.222	4.42
340.593	5.26
340.964	4.56
341.336	5.42
341.707	4.62
342.078	4.61
342.449	5.15
342.82	4.77
343.191	5.13
343.562	4.43
343.933	4.53
344.303	4.42
344.674	5
345.045	4.88
345.416	5.07
345.786	4.48
346.157	4.21
346.527	4.61
346.898	4.54
347.268	4.82
347.639	4.58
348.009	4.94
348.38	4.45
348.75	5.31
349.12	4.9
349.49	5.42
349.861	4.72
350.231	4.76
350.601	4.59
350.971	5.14
351.341	4.68
351.711	4.86
352.081	4.88
352.45	4.31
352.82	5.01
353.19	4.84
353.56	4.84
353.929	4.84
354.299	4.55
354.669	4.8
355.038	4.88
355.408	4.33
355.777	4.49
356.147	4.58
356.516	4.88
356.885	4.81
357.254	4.85
357.624	5.25
357.993	5.12
358.362	4.43
358.731	4.46
359.1	4.7
359.469	4.85
359.838	5.29
360.207	4.5
360.576	4.67
360.945	4.75
361.314	5.42
361.682	4.56
362.051	4.44
362.42	5.11
362.788	4.82
363.157	4.92
363.525	4.79
363.894	4.73
364.262	4.8
364.631	4.77
364.999	4.75
365.367	4.34
365.735	5.53
366.104	5.04
366.472	4.77
366.84	4.71
367.208	4.83
367.576	5.15
367.944	5.27
368.312	4.8
368.68	4.6
369.048	4.62
369.416	5.11
369.783	4.95
370.151	5.14
370.519	5.18
370.886	5
371.254	4.61
371.621	4.96
371.989	5.59
372.356	4.55
372.724	4.73
373.091	4.91
373.458	5.09
373.826	4.96
374.193	4.68
374.56	5.29
374.927	5.09
375.294	4.8
375.661	4.93
376.028	4.83
376.395	4.62
376.762	5.2
377.129	4.95
377.496	4.72
377.863	4.88
378.229	4.63
378.596	4.98
378.963	4.79
379.329	4.77
379.696	5.34
380.062	5.25
380.429	4.75
380.795	4.75
381.161	5.02
381.528	5.33
381.894	4.86
382.26	4.74
382.626	4.89
382.993	4.74
383.359	5.49
383.725	4.97
384.091	4.89
384.457	5.26
384.823	4.86
385.188	5.23
385.554	5.17
385.92	5.16
386.286	5.05
386.651	5.46
387.017	5.43
387.383	5.17
387.748	5.09
388.114	5.43
388.479	4.85
388.845	5.24
389.21	5.23
389.575	5.2
389.94	4.87
390.306	5.25
390.671	5.26
391.036	5.24
391.401	4.67
391.766	5.09
392.131	4.74
392.496	5.2
392.861	5.03
393.226	5.47
393.591	5.05
393.956	4.86
394.32	5.2
394.685	5.04
395.05	4.93
395.414	5.21
395.779	4.92
396.143	5.32
396.508	5.02
396.872	5
397.236	5.22
397.601	4.93
397.965	5.1
398.329	5.26
398.694	5.26
399.058	4.97
399.422	4.84
399.786	5.19
400.15	5.13
400.514	5.1
400.878	5.15
401.242	5.17
401.605	5.27
401.969	5.29
402.333	5.26
402.697	5.23
403.06	5.1
403.424	5.24
403.787	4.98
404.151	5.51
404.514	5.13
404.878	5.06
405.241	5.44
405.604	4.85
405.968	5.2
406.331	5.14
406.694	5.29
407.057	5.21
407.42	5.24
407.783	4.96
408.146	5.38
408.509	5.05
408.872	5.03
409.235	5.12
409.598	5.46
409.961	5.21
410.323	5.45
410.686	5
411.049	5.25
411.411	5.22
411.774	5.22
412.136	5.42
412.499	5.22
412.861	5.08
413.223	5.1
413.586	5.22
413.948	5.17
414.31	5.51
414.672	4.89
415.035	5.32
415.397	5.44
415.759	4.98
416.121	5.26
416.483	5.02
416.845	5.35
417.206	5.17
417.568	5.29
417.93	4.86
418.292	4.99
418.653	5.12
419.015	5.16
419.377	5.22
419.738	5.11
420.1	5.05
420.461	5.25
420.822	5.21
421.184	5.13
421.545	5.18
421.906	4.98
422.267	5.12
422.629	5.16
422.99	5.05
423.351	5.02
423.712	5.02
424.073	5.14
424.434	5.02
424.795	5.03
425.155	5.18
425.516	5.07
425.877	5.13
426.238	5
426.598	5.12
426.959	5.12
427.32	5.01
427.68	5.12
428.041	5.09
428.401	5.29
428.761	5.16
429.122	5.08
429.482	5.14
429.842	5.42
430.202	5.28
430.563	5.35
430.923	5.26
431.283	5.25
431.643	5.28
432.003	5.23
432.363	5.21
432.722	5.16
433.082	5.22
433.442	5.09
433.802	5.16
434.161	5.29
434.521	5.5
434.881	5.3
435.24	4.99
435.6	5.15
435.959	5.25
436.319	5.3
436.678	5.2
437.037	5.19
437.396	5.2
437.756	5.38
438.115	5.22
438.474	5.47
438.833	5.19
439.192	5.2
439.551	5.26
439.91	5.27
440.269	5.3
440.628	5.14
440.987	5.16
441.345	5.16
441.704	5.27
442.063	5.2
442.421	5.22
442.78	5.11
443.138	5.12
443.497	5.24
443.855	5.25
444.214	5.23
444.572	5.22
444.93	5.11
445.288	5.27
445.647	5.35
446.005	5.25
446.363	5.25
446.721	5.29
447.079	5.21
447.437	5.21
447.795	5.13
448.153	5.07
448.51	5.18
448.868	5.17
449.226	5.17
449.584	5.15
449.941	5.23
450.299	5.26
450.656	5.18
451.014	5.24
451.371	5.14
451.729	4.98
452.086	5.4
452.443	5.27
452.801	5.33
453.158	5.23
453.515	5.18
453.872	5.42
454.229	5.33
454.586	5.14
454.943	5.31
455.3	5.33
455.657	5.26
456.014	5.19
456.371	5.37
456.727	5.33
457.084	5.43
457.441	5.28
457.797	5.24
458.154	5.5
458.51	5.36
458.867	5.24
459.223	5.39
459.58	5.28
459.936	5.42
460.292	5.31
460.648	5.25
461.005	5.28
461.361	5.24
461.717	5.16
462.073	5.09
462.429	5.19
462.785	5.2
463.141	5.15
463.496	5.4
463.852	5.41
464.208	5.4
464.564	5.63
464.919	5.35
465.275	5.21
465.631	5.57
465.986	5.32
466.342	5.29
466.697	5.3
467.052	5.34
467.408	5.27
467.763	5.26
468.118	5.31
468.473	5.12
468.829	5.31
469.184	5.32
469.539	5.32
469.894	5.15
470.249	5.45
470.603	5.54
470.958	5.36
471.313	5.43
471.668	5.44
472.023	5.48
472.377	5.27
472.732	5.32
473.086	5.2
473.441	5.03
473.795	5.53
474.15	5.42
474.504	5.3
474.859	5.49
475.213	5.3
475.567	5.34
475.921	5.17
476.275	5.29
476.63	5.42
476.984	5.46
477.338	5.4
477.692	5.35
478.045	5.33
478.399	5.37
478.753	5.53
479.107	5.29
479.461	5.29
479.814	5.36
480.168	5.57
480.521	5.42
480.875	5.41
481.228	5.34
481.582	5.29
481.935	5.3
482.289	5.44
482.642	5.39
482.995	5.23
483.348	5.27
483.701	5.27
484.055	5.35
484.408	5.33
484.761	5.22
485.114	5.18
485.466	5.05
485.819	4.99
486.172	5.03
486.525	5.07
486.878	5.07
487.23	5.12
487.583	5.2
487.936	5.21
488.288	5.26
488.641	5.27
488.993	5.12
489.345	5.06
489.698	5.13
490.05	5.06
490.402	5.17
490.754	5.22
491.107	5.28
491.459	5.27
491.811	5.29
492.163	5.33
492.515	5.32
492.866	5.32
493.218	5.28
493.57	5.21
493.922	5.19
494.274	5.24
494.625	5.37
494.977	5.38
495.328	5.48
495.68	5.34
496.031	5.43
496.383	5.3
496.734	5.49
497.086	5.46
497.437	5.48
497.788	5.38
498.139	5.37
498.49	5.39
498.842	5.31
499.193	5.49
499.544	5.52
499.894	5.42
500.245	5.33
500.596	5.38
500.947	5.47
501.298	5.49
501.648	5.46
501.999	5.58
502.35	5.51
502.7	5.41
503.051	5.35
503.401	5.57
503.752	5.62
504.102	5.52
504.452	5.65
504.803	5.56
505.153	5.5
505.503	5.57
505.853	5.53
506.203	5.58
506.553	5.32
506.903	5.44
507.253	5.43
507.603	5.52
507.953	5.57
508.303	5.55
508.652	5.38
509.002	5.58
509.352	5.63
509.701	5.46
510.051	5.43
510.4	5.56
510.75	5.53
511.099	5.66
511.449	5.45
511.798	5.55
512.147	5.52
512.496	5.5
512.846	5.66
513.195	5.61
513.544	5.41
513.893	5.68
514.242	5.68
514.591	5.69
514.939	5.57
515.288	5.57
515.637	5.68
515.986	5.58
516.334	5.71
516.683	5.81
517.032	5.58
517.38	5.81
517.729	5.81
518.077	5.55
518.426	5.69
518.774	5.68
519.122	5.52
519.47	5.66
519.819	5.54
520.167	5.63
520.515	5.61
520.863	5.67
521.211	5.65
521.559	5.68
521.907	5.56
522.255	5.62
522.602	5.7
522.95	5.66
523.298	5.7
523.645	5.87
523.993	5.76
524.341	5.87
524.688	5.85
525.036	5.8
525.383	5.8
525.73	5.92
526.078	5.8
526.425	5.59
526.772	5.81
527.119	5.75
527.466	5.7
527.814	5.79
528.161	5.67
528.508	5.74
528.854	5.7
529.201	5.66
529.548	5.63
529.895	5.56
530.242	5.56
530.588	5.54
530.935	5.53
531.282	5.58
531.628	5.61
531.975	5.63
532.321	5.71
532.667	5.81
533.014	5.85
533.36	5.88
533.706	5.85
534.052	5.77
534.399	5.73
534.745	5.71
535.091	5.72
535.437	5.79
535.783	5.8
536.129	5.91
536.474	5.8
536.82	6.01
537.166	5.95
537.512	6.07
537.857	5.91
538.203	5.99
538.549	5.91
538.894	5.88
539.239	5.98
539.585	5.87
539.93	5.9
540.276	6.12
540.621	6.22
540.966	6.19
541.311	6
541.656	6.02
542.001	6.09
542.346	6.04
542.691	5.92
543.036	5.99
543.381	5.88
543.726	5.95
544.071	5.99
544.415	6.03
544.76	5.99
545.105	6.06
545.449	6.06
545.794	6.11
546.138	6.13
546.483	6.09
546.827	6.21
547.171	6.26
547.516	6.33
547.86	6.23
548.204	6.14
548.548	6.19
548.892	6.2
549.236	6.36
549.58	6.22
549.924	6.26
550.268	6.48
550.612	6.44
550.956	6.73
551.3	6.46
551.643	6.58
551.987	6.49
552.33	6.49
552.674	6.57
553.017	6.53
553.361	6.46
553.704	6.8
554.048	6.34
554.391	6.58
554.734	6.57
555.077	6.58
555.42	6.29
555.764	6.47
556.107	6.4
556.45	6.55
556.793	6.68
557.135	6.75
557.478	6.8
557.821	6.75
558.164	6.68
558.507	6.8
558.849	6.68
559.192	6.76
559.534	6.84
559.877	6.84
560.219	6.72
560.562	6.88
560.904	6.79
561.246	6.87
561.589	6.96
561.931	6.93
562.273	6.91
562.615	7
562.957	6.99
563.299	6.83
563.641	6.83
563.983	7.18
564.325	6.85
564.667	7.01
565.008	6.87
565.35	7.09
565.692	6.89
566.033	7.01
566.375	7.38
566.716	7.34
567.058	6.84
567.399	7.1
567.741	6.94
568.082	7.13
568.423	7.15
568.764	7.14
569.105	7.09
569.447	7.33
569.788	7.14
570.129	7.29
570.47	7.19
570.811	7.39
571.151	7.37
571.492	7.51
571.833	7.27
572.174	7.33
572.514	7.43
572.855	7.38
573.195	7.45
573.536	7.34
573.876	7.18
574.217	7.48
574.557	7.41
574.898	7.69
575.238	7.48
575.578	7.53
575.918	7.77
576.258	7.48
576.598	7.54
576.938	7.57
577.278	7.59
577.618	7.63
577.958	7.48
578.298	7.55
578.638	7.52
578.977	7.79
579.317	7.45
579.657	7.77
579.996	8.03
580.336	7.83
580.675	7.86
581.014	7.86
581.354	7.91
581.693	8.05
582.032	7.89
582.372	7.82
582.711	8.03
583.05	8.17
583.389	8.31
583.728	8.03
584.067	8.06
584.406	8.35
584.745	8.1
585.083	8.28
585.422	8.25
585.761	8.37
586.1	8.48
586.438	8.4
586.777	8.39
587.115	8.63
587.454	8.5
587.792	8.21
588.13	8.5
588.469	8.53
588.807	8.23
589.145	8.5
589.483	8.38
589.821	8.81
590.159	8.71
590.497	8.87
590.835	8.92
591.173	8.51
591.511	8.97
591.849	8.39
592.187	8.96
592.524	8.82
592.862	8.84
593.2	8.76
593.537	8.69
593.875	8.49
594.212	8.51
594.55	8.66
594.887	9.14
595.224	8.92
595.561	8.86
595.899	8.86
596.236	8.96
596.573	9.05
596.91	8.78
597.247	8.47
597.584	9.04
597.921	8.95
598.258	9.03
598.594	8.93
598.931	9.06
599.268	8.95
599.604	8.94
599.941	9.42
600.277	8.98
600.614	8.94
600.95	9
601.287	9.34
601.623	9.05
601.959	9.41
602.296	9.51
602.632	9.52
602.968	9.34
603.304	9.44
603.64	9.62
603.976	9.62
604.312	9.21
604.648	9.33
604.984	9.74
605.319	9.59
605.655	9.46
605.991	9.58
606.326	9.59
606.662	9.69
606.998	9.42
607.333	9.56
607.668	9.49
608.004	9.59
608.339	9.92
608.674	9.82
609.01	9.91
609.345	9.92
609.68	10.15
610.015	9.97
610.35	9.73
610.685	9.73
611.02	9.72
611.355	9.99
611.689	9.97
612.024	9.99
612.359	10.02
612.694	9.88
613.028	9.87
613.363	10.01
613.697	9.91
614.032	10.33
614.366	10.18
614.7	10.25
615.035	10.38
615.369	10.35
615.703	10.34
616.037	10.21
616.371	9.93
616.705	10.4
617.039	10.43
617.373	10.45
617.707	10.32
618.041	10.72
618.375	10.52
618.709	10.47
619.042	10.4
619.376	11.17
619.71	10.85
620.043	10.92
620.377	10.82
620.71	11.06
621.043	10.72
621.377	10.67
621.71	10.83
622.043	10.85
622.376	10.69
622.709	10.82
623.043	11.18
623.376	10.91
623.709	10.9
624.041	11.26
624.374	11.08
624.707	10.87
625.04	11.43
625.373	10.86
625.705	11.28
626.038	10.83
626.37	11.15
626.703	11.44
627.035	11.34
627.368	11.66
627.7	11.74
628.032	11.47
628.365	11.69
628.697	11.85
629.029	11.19
629.361	11.53
629.693	11.59
630.025	11.31
630.357	11.69
630.689	11.48
631.021	11.63
631.353	11.44
631.684	11.71
632.016	11.64
632.348	11.92
632.679	11.72
633.011	11.93
633.342	12
633.674	11.83
634.005	12.27
634.336	11.74
634.668	12.48
634.999	11.89
635.33	12.55
635.661	12.19
635.992	11.91
636.323	12.05
636.654	12.57
636.985	12.21
637.316	12.06
637.647	11.84
637.977	12.49
638.308	12.18
638.639	12.01
638.969	11.97
639.3	12.11
639.63	12.08
639.961	12.14
640.291	12.3
640.622	12.86
640.952	12.48
641.282	12.95
641.612	12.47
641.943	12.39
642.273	12.46
642.603	12.52
642.933	12.6
643.263	12.58
643.592	12.38
643.922	12.76
644.252	12.8
644.582	13.1
644.911	12.56
645.241	12.8
645.571	13.05
645.9	12.7
646.23	13.12
646.559	13.52
646.888	13.46
647.218	13.22
647.547	13.1
647.876	12.77
648.205	13.12
648.534	12.9
648.863	13.08
649.192	13.47
649.521	13.41
649.85	13.15
650.179	13.54
650.508	13.41
650.837	13.06
651.165	13.33
651.494	13.6
651.822	13.65
652.151	13.73
652.479	13.46
652.808	13.04
653.136	13.7
653.465	12.72
653.793	13.28
654.121	13.48
654.449	13.51
654.777	14.03
655.105	14.18
655.433	13.05
655.761	13.8
656.089	14.25
656.417	13.82
656.745	13.85
657.073	13.86
657.4	14.75
657.728	13.47
658.056	13.96
658.383	13.67
658.711	14.66
659.038	14.03
659.365	14.21
659.693	14.2
660.02	14.36
660.347	14.55
660.674	14.63
661.001	14.16
661.329	13.53
661.656	14.47
661.982	14.37
662.309	14.7
662.636	13.7
662.963	14.77
663.29	14.42
663.616	14.43
663.943	13.96
664.27	14.45
664.596	15.3
664.923	14.82
665.249	14.64
665.576	14.48
665.902	16.08
666.228	14.62
666.554	14.7
666.881	14.59
667.207	15.2
667.533	14.86
667.859	15.08
668.185	15.19
668.511	14.7
668.837	14.35
669.162	15.78
669.488	14.35
669.814	15.05
670.139	14.96
670.465	16.14
670.791	15.44
671.116	15.98
671.442	14.81
671.767	15.46
672.092	15.57
672.418	15.55
672.743	15.87
673.068	15.11
673.393	15.48
673.718	15.33
674.043	15.37
674.368	15.64
674.693	16.68
675.018	15.52
675.343	16.02
675.667	15.61
675.992	15.98
676.317	16.33
676.641	16.12
676.966	16.09
677.29	15.86
677.615	16.65
677.939	16.2
678.264	16.21
678.588	16.97
678.912	16.31
679.236	16.77
679.56	15.67
679.885	16.4
680.209	16.24
680.532	16.52
680.856	16.69
681.18	15.79
681.504	15.52
681.828	16.75
682.152	15.95
682.475	16.71
682.799	17.07
683.122	16.4
683.446	16.23
683.769	16.57
684.093	16
684.416	16.6
684.739	16.41
685.062	16.72
685.386	16.86
685.709	16.6
686.032	16.44
686.355	17.47
686.678	16.49
687.001	17.03
687.324	18.15
687.646	15.92
687.969	16.12
688.292	16.92
688.614	17.24
688.937	17.27
689.26	17.39
689.582	18.11
689.904	17.82
690.227	17.4
690.549	17.65
690.871	17.95
691.194	16.42
691.516	16.63
691.838	18.22
692.16	17.13
692.482	16.44
692.804	17.6
693.126	17.35
693.448	17.73
693.769	18.66
694.091	17.3
694.413	18
694.735	16.71
695.056	17.03
695.378	17.59
695.699	16.8
696.021	16.92
696.342	17.36
696.663	18.62
696.984	17.76
697.306	16.95
697.627	17.18
697.948	18.99
698.269	18.79
698.59	18.18
698.911	17.19
699.232	18.17
699.553	18.55
699.873	18.34
700.194	18.9
700.515	18.4
700.835	18.42
701.156	17.86
701.477	18.39
701.797	18.2
702.117	18.6
702.438	18.39
702.758	18.36
703.078	18
703.398	18.24
703.719	18.35
704.039	18.43
704.359	19.94
704.679	19.11
704.999	18.44
705.319	17.67
705.638	18.04
705.958	18.71
706.278	18.86
706.597	18.94
706.917	19.18
707.237	18.88
707.556	18.83
707.876	20.23
708.195	19.42
708.514	19.21
708.834	18.89
709.153	19.91
709.472	20.12
709.791	19.8
710.11	18.28
710.429	19.59
710.748	20.08
711.067	20.46
711.386	20.37
711.705	19.65
712.023	19.6
712.342	17.64
712.661	19.1
712.979	18.68
713.298	19.09
713.616	19.9
713.935	19.28
714.253	19.49
714.572	20.2
714.89	19.78
715.208	20.56
715.526	19.47
715.844	19.94
716.162	19.79
716.48	20.52
716.798	20.95
717.116	19.71
717.434	19.82
717.752	19.44
718.069	20.43
718.387	19.9
718.705	20.96
719.022	19.79
719.34	20.04
719.657	20.39
719.975	20.17
720.292	20.89
720.609	20.94
720.927	20.88
721.244	20.47
721.561	20.84
721.878	21.9
722.195	20.35
722.512	21.66
722.829	21.18
723.146	20.76
723.463	21.44
723.779	20.09
724.096	20.29
724.413	19.25
724.729	21.53
725.046	20.75
725.362	21.2
725.679	21.62
725.995	18.9
726.311	19.36
726.628	21.01
726.944	21.47
727.26	21.89
727.576	22.49
727.892	21.51
728.208	21.97
728.524	21.6
728.84	20.49
729.156	22.75
729.472	19.64
729.787	21.89
730.103	21.47
730.419	22.36
730.734	22.82
731.05	22.52
731.365	21.2
731.681	21.09
731.996	21.47
732.311	21.61
732.626	22.12
732.942	20.46
733.257	21.83
733.572	23.15
733.887	22.34
734.202	22.75
734.517	21.6
734.832	22.21
735.146	21.51
735.461	23.44
735.776	23.09
736.091	22.06
736.405	23.33
736.72	22.05
737.034	24.11
737.349	24.76
737.663	24.05
737.977	24.51
738.292	22.11
738.606	23.57
738.92	23.12
739.234	23.55
739.548	23.51
739.862	22.2
740.176	22.22
740.49	22.52
740.804	24.86
741.117	23.47
741.431	22.83
741.745	23.67
742.058	23.81
742.372	23.11
742.685	23.89
742.999	21.99
743.312	23.01
743.626	23.69
743.939	21.03
744.252	25.62
744.565	23.58
744.878	25.17
745.191	20.98
745.505	23.26
745.817	25.2
746.13	22.51
746.443	24.24
746.756	24.53
747.069	22.59
747.381	24.59
747.694	23.81
748.007	24.42
748.319	24.03
748.632	24.47
748.944	24.47
749.256	24.47
749.569	24.84
749.881	23.37
750.193	26.01
750.505	23.86
750.817	24.33
751.129	26.51
751.441	23.6
751.753	25
752.065	24.97
752.377	22.49
752.689	25.84
753	24.84
753.312	22.97
753.624	24.72
753.935	25.19
754.247	23.86
754.558	24.73
754.869	25.5
755.181	24.46
755.492	24.41
755.803	24.57
756.114	23.94
756.425	22.77
756.736	23.42
757.047	25.06
757.358	24.31
757.669	26.08
757.98	23.88
758.291	25.34
758.601	25.13
758.912	24.63
759.223	26.37
759.533	23.62
759.844	25.45
760.154	26.02
760.464	29.13
760.775	27.48
761.085	25.01
761.395	27.86
761.705	24.29
762.016	23.92
762.326	25.3
762.636	26.38
762.945	25.2
763.255	26.73
763.565	24.67
763.875	26.01
764.185	26.55
764.494	26.07
764.804	26.47
765.113	26.14
765.423	25.55
765.732	26.27
766.042	25.63
766.351	26.14
766.66	26.67
766.97	26.19
767.279	26.16
767.588	27.47
767.897	28.92
768.206	25.3
768.515	26.57
768.824	28.15
769.133	27.17
769.441	25.21
769.75	25.68
770.059	26.25
770.367	27.69
770.676	28.71
770.984	26.68
771.293	25.44
771.601	30.45
771.91	26.45
772.218	29.88
772.526	26.13
772.834	27.28
773.142	26.53
773.45	26.49
773.758	26.72
774.066	27.9
774.374	26.15
774.682	27.44
774.99	28.25
775.298	26.29
775.605	26.1
775.913	25.45
776.22	27.71
776.528	29.3
776.835	31.14
777.143	26.36
777.45	25.52
777.757	29.41
778.065	28.76
778.372	25.56
778.679	24.85
778.986	29.25
779.293	27.17
779.6	28.27
779.907	24.77
780.214	27.44
780.52	29.87
780.827	31.1
781.134	24.2
781.44	29.33
781.747	28.08
782.053	24.27
782.36	27.4
782.666	32.74
782.973	28.2
783.279	26.28
783.585	24.98
783.891	31.18
784.197	29.55
784.503	29.95
784.809	28.22
785.115	28.02
785.421	32.88
785.727	28.9
786.033	33.36
786.339	25.4
786.644	29.98
786.95	27.12
787.255	25.75
787.561	35.85
787.866	27.59
788.172	23.91
788.477	31.05
788.782	31.94
789.088	31.12
789.393	27.28
789.698	29.42
790.003	30.94
790.308	26.2
790.613	29.28
790.918	29.15
791.223	32.63
791.527	30.03
791.832	29.68
792.137	25.88
792.441	28.65
792.746	27.45
793.05	23.94
793.355	31.74
793.659	31.7
793.963	31.35
794.268	33.09
794.572	28.13
794.876	27.47
795.18	28.58
795.484	28.8
795.788	31.32
796.092	25.72
796.396	31.4
796.7	30.2
797.004	30.82
797.307	26.84
797.611	32.23
797.915	28.13
798.218	29.56
798.522	31.6
798.825	31.31
799.128	30.29
799.432	27.96
799.735	27.49
800.038	32.97
800.341	30.22
800.644	29.01
800.947	33.27
801.25	34.01
801.553	27.77
801.856	29.72
802.159	28.78
802.462	28.05
802.764	30.16
803.067	34.35
803.37	30.71
803.672	25.08
803.975	30.77
804.277	32.3
804.579	28.27
804.882	32.72
805.184	29.74
805.486	27.69
805.788	36.64
806.09	34.07
806.392	25.93
806.694	28.24
806.996	37.23
807.298	32.77
807.6	31.54
807.902	33.99
808.203	30.64
808.505	34.57
808.807	27.56
809.108	31.64
809.409	29.52
809.711	27.2
810.012	27.03
810.313	28.8
810.615	38.45
810.916	38.21
811.217	34.19
811.518	32.9
811.819	33.51
812.12	25.23
812.421	34.11
812.722	35
813.023	31.03
813.323	29.12
813.624	24.03
813.925	33.3
814.225	34.74
814.526	32.77
814.826	34.58
815.126	34.76
815.427	31.61
815.727	36.52
816.027	31.34
816.327	30.61
816.627	33.47
816.927	33.94
817.227	34.35
817.527	36.39
817.827	38.59
818.127	38.51
818.427	23.07
818.727	34.87
819.026	35.01
819.326	35.91
819.625	34.75
819.925	23.82
820.224	34.68
820.524	29.11
820.823	35.26
821.122	38.22
821.421	32.97
821.72	32.03
822.019	27.98
822.318	31.21
822.617	31.37
822.916	31.47
823.215	32.78
823.514	34.44
823.813	30.9
824.111	33.97
824.41	34.65
824.709	34.54
825.007	36.06
825.306	34.67
825.604	35.01
825.902	35.8
826.201	36.02
826.499	35.04
826.797	34.85
827.095	35.08
827.393	35.4
827.691	36.57
827.989	31.79
828.287	35.28
828.585	34.91
828.882	35.99
829.18	34.87
829.478	36.5
829.775	36.6
830.073	36.48
830.37	35.8
830.668	36.31
830.965	38.37
831.263	34.76
831.56	33.82
831.857	38.27
832.154	36.05
832.451	36.84
832.748	35.6
833.045	34.49
833.342	40.84
833.639	39.52
833.936	36.35
834.232	32.85
834.529	28.75
834.826	34.72
835.122	34.57
835.419	39.57
835.715	31.16
836.012	34.18
836.308	27.52
836.604	31.84
836.901	33.66
837.197	34.24
837.493	34.69
837.789	36.32
838.085	34.94
838.381	33.62
838.677	34.95
838.972	38.63
839.268	37.54
839.564	34.47
839.86	33.67
840.155	29.61
840.451	24.45
840.746	37.45
841.042	37.79
841.337	37.19
841.632	44.75
841.928	38.95
842.223	36.71
842.518	35.2
842.813	42.81
843.108	33.83
843.403	40.82
843.698	37.01
843.993	36.14
844.287	31.69
844.582	22.56
844.877	35.54
845.171	26.9
845.466	33.58
845.761	21.57
846.055	35.53
846.349	42.33
846.644	24.27
846.938	14.54
847.232	35.69
847.526	31.58
847.82	48.72
848.114	22.02
848.408	39.03
848.702	50.19
848.996	38.14
849.29	38.16
849.584	46.07
849.877	35.24
850.171	31.79
850.465	45.5
850.758	28.95
851.052	24.44
851.345	29.05
851.638	56.97
851.932	22.86
852.225	29.98
852.518	21.29
852.811	28.08
853.104	32.18
853.397	32.24
853.69	25.94
853.983	26.03
854.276	47.76
854.569	46.34
854.861	57.04
855.154	46.35
855.447	32.39
855.739	39.69
856.032	37.21
856.324	34.63
856.616	48.09
856.909	47.53
857.201	43.33
857.493	51.41
857.785	21.97
858.077	35.92
858.369	41.4
858.661	50.95
858.953	34.63
859.245	24.28
859.537	36.26
859.829	44.79
860.12	53.19
860.412	19.08
860.703	52.51
860.995	47.27
861.286	32.53
861.578	24.38
861.869	54.32
862.16	44.37
862.452	48.4
862.743	28.13
863.034	35.94
863.325	0.38
863.616	48.23
863.907	22.84
864.198	29.12
864.488	36.49
864.779	26.21
865.07	31.58
865.36	35.75
865.651	25.72
865.941	41.77
866.232	51.77
866.522	16.79
866.813	24.05
867.103	50.54
867.393	31.12
867.683	49.39
867.973	-6.03
868.263	33.57
868.553	41.74
868.843	43.69
869.133	-1.19
869.423	56.29
869.713	28.93
870.002	33.76
870.292	37.78
870.582	38.21
870.871	22.2
871.161	46.29
871.45	36.43
871.739	26.53
872.029	17.73
872.318	57.7
872.607	68.72
872.896	54.57
873.185	17.24
873.474	30.98
873.763	28.59
874.052	30.42
874.341	57.47
874.63	47.38
874.918	27.46
875.207	41.1
875.496	66.02
875.784	4.14
876.073	-6.67
876.361	30.69
876.649	20.52
876.938	5.4
877.226	41.24
877.514	62.64
877.802	20.05
878.09	48.74
878.378	59.32
878.666	18.86
878.954	60.98
879.242	46.22
879.53	42.52
879.817	24.95
880.105	37.37
880.392	47.12
880.68	23.9
880.967	60.61
881.255	78.8
881.542	48.3
881.83	-22.75
882.117	43.2
882.404	-14.44
882.691	40.76
882.978	57.59
883.265	30.07
883.552	47.91
883.839	55.65
884.126	21.78
884.413	52.35
884.699	48.77
884.986	53.08
885.273	39.38
885.559	39.38
885.846	39.38
