Data from 0175_chest_Reflection__4__065.txt Node

Date: Mon Aug 28 19:09:47 CDT 2023
User: ToomeyLab
Spectrometer: FLMS14357
Trigger mode: 0
Integration Time (sec): 1.000000E-2
Scans to average: 100
Electric dark correction enabled: true
Nonlinearity correction enabled: false
Boxcar width: 0
XAxis mode: Wavelengths
Number of Pixels in Spectrum: 2048
>>>>>Begin Spectral Data<<<<<
189.047	-123.2
189.435	-123.2
189.823	-123.2
190.211	-9727.91
190.599	-44.32
190.987	54.72
191.375	-5.85
191.763	62.39
192.151	6.06
192.538	-97.51
192.926	147.78
193.314	345.15
193.702	305.14
194.089	63.9
194.477	2003.53
194.864	148.2
195.252	52.88
195.639	771.79
196.027	81.01
196.414	34.13
196.801	193.35
197.189	100.94
197.576	-33.76
197.963	58.34
198.351	14.07
198.738	20.31
199.125	-0.93
199.512	-5.8
199.899	12.21
200.286	-49.95
200.673	-5.13
201.06	5.43
201.447	-40.77
201.833	-40.67
202.22	-24.15
202.607	-24.31
202.994	24.92
203.38	-66.36
203.767	6.26
204.154	-3.24
204.54	-31.62
204.927	-11.33
205.313	26.27
205.699	-41.7
206.086	11.45
206.472	0.34
206.858	-32.36
207.245	0.13
207.631	27.66
208.017	5.01
208.403	-6.78
208.789	-8.73
209.175	-36.43
209.561	-27.71
209.947	-0.19
210.333	-35.97
210.719	6.69
211.105	23.37
211.491	-9.87
211.876	10.51
212.262	-58.45
212.648	44.36
213.034	21.64
213.419	2.56
213.805	20.38
214.19	-13.64
214.576	20.51
214.961	-18.04
215.346	-43.72
215.732	19.26
216.117	-36.48
216.502	-3.3
216.888	-58.45
217.273	-33.54
217.658	54.76
218.043	-29.55
218.428	-25.13
218.813	17.08
219.198	-34.05
219.583	15.25
219.968	7.02
220.353	-8.81
220.738	4.88
221.122	6.03
221.507	-17.9
221.892	12.99
222.276	-1.56
222.661	-23.72
223.046	-13.12
223.43	1.51
223.815	15.09
224.199	10.01
224.583	2.67
224.968	12.08
225.352	13.06
225.736	-2.9
226.121	2.08
226.505	3.54
226.889	13.67
227.273	-5.12
227.657	9.35
228.041	2.57
228.425	2.53
228.809	0.74
229.193	6.79
229.577	2.97
229.961	-0.21
230.344	3.32
230.728	2.14
231.112	1.96
231.495	2.42
231.879	1.81
232.263	2.39
232.646	1.82
233.03	2.79
233.413	3.88
233.797	2.53
234.18	2.95
234.563	1.67
234.946	3.34
235.33	1.09
235.713	-0.17
236.096	2.18
236.479	2.75
236.862	3.17
237.245	1.78
237.628	2.35
238.011	5.33
238.394	4.62
238.777	3.21
239.16	0.45
239.543	1.82
239.925	3.23
240.308	0.11
240.691	1.25
241.073	1.1
241.456	1.58
241.838	1.88
242.221	2.5
242.603	3.25
242.986	2.39
243.368	2.86
243.75	2.47
244.133	2.29
244.515	2.87
244.897	3.07
245.279	2.78
245.661	2.23
246.043	2.95
246.425	2.67
246.807	3.66
247.189	2.53
247.571	2.53
247.953	3.38
248.335	2.75
248.717	2.59
249.098	2.51
249.48	2.94
249.862	2.78
250.243	2.38
250.625	2.99
251.006	3.1
251.388	2.82
251.769	3.33
252.151	2.89
252.532	3.17
252.913	3.37
253.295	2.31
253.676	3.03
254.057	2.96
254.438	1.92
254.819	2.19
255.2	2.75
255.581	2.69
255.962	2.77
256.343	3.02
256.724	2.08
257.105	2.19
257.486	3.04
257.867	2.09
258.247	1.95
258.628	3.73
259.009	2
259.389	2.46
259.77	2.13
260.15	2.4
260.531	2.12
260.911	2.52
261.292	2.35
261.672	2.55
262.052	2.1
262.432	2.41
262.813	2.63
263.193	2.51
263.573	2.3
263.953	2.53
264.333	2.22
264.713	2.23
265.093	2.2
265.473	2.26
265.853	1.85
266.233	2.29
266.612	2.28
266.992	2.52
267.372	1.78
267.752	2.95
268.131	2.79
268.511	1.62
268.89	3.04
269.27	2.02
269.649	2.85
270.029	2.97
270.408	2.35
270.787	3.08
271.167	3
271.546	2.41
271.925	2.8
272.304	2.49
272.683	2.21
273.062	1.88
273.441	2.4
273.82	2.36
274.199	1.71
274.578	2.1
274.957	2.61
275.336	2.86
275.715	2.88
276.093	2.14
276.472	1.99
276.851	2
277.229	2.74
277.608	2.71
277.986	2.53
278.365	2.19
278.743	2.37
279.122	2.73
279.5	1.58
279.878	1.74
280.257	2.19
280.635	2.56
281.013	2.1
281.391	1.9
281.769	2.68
282.147	1.97
282.525	2.25
282.903	2.52
283.281	2.88
283.659	3
284.037	2.77
284.415	2.09
284.792	2.2
285.17	2.09
285.548	2.39
285.925	2.78
286.303	2.32
286.68	2.24
287.058	2.45
287.435	2.25
287.813	2.27
288.19	2.83
288.567	2.68
288.945	2.09
289.322	2.74
289.699	2.43
290.076	2.83
290.453	2.07
290.83	1.62
291.207	1.98
291.584	2.27
291.961	2.55
292.338	2.07
292.715	2.18
293.092	2.57
293.469	2.37
293.845	2.07
294.222	1.69
294.599	2.17
294.975	1.87
295.352	2.26
295.728	2.44
296.105	2.18
296.481	2.38
296.858	2.81
297.234	3
297.61	2.76
297.986	2.4
298.363	2.47
298.739	2.51
299.115	2.44
299.491	2.53
299.867	2.37
300.243	2.79
300.619	2.57
300.995	3.18
301.371	2.53
301.746	2.61
302.122	2.82
302.498	2.73
302.874	2.37
303.249	2.36
303.625	2.58
304	2.2
304.376	2.72
304.751	2.43
305.127	2.47
305.502	2.72
305.878	2.75
306.253	2.1
306.628	2.72
307.003	2.81
307.378	2.63
307.754	2.63
308.129	2.62
308.504	3.33
308.879	2.47
309.254	3
309.629	2.63
310.003	3.06
310.378	2.19
310.753	2.82
311.128	2.71
311.502	2.51
311.877	2.52
312.252	3.01
312.626	2.56
313.001	2.9
313.375	2.91
313.75	2.56
314.124	2.51
314.498	2.97
314.873	3.31
315.247	3.35
315.621	2.28
315.995	2.73
316.369	3.09
316.743	2.2
317.117	2.88
317.491	2.11
317.865	2.6
318.239	2.11
318.613	2.73
318.987	3.06
319.361	2.31
319.734	2.42
320.108	2.61
320.482	2.78
320.855	2.64
321.229	3.17
321.602	2.73
321.976	2.13
322.349	2.79
322.723	2.56
323.096	2.78
323.469	2.66
323.843	2.81
324.216	2.87
324.589	2.71
324.962	2.9
325.335	2.92
325.708	2.38
326.081	2.77
326.454	3.19
326.827	2.99
327.2	2.5
327.573	2.74
327.945	3.04
328.318	3.03
328.691	2.57
329.063	2.43
329.436	2.81
329.809	3.33
330.181	2.35
330.553	2.31
330.926	2.91
331.298	3.09
331.671	2.89
332.043	2.97
332.415	3.68
332.787	2.92
333.159	2.79
333.532	3.44
333.904	2.97
334.276	2.62
334.648	2.4
335.02	3.04
335.391	2.54
335.763	2.68
336.135	3.1
336.507	2.94
336.879	2.35
337.25	3.18
337.622	2.92
337.993	2.96
338.365	2.7
338.736	3.34
339.108	2.07
339.479	2.46
339.851	2.9
340.222	3.18
340.593	2.7
340.964	3.18
341.336	2.46
341.707	2.45
342.078	2.37
342.449	2.79
342.82	3.33
343.191	2.61
343.562	2.79
343.933	2.58
344.303	2.84
344.674	3.03
345.045	3.1
345.416	2.84
345.786	2.85
346.157	2.85
346.527	2.32
346.898	2.84
347.268	2.99
347.639	2.74
348.009	2.72
348.38	3.03
348.75	2.94
349.12	3.17
349.49	3.11
349.861	2.62
350.231	2.61
350.601	3.04
350.971	3.09
351.341	3.13
351.711	3.02
352.081	2.86
352.45	3.15
352.82	3.1
353.19	3.07
353.56	2.99
353.929	3.21
354.299	2.81
354.669	3.3
355.038	3.2
355.408	3.1
355.777	2.69
356.147	3.24
356.516	3.29
356.885	2.99
357.254	2.92
357.624	3.03
357.993	3.14
358.362	2.38
358.731	2.96
359.1	3.05
359.469	3.3
359.838	2.86
360.207	3.01
360.576	3.4
360.945	2.98
361.314	2.61
361.682	2.59
362.051	3.14
362.42	2.91
362.788	3
363.157	3.01
363.525	2.82
363.894	3.13
364.262	3.08
364.631	2.83
364.999	3.06
365.367	3.12
365.735	3.11
366.104	2.82
366.472	2.92
366.84	3.01
367.208	2.9
367.576	2.84
367.944	3.25
368.312	3.22
368.68	2.9
369.048	3.3
369.416	3.04
369.783	2.94
370.151	2.99
370.519	3.06
370.886	2.96
371.254	2.85
371.621	2.84
371.989	3.12
372.356	3.06
372.724	3.51
373.091	3.08
373.458	2.85
373.826	3.17
374.193	3.01
374.56	3.17
374.927	2.64
375.294	3.19
375.661	3.23
376.028	2.77
376.395	2.9
376.762	3.05
377.129	2.62
377.496	3.04
377.863	3.28
378.229	2.91
378.596	3.33
378.963	3.25
379.329	3.23
379.696	3.09
380.062	2.89
380.429	3.05
380.795	3.29
381.161	3.35
381.528	3.27
381.894	3.27
382.26	2.97
382.626	3.27
382.993	3.17
383.359	3.11
383.725	3.39
384.091	3.41
384.457	3.37
384.823	3.07
385.188	3.32
385.554	3.03
385.92	3.1
386.286	3.39
386.651	2.93
387.017	3.28
387.383	3.23
387.748	3.26
388.114	2.9
388.479	2.98
388.845	3.17
389.21	3.02
389.575	3.36
389.94	3
390.306	3.19
390.671	3.12
391.036	2.98
391.401	3.06
391.766	3.21
392.131	3.24
392.496	3.09
392.861	3.03
393.226	3.27
393.591	2.86
393.956	3.28
394.32	3.07
394.685	3.19
395.05	3.41
395.414	3.16
395.779	3.18
396.143	3.04
396.508	3.16
396.872	3.38
397.236	3.3
397.601	3.27
397.965	3.27
398.329	3.29
398.694	3.14
399.058	3.13
399.422	3.3
399.786	3.22
400.15	3.42
400.514	3.37
400.878	3.03
401.242	3.17
401.605	3.22
401.969	3.27
402.333	3.28
402.697	3.2
403.06	3.32
403.424	3.39
403.787	3.15
404.151	3.13
404.514	3.26
404.878	3.08
405.241	3.5
405.604	3.24
405.968	3.15
406.331	3.33
406.694	3.18
407.057	3.31
407.42	3.11
407.783	3.13
408.146	3.27
408.509	3.3
408.872	3.22
409.235	3.36
409.598	3.25
409.961	3.2
410.323	3.5
410.686	3.32
411.049	3.64
411.411	3.52
411.774	3.38
412.136	3.21
412.499	3.24
412.861	3.18
413.223	3.26
413.586	3.22
413.948	3.67
414.31	3.54
414.672	3.24
415.035	3.22
415.397	3.34
415.759	3.46
416.121	3.52
416.483	3.4
416.845	3.29
417.206	3.5
417.568	3.51
417.93	3.33
418.292	3.33
418.653	3.39
419.015	3
419.377	3.22
419.738	3.5
420.1	3.38
420.461	3.31
420.822	3.34
421.184	3.28
421.545	3.25
421.906	3.32
422.267	3.28
422.629	3.29
422.99	3.19
423.351	3.33
423.712	3.17
424.073	3.36
424.434	3.4
424.795	3.21
425.155	3.25
425.516	3.25
425.877	3.22
426.238	3.22
426.598	3.14
426.959	3.26
427.32	3.19
427.68	3.28
428.041	3.28
428.401	3.37
428.761	3.32
429.122	3.27
429.482	3.32
429.842	3.57
430.202	3.25
430.563	3.51
430.923	3.5
431.283	3.34
431.643	3.3
432.003	3.4
432.363	3.5
432.722	3.36
433.082	3.18
433.442	3.33
433.802	3.33
434.161	3.52
434.521	3.39
434.881	3.36
435.24	3.32
435.6	3.32
435.959	3.25
436.319	3.43
436.678	3.3
437.037	3.5
437.396	3.48
437.756	3.47
438.115	3.5
438.474	3.46
438.833	3.31
439.192	3.54
439.551	3.26
439.91	3.36
440.269	3.39
440.628	3.42
440.987	3.45
441.345	3.32
441.704	3.37
442.063	3.31
442.421	3.4
442.78	3.44
443.138	3.28
443.497	3.33
443.855	3.36
444.214	3.58
444.572	3.43
444.93	3.58
445.288	3.35
445.647	3.51
446.005	3.47
446.363	3.55
446.721	3.3
447.079	3.39
447.437	3.28
447.795	3.34
448.153	3.43
448.51	3.33
448.868	3.46
449.226	3.33
449.584	3.39
449.941	3.39
450.299	3.54
450.656	3.4
451.014	3.44
451.371	3.4
451.729	3.31
452.086	3.45
452.443	3.59
452.801	3.56
453.158	3.56
453.515	3.54
453.872	3.53
454.229	3.57
454.586	3.61
454.943	3.46
455.3	3.48
455.657	3.48
456.014	3.43
456.371	3.41
456.727	3.51
457.084	3.5
457.441	3.53
457.797	3.53
458.154	3.57
458.51	3.73
458.867	3.45
459.223	3.55
459.58	3.55
459.936	3.46
460.292	3.59
460.648	3.5
461.005	3.34
461.361	3.48
461.717	3.43
462.073	3.45
462.429	3.41
462.785	3.49
463.141	3.49
463.496	3.6
463.852	3.56
464.208	3.58
464.564	3.69
464.919	3.66
465.275	3.6
465.631	3.64
465.986	3.65
466.342	3.7
466.697	3.4
467.052	3.4
467.408	3.43
467.763	3.47
468.118	3.43
468.473	3.47
468.829	3.55
469.184	3.51
469.539	3.65
469.894	3.61
470.249	3.5
470.603	3.75
470.958	3.6
471.313	3.64
471.668	3.58
472.023	3.69
472.377	3.62
472.732	3.51
473.086	3.71
473.441	3.56
473.795	3.56
474.15	3.52
474.504	3.58
474.859	3.73
475.213	3.51
475.567	3.62
475.921	3.74
476.275	3.61
476.63	3.69
476.984	3.75
477.338	3.68
477.692	3.56
478.045	3.61
478.399	3.65
478.753	3.52
479.107	3.66
479.461	3.64
479.814	3.87
480.168	3.72
480.521	3.64
480.875	3.72
481.228	3.59
481.582	3.71
481.935	3.62
482.289	3.72
482.642	3.86
482.995	3.8
483.348	3.67
483.701	3.67
484.055	3.6
484.408	3.57
484.761	3.63
485.114	3.52
485.466	3.46
485.819	3.36
486.172	3.37
486.525	3.4
486.878	3.45
487.23	3.54
487.583	3.6
487.936	3.65
488.288	3.64
488.641	3.59
488.993	3.59
489.345	3.52
489.698	3.57
490.05	3.47
490.402	3.47
490.754	3.56
491.107	3.56
491.459	3.62
491.811	3.62
492.163	3.67
492.515	3.7
492.866	3.64
493.218	3.62
493.57	3.56
493.922	3.41
494.274	3.55
494.625	3.53
494.977	3.64
495.328	3.74
495.68	3.77
496.031	3.71
496.383	3.79
496.734	3.68
497.086	3.83
497.437	3.89
497.788	3.79
498.139	3.77
498.49	3.73
498.842	3.75
499.193	3.65
499.544	3.79
499.894	3.71
500.245	3.79
500.596	3.8
500.947	3.75
501.298	3.88
501.648	3.81
501.999	3.85
502.35	3.71
502.7	3.87
503.051	3.93
503.401	3.9
503.752	3.74
504.102	3.84
504.452	3.8
504.803	3.9
505.153	3.77
505.503	3.71
505.853	3.89
506.203	3.8
506.553	3.88
506.903	4.01
507.253	3.96
507.603	3.84
507.953	3.89
508.303	3.98
508.652	3.89
509.002	4.04
509.352	3.9
509.701	3.82
510.051	3.89
510.4	3.93
510.75	3.8
511.099	3.88
511.449	3.86
511.798	3.82
512.147	3.85
512.496	4
512.846	3.84
513.195	3.95
513.544	3.93
513.893	3.87
514.242	3.88
514.591	3.97
514.939	3.79
515.288	4.01
515.637	4.05
515.986	3.94
516.334	4.03
516.683	4.05
517.032	3.98
517.38	4
517.729	4.02
518.077	3.95
518.426	3.89
518.774	3.99
519.122	3.97
519.47	4.07
519.819	3.96
520.167	3.92
520.515	3.93
520.863	3.77
521.211	3.97
521.559	3.94
521.907	3.93
522.255	3.91
522.602	3.89
522.95	4.14
523.298	4.09
523.645	4.07
523.993	4.01
524.341	4.2
524.688	4.11
525.036	4.23
525.383	4.2
525.73	4.13
526.078	4.21
526.425	4.28
526.772	4.13
527.119	4.2
527.466	4.01
527.814	4.01
528.161	4.03
528.508	4
528.854	4.06
529.201	4.13
529.548	4.02
529.895	4.12
530.242	3.93
530.588	3.87
530.935	3.85
531.282	3.9
531.628	3.92
531.975	3.96
532.321	4.01
532.667	4.04
533.014	4.14
533.36	4.15
533.706	4.17
534.052	4.14
534.399	4.18
534.745	4.24
535.091	4.17
535.437	4.08
535.783	4.02
536.129	4.08
536.474	4.09
536.82	4.19
537.166	4.2
537.512	4.23
537.857	4.33
538.203	4.22
538.549	4.25
538.894	4.18
539.239	4.13
539.585	4.19
539.93	4.18
540.276	4.29
540.621	4.31
540.966	4.27
541.311	4.43
541.656	4.34
542.001	4.46
542.346	4.45
542.691	4.27
543.036	4.27
543.381	4.21
543.726	4.15
544.071	4.21
544.415	4.24
544.76	4.31
545.105	4.38
545.449	4.35
545.794	4.43
546.138	4.36
546.483	4.34
546.827	4.45
547.171	4.42
547.516	4.48
547.86	4.47
548.204	4.61
548.548	4.46
548.892	4.4
549.236	4.45
549.58	4.36
549.924	4.43
550.268	4.54
550.612	4.57
550.956	4.67
551.3	4.55
551.643	4.71
551.987	4.65
552.33	4.85
552.674	4.66
553.017	4.59
553.361	4.85
553.704	4.68
554.048	4.72
554.391	4.69
554.734	4.75
555.077	4.78
555.42	4.72
555.764	4.75
556.107	4.66
556.45	4.75
556.793	4.68
557.135	4.82
557.478	4.86
557.821	4.89
558.164	5.06
558.507	4.72
558.849	5.05
559.192	4.77
559.534	4.72
559.877	4.83
560.219	5.03
560.562	4.98
560.904	4.96
561.246	4.86
561.589	4.9
561.931	5.2
562.273	4.67
562.615	4.75
562.957	5.02
563.299	4.94
563.641	4.98
563.983	5.02
564.325	4.94
564.667	4.89
565.008	5.07
565.35	5.18
565.692	5.25
566.033	5.04
566.375	5.23
566.716	5.12
567.058	5.12
567.399	5.13
567.741	5.21
568.082	5.16
568.423	5.15
568.764	4.91
569.105	5.22
569.447	5.28
569.788	5.13
570.129	5.21
570.47	5.51
570.811	5.24
571.151	5.16
571.492	5.24
571.833	5.22
572.174	5.46
572.514	5.27
572.855	5.31
573.195	5.35
573.536	5.41
573.876	5.25
574.217	5.39
574.557	5.37
574.898	5.32
575.238	5.38
575.578	5.36
575.918	5.36
576.258	5.57
576.598	5.48
576.938	5.36
577.278	5.54
577.618	5.58
577.958	5.35
578.298	5.7
578.638	5.47
578.977	5.66
579.317	5.5
579.657	5.5
579.996	5.63
580.336	5.7
580.675	5.77
581.014	5.81
581.354	5.79
581.693	5.75
582.032	5.84
582.372	5.77
582.711	5.92
583.05	5.73
583.389	5.98
583.728	5.81
584.067	5.94
584.406	5.7
584.745	5.98
585.083	5.8
585.422	5.86
585.761	6.06
586.1	6
586.438	5.84
586.777	5.87
587.115	5.96
587.454	6.08
587.792	5.91
588.13	6.21
588.469	5.94
588.807	5.86
589.145	6.04
589.483	5.93
589.821	6.12
590.159	6.16
590.497	6.02
590.835	6.22
591.173	5.91
591.511	6.17
591.849	5.92
592.187	6.33
592.524	6.23
592.862	6.22
593.2	6.19
593.537	6.36
593.875	6.48
594.212	6.6
594.55	6.54
594.887	6.21
595.224	6.35
595.561	6.33
595.899	6.25
596.236	6.54
596.573	6.83
596.91	6.41
597.247	6.74
597.584	6.45
597.921	6.58
598.258	6.41
598.594	6.59
598.931	6.54
599.268	6.48
599.604	6.44
599.941	6.63
600.277	6.68
600.614	6.64
600.95	6.8
601.287	7.01
601.623	6.94
601.959	6.89
602.296	6.71
602.632	6.63
602.968	6.8
603.304	6.89
603.64	6.88
603.976	6.75
604.312	6.99
604.648	6.8
604.984	6.75
605.319	6.92
605.655	6.94
605.991	7.07
606.326	6.9
606.662	6.91
606.998	6.91
607.333	6.79
607.668	6.97
608.004	7.01
608.339	7.17
608.674	7.05
609.01	7.29
609.345	7.33
609.68	7.05
610.015	7.24
610.35	7.56
610.685	7.33
611.02	7.07
611.355	7.38
611.689	7.04
612.024	7.26
612.359	7.29
612.694	7.41
613.028	7.23
613.363	7.41
613.697	7.21
614.032	7.6
614.366	7.27
614.7	7.49
615.035	7.44
615.369	7.34
615.703	7.59
616.037	7.49
616.371	7.62
616.705	7.79
617.039	7.72
617.373	7.67
617.707	7.59
618.041	7.57
618.375	7.73
618.709	7.66
619.042	7.69
619.376	7.61
619.71	7.97
620.043	7.97
620.377	8.07
620.71	7.83
621.043	7.74
621.377	8.21
621.71	7.99
622.043	7.57
622.376	8.19
622.709	7.93
623.043	8.05
623.376	7.98
623.709	8.15
624.041	8.28
624.374	7.97
624.707	8.05
625.04	7.83
625.373	8.29
625.705	8.44
626.038	7.94
626.37	8.12
626.703	8.36
627.035	8.46
627.368	8.49
627.7	8.17
628.032	8.39
628.365	7.85
628.697	8.3
629.029	8.42
629.361	8.35
629.693	8.39
630.025	8.18
630.357	8.3
630.689	8.64
631.021	8.67
631.353	8.78
631.684	8.91
632.016	8.53
632.348	8.63
632.679	8.57
633.011	8.36
633.342	8.5
633.674	8.81
634.005	8.88
634.336	8.22
634.668	8.8
634.999	8.92
635.33	9.04
635.661	9.1
635.992	8.68
636.323	9
636.654	8.55
636.985	8.79
637.316	8.63
637.647	8.78
637.977	8.94
638.308	8.98
638.639	8.92
638.969	9.46
639.3	8.76
639.63	8.77
639.961	9.42
640.291	9.11
640.622	9.15
640.952	9.04
641.282	9.16
641.612	9.39
641.943	9.48
642.273	9.76
642.603	8.98
642.933	9.1
643.263	9.5
643.592	9.49
643.922	9.49
644.252	9.45
644.582	9.32
644.911	9.65
645.241	9.6
645.571	9.45
645.9	9.55
646.23	9.59
646.559	9.72
646.888	9.96
647.218	9.21
647.547	9.59
647.876	9.95
648.205	9.67
648.534	10.09
648.863	9.66
649.192	9.98
649.521	9.74
649.85	10.01
650.179	10.16
650.508	9.99
650.837	9.69
651.165	9.67
651.494	9.76
651.822	9.83
652.151	9.89
652.479	10.64
652.808	10.01
653.136	10.18
653.465	10.19
653.793	10.09
654.121	10.41
654.449	10.33
654.777	10.22
655.105	10.14
655.433	10.22
655.761	9.97
656.089	10.1
656.417	10.23
656.745	10.63
657.073	9.92
657.4	10.4
657.728	10.99
658.056	11
658.383	10.67
658.711	10.15
659.038	10.59
659.365	10.62
659.693	10.53
660.02	10.69
660.347	11.22
660.674	10.68
661.001	11.02
661.329	10.45
661.656	10.55
661.982	10.61
662.309	10.55
662.636	10.67
662.963	11.36
663.29	11.2
663.616	10.76
663.943	11.02
664.27	10.65
664.596	10.92
664.923	10.71
665.249	11.47
665.576	11.13
665.902	10.87
666.228	10.76
666.554	10.84
666.881	10.72
667.207	11.33
667.533	11.12
667.859	10.56
668.185	11.14
668.511	11.69
668.837	10.52
669.162	11.47
669.488	11.33
669.814	11.28
670.139	10.73
670.465	11.66
670.791	11.56
671.116	11.26
671.442	11.75
671.767	11
672.092	11.44
672.418	11.77
672.743	11.8
673.068	11.82
673.393	11.14
673.718	11.39
674.043	11.48
674.368	11.35
674.693	12.35
675.018	12
675.343	11.58
675.667	11.6
675.992	12.18
676.317	11.03
676.641	11.99
676.966	12.04
677.29	10.96
677.615	12.32
677.939	12.2
678.264	11.49
678.588	12.16
678.912	12.17
679.236	11.94
679.56	12.15
679.885	12.92
680.209	11.9
680.532	12.89
680.856	12.24
681.18	12.12
681.504	11.74
681.828	12.25
682.152	12.63
682.475	12.59
682.799	12.62
683.122	12.17
683.446	11.94
683.769	12.9
684.093	12.59
684.416	13.05
684.739	11.84
685.062	12.87
685.386	12.7
685.709	13.26
686.032	12.23
686.355	11.9
686.678	12.85
687.001	12.29
687.324	12.47
687.646	12.58
687.969	12.19
688.292	12.64
688.614	13.81
688.937	12.48
689.26	12.4
689.582	12.13
689.904	12.77
690.227	13.86
690.549	12.33
690.871	12.96
691.194	12.89
691.516	12.78
691.838	13.2
692.16	13.68
692.482	13.18
692.804	12.62
693.126	12.87
693.448	13.05
693.769	13.32
694.091	12.7
694.413	12.79
694.735	14.1
695.056	13.69
695.378	14.05
695.699	13.7
696.021	12.98
696.342	13.24
696.663	13.09
696.984	12.93
697.306	13
697.627	13.47
697.948	13.31
698.269	12.99
698.59	12.89
698.911	13.74
699.232	13.1
699.553	13.22
699.873	13.14
700.194	13.61
700.515	14.12
700.835	13.46
701.156	13.67
701.477	13.82
701.797	13.98
702.117	13.15
702.438	14.14
702.758	14.16
703.078	14.47
703.398	13.9
703.719	15.13
704.039	13.88
704.359	13.17
704.679	13.57
704.999	13.78
705.319	14.06
705.638	14.25
705.958	14.5
706.278	14.13
706.597	13.35
706.917	15.04
707.237	13.87
707.556	13.48
707.876	14.55
708.195	15.41
708.514	14.76
708.834	13.78
709.153	14.94
709.472	14.93
709.791	15.09
710.11	14.22
710.429	14.5
710.748	14.82
711.067	14.95
711.386	14.54
711.705	15.87
712.023	15.54
712.342	14.92
712.661	14.72
712.979	15.12
713.298	14.74
713.616	14.4
713.935	14.72
714.253	13.79
714.572	15.32
714.89	14.94
715.208	14.83
715.526	15.29
715.844	14.33
716.162	14.96
716.48	14.4
716.798	15.59
717.116	15.43
717.434	15.16
717.752	14.39
718.069	15.32
718.387	14.8
718.705	15.18
719.022	15.77
719.34	15.81
719.657	15.59
719.975	15.5
720.292	14.61
720.609	15.49
720.927	15.06
721.244	16.13
721.561	15.22
721.878	15.11
722.195	15.12
722.512	14.89
722.829	15.62
723.146	15.51
723.463	15.68
723.779	15.71
724.096	16.59
724.413	15.81
724.729	16.68
725.046	15.19
725.362	16.24
725.679	16.74
725.995	16.01
726.311	16.52
726.628	17.63
726.944	15.53
727.26	14.93
727.576	15.08
727.892	15.13
728.208	16.22
728.524	15.31
728.84	16.78
729.156	16.14
729.472	15.63
729.787	17.38
730.103	16.67
730.419	16.53
730.734	15.51
731.05	15.09
731.365	16.4
731.681	16.82
731.996	16.39
732.311	15.76
732.626	17.28
732.942	16.95
733.257	17.48
733.572	16.68
733.887	16.17
734.202	16.77
734.517	16.56
734.832	18.03
735.146	16.72
735.461	16.21
735.776	16.68
736.091	16.41
736.405	17.36
736.72	18.75
737.034	17.53
737.349	17.24
737.663	16.34
737.977	17.51
738.292	17.93
738.606	17.33
738.92	16.05
739.234	17.05
739.548	17.55
739.862	17.88
740.176	17
740.49	16.67
740.804	17.9
741.117	16.77
741.431	19.33
741.745	17.9
742.058	18.66
742.372	18.65
742.685	18.73
742.999	18.18
743.312	16.17
743.626	17.12
743.939	18.02
744.252	17.88
744.565	18.04
744.878	18.56
745.191	17.68
745.505	19.4
745.817	18.69
746.13	18.6
746.443	17.97
746.756	17.87
747.069	19
747.381	15.73
747.694	20.36
748.007	17.72
748.319	16.29
748.632	17.11
748.944	17.24
749.256	19.92
749.569	16.99
749.881	19.24
750.193	16.35
750.505	19.36
750.817	19.71
751.129	17.23
751.441	19.71
751.753	18.42
752.065	16.86
752.377	17.46
752.689	18
753	19.13
753.312	21.5
753.624	17.17
753.935	17.79
754.247	19.91
754.558	19.4
754.869	18.6
755.181	18.42
755.492	17.16
755.803	17.73
756.114	18.02
756.425	19.6
756.736	19.33
757.047	16.87
757.358	17.56
757.669	18.94
757.98	20.13
758.291	18.54
758.601	20.15
758.912	18.75
759.223	19.05
759.533	19.42
759.844	20.57
760.154	19.48
760.464	20.74
760.775	19.09
761.085	20.49
761.395	19.83
761.705	19.53
762.016	20.1
762.326	21.71
762.636	19.31
762.945	19.57
763.255	20.85
763.565	19.59
763.875	20.43
764.185	17.88
764.494	19.02
764.804	19.28
765.113	20.03
765.423	19.53
765.732	20.89
766.042	19.63
766.351	19.49
766.66	20.03
766.97	19.76
767.279	20.78
767.588	19.4
767.897	20.4
768.206	19.89
768.515	20.51
768.824	20.78
769.133	21.56
769.441	20.3
769.75	20.12
770.059	20.09
770.367	20.85
770.676	18.78
770.984	20.69
771.293	19.93
771.601	21.84
771.91	19.75
772.218	21.31
772.526	21.61
772.834	20.07
773.142	20.97
773.45	19.3
773.758	19.84
774.066	22.15
774.374	19.28
774.682	21.48
774.99	22.04
775.298	20.75
775.605	19.09
775.913	18.72
776.22	21.74
776.528	23.87
776.835	17.58
777.143	21.55
777.45	21.03
777.757	18.97
778.065	21.11
778.372	23.17
778.679	20.22
778.986	21.16
779.293	18.69
779.6	21.32
779.907	20.83
780.214	20.82
780.52	20.94
780.827	21.81
781.134	25.01
781.44	22.55
781.747	21.3
782.053	24.72
782.36	17.11
782.666	22.06
782.973	25.31
783.279	22.1
783.585	20.86
783.891	20.03
784.197	19.77
784.503	20.08
784.809	18.14
785.115	20.25
785.421	21.85
785.727	21.42
786.033	20.93
786.339	20.93
786.644	18.58
786.95	25.3
787.255	24.87
787.561	22.36
787.866	20.34
788.172	23.37
788.477	19.65
788.782	25.64
789.088	20.85
789.393	26.44
789.698	25.23
790.003	22.84
790.308	25.03
790.613	24.82
790.918	21.05
791.223	24.01
791.527	20.47
791.832	20.5
792.137	21.21
792.441	24.3
792.746	20.15
793.05	21.28
793.355	22.07
793.659	21.85
793.963	23.19
794.268	24.09
794.572	20.02
794.876	21.26
795.18	24.91
795.484	20.51
795.788	24
796.092	22.75
796.396	24.66
796.7	23.11
797.004	22.21
797.307	21.83
797.611	22.35
797.915	22.22
798.218	20.3
798.522	22.55
798.825	24.26
799.128	18.24
799.432	26.97
799.735	21.94
800.038	22.99
800.341	21.04
800.644	25.11
800.947	25.12
801.25	24.88
801.553	26.66
801.856	22.07
802.159	21.7
802.462	24.89
802.764	20.59
803.067	22.95
803.37	19.19
803.672	24.66
803.975	27.4
804.277	22.88
804.579	24.26
804.882	23.27
805.184	25.31
805.486	21.37
805.788	23.63
806.09	23.4
806.392	23.96
806.694	21.51
806.996	18.52
807.298	27.7
807.6	19.79
807.902	25.05
808.203	25.99
808.505	27.2
808.807	25.68
809.108	28.24
809.409	27.02
809.711	23.65
810.012	24.13
810.313	22.91
810.615	23.48
810.916	27.2
811.217	24.02
811.518	23.03
811.819	22.27
812.12	22.73
812.421	24.01
812.722	26.94
813.023	26.54
813.323	22.04
813.624	27.74
813.925	22.77
814.225	23.81
814.526	27.85
814.826	27.43
815.126	28.31
815.427	28.72
815.727	23.14
816.027	23.95
816.327	29.16
816.627	24.39
816.927	24.77
817.227	20.77
817.527	22.27
817.827	28.51
818.127	28.43
818.427	23.98
818.727	25.54
819.026	25.12
819.326	16.52
819.625	23.55
819.925	24.9
820.224	26.38
820.524	24.66
820.823	25.52
821.122	21.9
821.421	24.92
821.72	22.91
822.019	29.73
822.318	22.83
822.617	23.34
822.916	26.71
823.215	30.01
823.514	23.2
823.813	27.03
824.111	27
824.41	27.35
824.709	28.35
825.007	26.06
825.306	27.27
825.604	27.31
825.902	27.92
826.201	26.26
826.499	28.08
826.797	26.84
827.095	26.97
827.393	28.01
827.691	25.84
827.989	28.8
828.287	29.12
828.585	27.02
828.882	27
829.18	28
829.478	25.41
829.775	28.22
830.073	27.15
830.37	28.66
830.668	27.22
830.965	27.7
831.263	27.54
831.56	27.8
831.857	29.69
832.154	26.78
832.451	24.31
832.748	29.06
833.045	22.05
833.342	26.72
833.639	25.21
833.936	26.74
834.232	22.33
834.529	25.44
834.826	25.37
835.122	30.33
835.419	30.8
835.715	29.09
836.012	22.41
836.308	23.67
836.604	28.36
836.901	26.71
837.197	27.07
837.493	29.03
837.789	29.85
838.085	28.58
838.381	29.91
838.677	28.32
838.972	28.19
839.268	27.48
839.564	24.54
839.86	28.15
840.155	26.29
840.451	27.56
840.746	31.51
841.042	26.62
841.337	28.06
841.632	22.61
841.928	29.61
842.223	25.63
842.518	26.42
842.813	26.45
843.108	27.84
843.403	30.75
843.698	23.62
843.993	24.32
844.287	33.04
844.582	38.18
844.877	31.68
845.171	34.42
845.466	22.99
845.761	23.39
846.055	23.02
846.349	20.52
846.644	30.49
846.938	18.16
847.232	17.62
847.526	23.11
847.82	18.64
848.114	-0.81
848.408	23.11
848.702	30.32
848.996	36.47
849.29	28.63
849.584	29.95
849.877	29.29
850.171	9.92
850.465	26.29
850.758	14.18
851.052	30.97
851.345	16.54
851.638	19.13
851.932	9.93
852.225	27.23
852.518	32.89
852.811	41.96
853.104	14.68
853.397	21.82
853.69	26.99
853.983	17.1
854.276	23.1
854.569	27.12
854.861	25.87
855.154	13.74
855.447	34.56
855.739	28.26
856.032	6.67
856.324	11.05
856.616	12.13
856.909	20.55
857.201	11.52
857.493	18.96
857.785	16.34
858.077	19.99
858.369	25.82
858.661	30.45
858.953	23.34
859.245	28.02
859.537	44.7
859.829	27.85
860.12	21.26
860.412	15.62
860.703	40.75
860.995	3.27
861.286	39.6
861.578	23.21
861.869	31.29
862.16	24.5
862.452	43.96
862.743	24.62
863.034	17.36
863.325	25.83
863.616	23.25
863.907	22.93
864.198	13.63
864.488	27.66
864.779	25.95
865.07	22.65
865.36	43.03
865.651	23.08
865.941	23.09
866.232	21.13
866.522	32.61
866.813	39.88
867.103	11.94
867.393	-1.22
867.683	9.12
867.973	27.05
868.263	-4.92
868.553	18.95
868.843	28.76
869.133	39.63
869.423	30.83
869.713	28.14
870.002	12.02
870.292	15.22
870.582	13.33
870.871	31.73
871.161	24.52
871.45	33.27
871.739	24.32
872.029	-26.09
872.318	17.76
872.607	37.77
872.896	24.47
873.185	-0.28
873.474	26.58
873.763	12.3
874.052	1.73
874.341	11.28
874.63	31.08
874.918	14.89
875.207	11.7
875.496	39.54
875.784	29.91
876.073	17.24
876.361	35.07
876.649	16.63
876.938	32.91
877.226	38.9
877.514	30.99
877.802	47.56
878.09	20.14
878.378	63.74
878.666	24.56
878.954	27.4
879.242	15.21
879.53	11.39
879.817	19.58
880.105	29.94
880.392	29.97
880.68	4.62
880.967	31.19
881.255	32.83
881.542	46.33
881.83	38.9
882.117	36.21
882.404	28.9
882.691	16.09
882.978	32.93
883.265	28.94
883.552	41.78
883.839	14.1
884.126	27.96
884.413	40.38
884.699	24.37
884.986	44.42
885.273	32.55
885.559	32.55
885.846	32.55
