Data from 0053_forehead_Reflection__4__61.txt Node

Date: Fri Dec 16 14:20:58 CST 2022
User: ToomeyLab
Spectrometer: FLMS14357
Trigger mode: 0
Integration Time (sec): 1.000000E-2
Scans to average: 100
Electric dark correction enabled: true
Nonlinearity correction enabled: false
Boxcar width: 0
XAxis mode: Wavelengths
Number of Pixels in Spectrum: 2048
>>>>>Begin Spectral Data<<<<<
189.047	43.36
189.435	43.36
189.823	43.36
190.211	165.76
190.599	3.1
190.987	1694.67
191.375	251.14
191.763	201.51
192.151	77.49
192.538	15.35
192.926	108.21
193.314	76.68
193.702	-13056
194.089	140.1
194.477	13952
194.864	-293.53
195.252	2.89
195.639	79.73
196.027	-22.55
196.414	31.1
196.801	-158.48
197.189	114.97
197.576	-96.61
197.963	250.95
198.351	39.44
198.738	-20.65
199.125	15.57
199.512	1.38
199.899	7.85
200.286	-32.06
200.673	37.24
201.06	22.63
201.447	38.36
201.833	-6.08
202.22	73.48
202.607	-41.15
202.994	66.61
203.38	-41.06
203.767	-15.05
204.154	-37.49
204.54	50.96
204.927	41.9
205.313	38.2
205.699	34.11
206.086	-4.12
206.472	-32.66
206.858	-8.34
207.245	57.87
207.631	34.97
208.017	41.65
208.403	-6.66
208.789	47.66
209.175	40.87
209.561	-9.19
209.947	-6.22
210.333	42.21
210.719	23.22
211.105	10.55
211.491	27.3
211.876	30.3
212.262	-16.78
212.648	-29.76
213.034	-5
213.419	20.58
213.805	19.42
214.19	33.12
214.576	-27.29
214.961	-6.96
215.346	2.8
215.732	-12.27
216.117	-2.2
216.502	-11.64
216.888	-7.04
217.273	43.93
217.658	18.6
218.043	8.32
218.428	11.3
218.813	-2.25
219.198	-28.66
219.583	16.14
219.968	5.95
220.353	15.1
220.738	-1.39
221.122	11.67
221.507	8.29
221.892	1.82
222.276	25.92
222.661	10.63
223.046	6.13
223.43	4.2
223.815	11.56
224.199	5.23
224.583	2.4
224.968	9.26
225.352	6.04
225.736	14.24
226.121	6.66
226.505	11.44
226.889	11.11
227.273	3.5
227.657	-0.05
228.041	7.16
228.425	7.49
228.809	4.44
229.193	2.63
229.577	3.45
229.961	5.06
230.344	4.77
230.728	4.32
231.112	3.6
231.495	4.15
231.879	5.82
232.263	3.61
232.646	4.28
233.03	2.41
233.413	4.52
233.797	4.11
234.18	2.32
234.563	5.91
234.946	2.77
235.33	4.81
235.713	4.37
236.096	4.63
236.479	6.79
236.862	6.48
237.245	6.7
237.628	5.04
238.011	3.65
238.394	5.84
238.777	5.83
239.16	2.38
239.543	4.64
239.925	4.64
240.308	4.83
240.691	4.02
241.073	5.42
241.456	4.51
241.838	4.05
242.221	5.28
242.603	5.16
242.986	5.4
243.368	4.7
243.75	4.17
244.133	4.7
244.515	4.69
244.897	4.68
245.279	4.9
245.661	4.79
246.043	5.12
246.425	4.44
246.807	4.38
247.189	4.7
247.571	4.58
247.953	4.75
248.335	4.83
248.717	4.69
249.098	4.73
249.48	4.57
249.862	5.04
250.243	5.03
250.625	4.74
251.006	5.42
251.388	5.35
251.769	5.04
252.151	5.34
252.532	5.38
252.913	5.05
253.295	5.23
253.676	5.17
254.057	4.55
254.438	4.32
254.819	5.29
255.2	5.42
255.581	4.25
255.962	5.15
256.343	6.28
256.724	5.61
257.105	4.7
257.486	4.89
257.867	3.25
258.247	5.75
258.628	5.44
259.009	4.75
259.389	5.39
259.77	4.54
260.15	5.29
260.531	4.87
260.911	4.93
261.292	4.65
261.672	4.81
262.052	4.75
262.432	4.52
262.813	5.08
263.193	4.59
263.573	5.29
263.953	5.15
264.333	4.82
264.713	4.64
265.093	4.92
265.473	5.21
265.853	3.97
266.233	5.04
266.612	5.27
266.992	4.48
267.372	4.64
267.752	4.09
268.131	4.61
268.511	4.7
268.89	5.15
269.27	4.82
269.649	4.87
270.029	5
270.408	4.73
270.787	4.5
271.167	4.49
271.546	4.28
271.925	4.79
272.304	4.81
272.683	4.81
273.062	4.54
273.441	4.71
273.82	5.14
274.199	4.67
274.578	4.55
274.957	4.75
275.336	4.41
275.715	4.66
276.093	4.97
276.472	5.28
276.851	4.98
277.229	5.31
277.608	4.78
277.986	4.47
278.365	4.35
278.743	4.82
279.122	4.24
279.5	4.5
279.878	4.05
280.257	5.44
280.635	4.24
281.013	4.94
281.391	4.77
281.769	4.65
282.147	4.79
282.525	4.81
282.903	5.01
283.281	4.53
283.659	4.65
284.037	4.74
284.415	4.68
284.792	4.75
285.17	4.32
285.548	4.16
285.925	4.71
286.303	4.41
286.68	4.74
287.058	4.44
287.435	4.35
287.813	4.73
288.19	4.95
288.567	4.73
288.945	4.93
289.322	4.44
289.699	4.65
290.076	5.4
290.453	4.95
290.83	5.11
291.207	5.31
291.584	4.67
291.961	5.07
292.338	4.91
292.715	5.05
293.092	5.02
293.469	5.25
293.845	5.43
294.222	5.13
294.599	5.57
294.975	5.76
295.352	4.86
295.728	5.46
296.105	5.38
296.481	5.7
296.858	5.63
297.234	5.43
297.61	5.6
297.986	5.34
298.363	5.77
298.739	5.59
299.115	5.52
299.491	5.85
299.867	5.67
300.243	5.72
300.619	5.78
300.995	6.28
301.371	6.32
301.746	5.78
302.122	5.79
302.498	5.91
302.874	6.01
303.249	6.03
303.625	6.11
304	6.12
304.376	6.01
304.751	6.52
305.127	5.94
305.502	6.39
305.878	6.5
306.253	6.32
306.628	6.12
307.003	6.64
307.378	6.14
307.754	6.91
308.129	6.36
308.504	6.47
308.879	6.65
309.254	7.03
309.629	6.9
310.003	7.25
310.378	7.27
310.753	6.83
311.128	6.58
311.502	6.91
311.877	7.08
312.252	6.94
312.626	6.97
313.001	6.87
313.375	7.11
313.75	7.05
314.124	7.75
314.498	7.11
314.873	7.47
315.247	7.27
315.621	7.44
315.995	7.47
316.369	7.44
316.743	7.68
317.117	7.42
317.491	7.88
317.865	6.91
318.239	8.04
318.613	7.33
318.987	7.91
319.361	7.84
319.734	8.28
320.108	8.04
320.482	8.06
320.855	7.93
321.229	8.7
321.602	8.16
321.976	7.96
322.349	7.63
322.723	7.34
323.096	8.44
323.469	8.05
323.843	9
324.216	8.68
324.589	8.9
324.962	8.57
325.335	8.62
325.708	8.65
326.081	8.96
326.454	8.94
326.827	9.06
327.2	9.39
327.573	8.85
327.945	9.11
328.318	8.94
328.691	8.82
329.063	8.69
329.436	9.01
329.809	8.85
330.181	9.04
330.553	9.17
330.926	8.94
331.298	8.91
331.671	9.19
332.043	9.33
332.415	10.09
332.787	9.59
333.159	9.15
333.532	9.01
333.904	9.35
334.276	9.54
334.648	9.78
335.02	9.45
335.391	9.9
335.763	9.35
336.135	9.41
336.507	10.24
336.879	9.89
337.25	9.94
337.622	9.93
337.993	9.9
338.365	10.23
338.736	10.04
339.108	9.55
339.479	10.29
339.851	10.52
340.222	10.03
340.593	10.28
340.964	10.26
341.336	10.05
341.707	10.05
342.078	10.18
342.449	10.35
342.82	10.41
343.191	9.91
343.562	10.64
343.933	10.42
344.303	10.72
344.674	10.56
345.045	10.55
345.416	10.49
345.786	10.32
346.157	10.5
346.527	10.31
346.898	10.47
347.268	10.35
347.639	10.53
348.009	11.03
348.38	11.02
348.75	10.78
349.12	10.96
349.49	11.04
349.861	11.2
350.231	11.18
350.601	11.13
350.971	11.06
351.341	11.6
351.711	10.74
352.081	11.26
352.45	11.29
352.82	11.48
353.19	11.2
353.56	11.19
353.929	11.34
354.299	11.55
354.669	11.12
355.038	11.34
355.408	11.66
355.777	11.36
356.147	11.63
356.516	11.51
356.885	11.91
357.254	11.88
357.624	11.72
357.993	11.56
358.362	11.82
358.731	11.62
359.1	11.92
359.469	11.73
359.838	11.96
360.207	11.61
360.576	11.84
360.945	11.85
361.314	12.09
361.682	11.84
362.051	11.81
362.42	12.27
362.788	12.11
363.157	12.04
363.525	11.85
363.894	12.18
364.262	12.28
364.631	12.74
364.999	12.14
365.367	12.63
365.735	12.24
366.104	12.44
366.472	12.54
366.84	12.76
367.208	12.35
367.576	12.61
367.944	13.06
368.312	12.52
368.68	12.87
369.048	13.16
369.416	12.77
369.783	12.63
370.151	12.85
370.519	12.81
370.886	13.08
371.254	13.05
371.621	13.26
371.989	13.22
372.356	13.25
372.724	13.09
373.091	13.11
373.458	13.13
373.826	13.38
374.193	13.72
374.56	13.16
374.927	13.24
375.294	13.56
375.661	13.52
376.028	13.38
376.395	13.3
376.762	13.77
377.129	13.47
377.496	13.68
377.863	13.55
378.229	13.67
378.596	13.52
378.963	13.6
379.329	13.73
379.696	13.9
380.062	13.8
380.429	13.99
380.795	13.81
381.161	14.2
381.528	13.66
381.894	14.33
382.26	14.02
382.626	14.26
382.993	14.05
383.359	14.21
383.725	14.57
384.091	14.1
384.457	14.51
384.823	14.39
385.188	14.32
385.554	14.53
385.92	14.7
386.286	14.87
386.651	14.49
387.017	14.56
387.383	14.51
387.748	14.61
388.114	14.77
388.479	14.73
388.845	14.81
389.21	15.07
389.575	14.96
389.94	14.71
390.306	14.72
390.671	15.24
391.036	15.14
391.401	15.48
391.766	15.22
392.131	15.07
392.496	15.13
392.861	15.1
393.226	15.18
393.591	15.34
393.956	15.39
394.32	15.45
394.685	15.45
395.05	15.3
395.414	15.68
395.779	15.46
396.143	15.35
396.508	15.63
396.872	15.55
397.236	15.54
397.601	15.69
397.965	15.5
398.329	16.1
398.694	15.71
399.058	16.06
399.422	15.77
399.786	15.92
400.15	15.86
400.514	16.22
400.878	16.06
401.242	16.36
401.605	16.24
401.969	16.12
402.333	16.32
402.697	16.39
403.06	16.48
403.424	16.2
403.787	16.38
404.151	16.32
404.514	16.52
404.878	16.26
405.241	16.63
405.604	16.6
405.968	16.58
406.331	16.48
406.694	16.65
407.057	16.7
407.42	16.75
407.783	16.81
408.146	16.86
408.509	16.8
408.872	16.75
409.235	17.04
409.598	17.03
409.961	16.97
410.323	17.1
410.686	17.15
411.049	17.11
411.411	17.29
411.774	17.1
412.136	17.13
412.499	17.23
412.861	17
413.223	17.34
413.586	17.09
413.948	17.37
414.31	17.49
414.672	17.3
415.035	17.55
415.397	17.72
415.759	17.66
416.121	17.64
416.483	17.69
416.845	17.57
417.206	17.62
417.568	17.59
417.93	17.83
418.292	17.6
418.653	17.51
419.015	17.59
419.377	17.78
419.738	17.64
420.1	17.74
420.461	17.58
420.822	17.7
421.184	17.76
421.545	17.69
421.906	17.8
422.267	17.59
422.629	17.62
422.99	17.65
423.351	17.78
423.712	17.98
424.073	17.96
424.434	17.99
424.795	17.88
425.155	17.94
425.516	17.88
425.877	18.05
426.238	17.96
426.598	18.18
426.959	18.24
427.32	18.36
427.68	18.44
428.041	18.42
428.401	18.46
428.761	18.66
429.122	18.78
429.482	18.62
429.842	18.94
430.202	18.64
430.563	18.77
430.923	18.71
431.283	18.92
431.643	19.11
432.003	18.96
432.363	19.21
432.722	18.96
433.082	19.07
433.442	19.02
433.802	19.31
434.161	19.15
434.521	19.27
434.881	19.17
435.24	19.1
435.6	19.18
435.959	19.41
436.319	19.27
436.678	19.64
437.037	19.46
437.396	19.57
437.756	19.56
438.115	19.49
438.474	19.58
438.833	19.83
439.192	19.87
439.551	19.7
439.91	19.86
440.269	19.86
440.628	19.78
440.987	19.64
441.345	19.7
441.704	19.88
442.063	19.56
442.421	19.71
442.78	19.72
443.138	19.96
443.497	19.86
443.855	20.03
444.214	20.02
444.572	20.22
444.93	20.2
445.288	20.27
445.647	20.44
446.005	20.09
446.363	20.13
446.721	20.21
447.079	20.05
447.437	20
447.795	20.06
448.153	20.01
448.51	20.06
448.868	20.32
449.226	20.39
449.584	20.44
449.941	20.48
450.299	20.45
450.656	20.57
451.014	20.64
451.371	20.7
451.729	20.86
452.086	20.84
452.443	20.86
452.801	20.7
453.158	21.15
453.515	20.99
453.872	21.06
454.229	20.94
454.586	21.09
454.943	20.87
455.3	21.23
455.657	21.18
456.014	21.34
456.371	21.28
456.727	21.31
457.084	21.37
457.441	21.14
457.797	21.44
458.154	21.47
458.51	21.42
458.867	21.44
459.223	21.5
459.58	21.47
459.936	21.57
460.292	21.59
460.648	21.35
461.005	21.19
461.361	21.2
461.717	21.26
462.073	21.33
462.429	21.55
462.785	21.93
463.141	21.82
463.496	21.69
463.852	22.05
464.208	21.99
464.564	22.03
464.919	22.17
465.275	22.14
465.631	22.27
465.986	22.24
466.342	22.32
466.697	22.22
467.052	22.24
467.408	22.35
467.763	22.21
468.118	22.28
468.473	22.56
468.829	22.54
469.184	22.53
469.539	22.6
469.894	22.5
470.249	22.45
470.603	22.95
470.958	22.8
471.313	22.7
471.668	22.83
472.023	22.85
472.377	22.86
472.732	23.04
473.086	22.77
473.441	23.08
473.795	23.16
474.15	22.88
474.504	22.99
474.859	23.07
475.213	22.97
475.567	23.11
475.921	23.28
476.275	23.42
476.63	23.1
476.984	23.36
477.338	23.42
477.692	23.22
478.045	23.29
478.399	23.45
478.753	23.15
479.107	23.39
479.461	23.25
479.814	23.55
480.168	23.37
480.521	23.3
480.875	23.73
481.228	23.52
481.582	23.56
481.935	23.59
482.289	23.53
482.642	23.52
482.995	23.54
483.348	23.39
483.701	23.27
484.055	23.18
484.408	23.02
484.761	22.72
485.114	22.62
485.466	22.71
485.819	22.86
486.172	22.94
486.525	23.08
486.878	23.21
487.23	23.38
487.583	23.38
487.936	23.42
488.288	23.26
488.641	23.15
488.993	23.12
489.345	23.09
489.698	23.31
490.05	23.45
490.402	23.57
490.754	23.77
491.107	23.86
491.459	24.05
491.811	24.1
492.163	23.96
492.515	23.9
492.866	23.6
493.218	23.54
493.57	23.83
493.922	23.89
494.274	24.12
494.625	24.3
494.977	24.41
495.328	24.59
495.68	24.86
496.031	24.95
496.383	24.88
496.734	24.91
497.086	25
497.437	24.97
497.788	24.91
498.139	24.87
498.49	24.92
498.842	24.82
499.193	25
499.544	25.1
499.894	25.09
500.245	25.24
500.596	25.22
500.947	25.33
501.298	25.36
501.648	25.46
501.999	25.67
502.35	25.67
502.7	25.48
503.051	25.69
503.401	25.75
503.752	25.47
504.102	25.58
504.452	25.6
504.803	25.53
505.153	25.78
505.503	25.67
505.853	25.88
506.203	25.91
506.553	25.94
506.903	25.78
507.253	25.86
507.603	25.83
507.953	26.14
508.303	26.29
508.652	26.03
509.002	26.17
509.352	26.11
509.701	26.04
510.051	26.07
510.4	26.03
510.75	25.99
511.099	26.08
511.449	26.11
511.798	26.17
512.147	26.22
512.496	26.32
512.846	26.09
513.195	26.28
513.544	26.42
513.893	26.24
514.242	26.49
514.591	26.52
514.939	26.53
515.288	26.52
515.637	26.63
515.986	26.54
516.334	26.73
516.683	26.79
517.032	26.62
517.38	26.95
517.729	26.92
518.077	26.94
518.426	26.95
518.774	26.84
519.122	26.67
519.47	26.61
519.819	26.51
520.167	26.51
520.515	26.46
520.863	26.63
521.211	26.73
521.559	26.84
521.907	26.97
522.255	27.09
522.602	27.11
522.95	27.19
523.298	27.3
523.645	27.24
523.993	27.46
524.341	27.29
524.688	27.34
525.036	27.39
525.383	27.63
525.73	27.41
526.078	27.39
526.425	27.22
526.772	27.06
527.119	27.07
527.466	27.05
527.814	27.24
528.161	27.34
528.508	27.2
528.854	27.16
529.201	26.95
529.548	26.76
529.895	26.64
530.242	26.71
530.588	26.9
530.935	26.9
531.282	26.96
531.628	27.13
531.975	27.4
532.321	27.52
532.667	27.67
533.014	27.62
533.36	27.75
533.706	27.67
534.052	27.53
534.399	27.33
534.745	27.32
535.091	27.46
535.437	27.58
535.783	27.77
536.129	27.84
536.474	28.04
536.82	28.08
537.166	28.1
537.512	28
537.857	27.92
538.203	27.98
538.549	28.1
538.894	28.17
539.239	28.32
539.585	28.36
539.93	28.69
540.276	28.49
540.621	28.8
540.966	28.6
541.311	28.66
541.656	28.44
542.001	28.42
542.346	28.08
542.691	27.91
543.036	28.05
543.381	28.15
543.726	28.18
544.071	28.32
544.415	28.4
544.76	28.49
545.105	28.6
545.449	28.65
545.794	28.82
546.138	29
546.483	29.08
546.827	29.03
547.171	29.08
547.516	29.32
547.86	29.09
548.204	29.06
548.548	29.16
548.892	29.2
549.236	29.19
549.58	29.46
549.924	29.61
550.268	29.81
550.612	29.69
550.956	29.77
551.3	29.96
551.643	29.92
551.987	29.91
552.33	29.94
552.674	30.18
553.017	30.32
553.361	30.05
553.704	30.05
554.048	29.88
554.391	29.9
554.734	29.99
555.077	30.04
555.42	30.18
555.764	30.2
556.107	30.27
556.45	30.12
556.793	30.46
557.135	30.48
557.478	30.49
557.821	30.37
558.164	30.49
558.507	30.26
558.849	30.31
559.192	30.51
559.534	30.77
559.877	30.74
560.219	30.85
560.562	30.54
560.904	30.64
561.246	30.63
561.589	30.95
561.931	30.86
562.273	30.87
562.615	30.98
562.957	30.93
563.299	31.2
563.641	31.2
563.983	31.12
564.325	30.89
564.667	30.8
565.008	30.9
565.35	31.37
565.692	31.35
566.033	31.19
566.375	31
566.716	31.18
567.058	31.21
567.399	31.03
567.741	31.1
568.082	31.11
568.423	30.97
568.764	31.15
569.105	31.49
569.447	31.17
569.788	31.56
570.129	31.49
570.47	31.43
570.811	31.5
571.151	31.49
571.492	31.65
571.833	31.45
572.174	31.54
572.514	31.54
572.855	31.48
573.195	31.44
573.536	31.52
573.876	31.72
574.217	31.61
574.557	31.76
574.898	31.69
575.238	31.69
575.578	31.99
575.918	31.94
576.258	31.82
576.598	31.93
576.938	31.98
577.278	31.99
577.618	32
577.958	32.13
578.298	32.22
578.638	31.93
578.977	32.31
579.317	32.32
579.657	32.15
579.996	32.36
580.336	32.4
580.675	32.36
581.014	32.79
581.354	32.57
581.693	32.27
582.032	32.62
582.372	32.63
582.711	32.66
583.05	32.74
583.389	32.71
583.728	32.73
584.067	32.57
584.406	32.95
584.745	32.96
585.083	33.01
585.422	32.74
585.761	32.87
586.1	32.85
586.438	33.22
586.777	33.21
587.115	32.97
587.454	32.95
587.792	32.9
588.13	33.61
588.469	33.13
588.807	33.09
589.145	33.43
589.483	33.31
589.821	33.15
590.159	33.35
590.497	33.16
590.835	33.13
591.173	33.22
591.511	33.23
591.849	33.25
592.187	33.09
592.524	33.31
592.862	33.4
593.2	33.55
593.537	33.41
593.875	33.36
594.212	33.44
594.55	33.48
594.887	33.61
595.224	33.47
595.561	33.53
595.899	33.56
596.236	33.53
596.573	33.55
596.91	33.82
597.247	33.57
597.584	33.51
597.921	33.6
598.258	33.61
598.594	33.3
598.931	33.45
599.268	33.38
599.604	33.82
599.941	33.84
600.277	33.91
600.614	33.56
600.95	34.12
601.287	34.11
601.623	34.27
601.959	34.2
602.296	34.05
602.632	34.25
602.968	34.31
603.304	34.33
603.64	34.25
603.976	34.34
604.312	34.37
604.648	34.11
604.984	33.78
605.319	34.06
605.655	34.13
605.991	34.16
606.326	34.04
606.662	34.01
606.998	34.15
607.333	33.95
607.668	34.21
608.004	34.14
608.339	34.78
608.674	34.43
609.01	34.24
609.345	34.82
609.68	34.65
610.015	34.62
610.35	34.64
610.685	34.34
611.02	34.41
611.355	34.9
611.689	34.19
612.024	34.56
612.359	34.77
612.694	34.91
613.028	34.82
613.363	34.77
613.697	35.06
614.032	35.16
614.366	35.18
614.7	35.27
615.035	34.78
615.369	35.19
615.703	35.65
616.037	35.25
616.371	34.98
616.705	35.37
617.039	34.98
617.373	35.42
617.707	35.13
618.041	35.76
618.375	35.7
618.709	35.26
619.042	35.27
619.376	35.62
619.71	35.33
620.043	35.39
620.377	35.5
620.71	35.68
621.043	35.05
621.377	35.82
621.71	35.8
622.043	35.72
622.376	35.58
622.709	35.66
623.043	35.97
623.376	35.81
623.709	35.37
624.041	35.57
624.374	36.05
624.707	35.38
625.04	35.82
625.373	35.43
625.705	35.82
626.038	35.71
626.37	35.78
626.703	36.11
627.035	36.3
627.368	35.52
627.7	36.11
628.032	35.59
628.365	35.81
628.697	36.01
629.029	36.38
629.361	35.89
629.693	36.46
630.025	35.86
630.357	35.88
630.689	36.04
631.021	36.1
631.353	36.28
631.684	35.65
632.016	36.33
632.348	36.5
632.679	36.24
633.011	35.96
633.342	36.15
633.674	36.15
634.005	36.45
634.336	36.23
634.668	36.34
634.999	36.4
635.33	36.18
635.661	36.69
635.992	36.22
636.323	36.66
636.654	36.56
636.985	37.01
637.316	36.75
637.647	36.48
637.977	36.79
638.308	36.54
638.639	36.6
638.969	36.56
639.3	36.86
639.63	36.79
639.961	36.79
640.291	36.92
640.622	36.8
640.952	37.26
641.282	36.88
641.612	36.64
641.943	36.94
642.273	37.03
642.603	37.65
642.933	36.68
643.263	37.28
643.592	37.62
643.922	37.43
644.252	37.15
644.582	36.88
644.911	36.82
645.241	36.96
645.571	37.2
645.9	37.42
646.23	37.02
646.559	37.23
646.888	37.35
647.218	37.18
647.547	37.59
647.876	37.72
648.205	37.61
648.534	37.07
648.863	37.43
649.192	37.83
649.521	37.66
649.85	36.89
650.179	37.35
650.508	37.78
650.837	37.4
651.165	36.99
651.494	37.67
651.822	37.29
652.151	37.38
652.479	38.24
652.808	37.27
653.136	37.37
653.465	37.77
653.793	37.93
654.121	37.87
654.449	37.86
654.777	37.89
655.105	38.41
655.433	38.36
655.761	37.97
656.089	37.81
656.417	37.77
656.745	38.48
657.073	38.17
657.4	37.94
657.728	37.7
658.056	37.8
658.383	38
658.711	38.05
659.038	38.38
659.365	38
659.693	38.5
660.02	37.39
660.347	37.65
660.674	37.59
661.001	37.9
661.329	38.04
661.656	38.24
661.982	38.11
662.309	37.95
662.636	37.76
662.963	38.55
663.29	38.51
663.616	38.66
663.943	38.77
664.27	38.58
664.596	38.11
664.923	38.23
665.249	38.26
665.576	38.6
665.902	38.48
666.228	38.15
666.554	38.48
666.881	38.81
667.207	38.62
667.533	38.1
667.859	38.5
668.185	38.92
668.511	38.8
668.837	38.48
669.162	38.81
669.488	38.51
669.814	39.5
670.139	39.45
670.465	38.93
670.791	38.75
671.116	38.59
671.442	38.85
671.767	39.25
672.092	39
672.418	38.99
672.743	38.62
673.068	39.3
673.393	39.32
673.718	39.06
674.043	38.91
674.368	39.4
674.693	39.15
675.018	38.97
675.343	38.91
675.667	38.83
675.992	39.12
676.317	39.1
676.641	39.06
676.966	38.84
677.29	39.77
677.615	39.37
677.939	39.26
678.264	39.71
678.588	39.29
678.912	38.92
679.236	39.79
679.56	38.49
679.885	39.1
680.209	39.02
680.532	39.56
680.856	39.66
681.18	38.68
681.504	39.24
681.828	39.13
682.152	39.31
682.475	39.37
682.799	39.27
683.122	39.31
683.446	39.83
683.769	39.49
684.093	40.41
684.416	39.73
684.739	39.51
685.062	39.44
685.386	39.81
685.709	39.98
686.032	38.96
686.355	39.54
686.678	39.65
687.001	39.19
687.324	39.76
687.646	39.64
687.969	39.35
688.292	39.94
688.614	39.64
688.937	39.6
689.26	39.7
689.582	39.36
689.904	40.69
690.227	40.26
690.549	40.47
690.871	39.1
691.194	39.83
691.516	40
691.838	39.5
692.16	40.24
692.482	40.35
692.804	40.38
693.126	40.26
693.448	40.1
693.769	39.55
694.091	40.65
694.413	40.86
694.735	40.97
695.056	40.31
695.378	40.63
695.699	41.67
696.021	40.11
696.342	40.73
696.663	41.03
696.984	40.25
697.306	40.58
697.627	40.17
697.948	41.04
698.269	39.87
698.59	40.68
698.911	40.92
699.232	40.79
699.553	40.26
699.873	40.5
700.194	40.51
700.515	40.26
700.835	40.96
701.156	41.17
701.477	40.88
701.797	40.95
702.117	40.78
702.438	41.07
702.758	41.29
703.078	41
703.398	40.66
703.719	41.21
704.039	40.95
704.359	40.96
704.679	40.33
704.999	40.43
705.319	40.94
705.638	40.59
705.958	41.06
706.278	41.04
706.597	41.51
706.917	40.63
707.237	41.69
707.556	40.2
707.876	40.25
708.195	41.01
708.514	40.8
708.834	41.52
709.153	41.41
709.472	40.87
709.791	41.69
710.11	41.27
710.429	40.84
710.748	41.2
711.067	41.54
711.386	41.83
711.705	40.99
712.023	41.15
712.342	40.41
712.661	42.55
712.979	41.52
713.298	41.73
713.616	41.91
713.935	41.53
714.253	40.85
714.572	40.47
714.89	41.24
715.208	42.62
715.526	41.64
715.844	41.62
716.162	40.51
716.48	41.01
716.798	41.53
717.116	41.61
717.434	42.55
717.752	41.66
718.069	40.63
718.387	41.66
718.705	42.04
719.022	41.54
719.34	41.15
719.657	41.26
719.975	40.83
720.292	41.43
720.609	43.05
720.927	41.6
721.244	42.15
721.561	42.05
721.878	42.07
722.195	42.42
722.512	41.44
722.829	42.24
723.146	42.27
723.463	40.96
723.779	41.87
724.096	42.41
724.413	41.13
724.729	42.75
725.046	43.41
725.362	40.78
725.679	42.54
725.995	43.08
726.311	42.02
726.628	42.53
726.944	43.26
727.26	42.3
727.576	43.12
727.892	41.55
728.208	41.68
728.524	43.63
728.84	42.15
729.156	42.68
729.472	43.27
729.787	42.23
730.103	41.8
730.419	42.24
730.734	42.73
731.05	41.92
731.365	42.05
731.681	41.06
731.996	41.9
732.311	42.06
732.626	43.15
732.942	42.94
733.257	42.41
733.572	42.73
733.887	43.29
734.202	42.24
734.517	42.38
734.832	41.53
735.146	42.31
735.461	42.61
735.776	43.84
736.091	42.19
736.405	43.72
736.72	43.22
737.034	42.57
737.349	42.08
737.663	41.93
737.977	43.43
738.292	43.42
738.606	43.16
738.92	43.17
739.234	42.41
739.548	43.43
739.862	43.56
740.176	43.04
740.49	43.5
740.804	43.98
741.117	44.24
741.431	42.43
741.745	43.49
742.058	43.05
742.372	41.66
742.685	42.6
742.999	42.03
743.312	41.5
743.626	41.78
743.939	42.53
744.252	43.01
744.565	42.61
744.878	41.66
745.191	41.58
745.505	41.3
745.817	43.84
746.13	41.79
746.443	43.34
746.756	42.77
747.069	42.63
747.381	44.67
747.694	41.36
748.007	44.98
748.319	41.89
748.632	42.44
748.944	41.98
749.256	44.48
749.569	43.79
749.881	42.21
750.193	41.76
750.505	43.47
750.817	42.61
751.129	43.47
751.441	43.97
751.753	44.05
752.065	44.23
752.377	42.7
752.689	43.47
753	42.04
753.312	43.48
753.624	44.37
753.935	42.89
754.247	44.03
754.558	43.32
754.869	43.03
755.181	43.49
755.492	45.27
755.803	42.24
756.114	45.46
756.425	45.2
756.736	43.63
757.047	45.05
757.358	41.8
757.669	44.79
757.98	45.49
758.291	44.71
758.601	42.41
758.912	43.85
759.223	42.67
759.533	43.89
759.844	44.15
760.154	44.26
760.464	43.99
760.775	44.69
761.085	44.97
761.395	44.34
761.705	44
762.016	45.57
762.326	43.35
762.636	43.93
762.945	43.71
763.255	44.4
763.565	45.36
763.875	42.93
764.185	44.65
764.494	43.19
764.804	42.76
765.113	42.67
765.423	44.63
765.732	43.86
766.042	44.07
766.351	43.98
766.66	43.77
766.97	45.04
767.279	44.81
767.588	45.31
767.897	44.69
768.206	43.85
768.515	44.49
768.824	45.68
769.133	43.44
769.441	44.02
769.75	43.8
770.059	42.83
770.367	43.92
770.676	43.97
770.984	45.87
771.293	44.35
771.601	43.78
771.91	43.59
772.218	40.07
772.526	44.82
772.834	45.14
773.142	43.03
773.45	43.13
773.758	44.69
774.066	45.38
774.374	42.44
774.682	44.24
774.99	43.46
775.298	43.39
775.605	46.13
775.913	44.79
776.22	44.06
776.528	42.58
776.835	45.71
777.143	48.4
777.45	49.1
777.757	44.14
778.065	44.42
778.372	45.46
778.679	44.92
778.986	44.71
779.293	45.27
779.6	43.32
779.907	44.62
780.214	48.64
780.52	44.25
780.827	42.84
781.134	47.39
781.44	43.41
781.747	44.11
782.053	42.85
782.36	42.94
782.666	43.34
782.973	44.1
783.279	46.57
783.585	44.38
783.891	46.81
784.197	42.51
784.503	42.29
784.809	46.12
785.115	47.91
785.421	45.88
785.727	44.33
786.033	44.19
786.339	44.98
786.644	42.6
786.95	48.36
787.255	45.53
787.561	48.19
787.866	43.45
788.172	45.98
788.477	48.01
788.782	43.08
789.088	48.18
789.393	43.3
789.698	39.04
790.003	46.69
790.308	45.7
790.613	50.38
790.918	47.32
791.223	45.35
791.527	47.82
791.832	46.51
792.137	46.72
792.441	46.6
792.746	45.39
793.05	43.73
793.355	48.03
793.659	43.34
793.963	45.86
794.268	45.61
794.572	47.14
794.876	41.75
795.18	46.14
795.484	45.34
795.788	45.21
796.092	47.37
796.396	41.76
796.7	43.66
797.004	45.98
797.307	46.04
797.611	46.64
797.915	46.28
798.218	46.39
798.522	44.43
798.825	46.24
799.128	46.57
799.432	48.3
799.735	43.84
800.038	43.6
800.341	44.85
800.644	45.05
800.947	46.46
801.25	43.52
801.553	47.56
801.856	45.79
802.159	42.48
802.462	43.25
802.764	45.92
803.067	44.85
803.37	44.58
803.672	45.3
803.975	48.94
804.277	49.83
804.579	53.29
804.882	48.89
805.184	45.75
805.486	45.98
805.788	48.32
806.09	45.08
806.392	44.54
806.694	46.19
806.996	47.66
807.298	46.61
807.6	49.55
807.902	48.66
808.203	49.88
808.505	45.29
808.807	49.55
809.108	43.55
809.409	45.09
809.711	48.41
810.012	45.92
810.313	46.07
810.615	47.71
810.916	46.31
811.217	46.21
811.518	48.39
811.819	44.09
812.12	50.04
812.421	50.84
812.722	47.77
813.023	49.58
813.323	51.52
813.624	51.75
813.925	44.41
814.225	45.69
814.526	47.07
814.826	48.58
815.126	45.73
815.427	49.82
815.727	47.82
816.027	47.89
816.327	43.19
816.627	43.28
816.927	42.65
817.227	43.82
817.527	39.91
817.827	46.84
818.127	46.26
818.427	39.19
818.727	42.6
819.026	46.03
819.326	45.98
819.625	47.12
819.925	39.21
820.224	47.36
820.524	52.74
820.823	39.83
821.122	42.58
821.421	45.23
821.72	45.46
822.019	46.94
822.318	49.51
822.617	49.9
822.916	44.08
823.215	43.26
823.514	47.2
823.813	47.06
824.111	47.51
824.41	45.79
824.709	48.62
825.007	47.45
825.306	46.57
825.604	48.64
825.902	48.41
826.201	48.09
826.499	47.25
826.797	48.99
827.095	48.54
827.393	48.27
827.691	47.33
827.989	47.51
828.287	47.57
828.585	45.81
828.882	48.41
829.18	47.79
829.478	45.52
829.775	49.42
830.073	50.35
830.37	48.89
830.668	47.74
830.965	47.97
831.263	47.31
831.56	48.12
831.857	49.65
832.154	48.55
832.451	49.83
832.748	48.04
833.045	53.29
833.342	47.51
833.639	44.99
833.936	44.85
834.232	45.53
834.529	43.51
834.826	47.43
835.122	45.97
835.419	44.68
835.715	48.32
836.012	47.42
836.308	48.88
836.604	47.65
836.901	54
837.197	46.38
837.493	49.54
837.789	49.39
838.085	44.39
838.381	47.21
838.677	47.25
838.972	49.59
839.268	41.3
839.564	51.61
839.86	49.58
840.155	44.24
840.451	50.78
840.746	51.77
841.042	47.33
841.337	47.68
841.632	50.46
841.928	48.63
842.223	57.85
842.518	48.1
842.813	45.09
843.108	41.55
843.403	49.78
843.698	46.22
843.993	48.43
844.287	48.65
844.582	51.35
844.877	46.63
845.171	48.16
845.466	36.67
845.761	51.52
846.055	38.18
846.349	32.45
846.644	43.35
846.938	41.3
847.232	41.62
847.526	44.66
847.82	40.8
848.114	52.18
848.408	52.56
848.702	41.68
848.996	47.98
849.29	60.11
849.584	22.26
849.877	41.67
850.171	44.55
850.465	45.66
850.758	54.02
851.052	49.46
851.345	41.91
851.638	46.09
851.932	51.75
852.225	18.53
852.518	54.1
852.811	37.95
853.104	67.62
853.397	39.17
853.69	43.29
853.983	26.7
854.276	56.98
854.569	38.62
854.861	60.46
855.154	65.15
855.447	41.06
855.739	46.95
856.032	49.16
856.324	43.63
856.616	51.04
856.909	46.6
857.201	43.07
857.493	24.95
857.785	27.47
858.077	29.75
858.369	42.62
858.661	49.92
858.953	39.12
859.245	35.34
859.537	51.95
859.829	38.6
860.12	53.48
860.412	40.75
860.703	39.45
860.995	24.39
861.286	39.77
861.578	34.63
861.869	20.15
862.16	37.31
862.452	49.04
862.743	60.47
863.034	36.52
863.325	31.1
863.616	46.22
863.907	71.87
864.198	32.59
864.488	26.18
864.779	34.42
865.07	40.03
865.36	62.15
865.651	34.34
865.941	60.87
866.232	64.37
866.522	48.85
866.813	64.4
867.103	41.23
867.393	59.04
867.683	55.22
867.973	27.35
868.263	44.48
868.553	59.82
868.843	25.33
869.133	68.2
869.423	58.07
869.713	46
870.002	7.43
870.292	30.4
870.582	52.43
870.871	64.02
871.161	19.21
871.45	44.38
871.739	32.1
872.029	29.97
872.318	48.33
872.607	30.57
872.896	35.56
873.185	57.22
873.474	38.21
873.763	74.62
874.052	50.87
874.341	17.32
874.63	41.83
874.918	22.78
875.207	44.24
875.496	46.05
875.784	66.82
876.073	47.22
876.361	27.9
876.649	42.62
876.938	37.38
877.226	41.84
877.514	39.58
877.802	31.04
878.09	47.88
878.378	70.08
878.666	54.01
878.954	72.04
879.242	49.27
879.53	28.06
879.817	42.81
880.105	33.74
880.392	44.4
880.68	38.19
880.967	69.24
881.255	54.8
881.542	33.79
881.83	57.5
882.117	48.99
882.404	43.75
882.691	33.7
882.978	32.18
883.265	54.23
883.552	40.08
883.839	47.47
884.126	50.8
884.413	44.19
884.699	55.86
884.986	49.93
885.273	48.84
885.559	48.84
885.846	48.84
