Data from 0356_forehead_Reflection__1__73.txt Node

Date: Mon Dec 11 18:30:50 CST 2023
User: ToomeyLab
Spectrometer: FLMS14357
Trigger mode: 0
Integration Time (sec): 1.000000E-2
Scans to average: 100
Electric dark correction enabled: true
Nonlinearity correction enabled: false
Boxcar width: 0
XAxis mode: Wavelengths
Number of Pixels in Spectrum: 2048
>>>>>Begin Spectral Data<<<<<
189.047	68.03
189.435	68.03
189.823	68.03
190.211	207.9
190.599	280.94
190.987	410.62
191.375	396.85
191.763	117.43
192.151	-16737.5
192.538	2102.36
192.926	414.3
193.314	57212.5
193.702	80.49
194.089	-83.15
194.477	442.38
194.864	-267.56
195.252	-100.59
195.639	-121.14
196.027	171.64
196.414	-88.46
196.801	-336.85
197.189	184.83
197.576	54.52
197.963	-118.37
198.351	36.65
198.738	0.48
199.125	18.25
199.512	-11.7
199.899	94.41
200.286	35.59
200.673	-104.9
201.06	31.07
201.447	38.01
201.833	22.57
202.22	85.45
202.607	45.82
202.994	7.46
203.38	-37.87
203.767	28.23
204.154	53.01
204.54	25.56
204.927	0.69
205.313	18.82
205.699	22.65
206.086	-2.6
206.472	34.17
206.858	5.01
207.245	45.99
207.631	17.96
208.017	2.89
208.403	27.24
208.789	-23.89
209.175	12.16
209.561	22.96
209.947	11.63
210.333	40.49
210.719	36.35
211.105	25.54
211.491	20.14
211.876	12.72
212.262	6.8
212.648	14.23
213.034	-30.49
213.419	2.42
213.805	-8.68
214.19	-1.26
214.576	-11.91
214.961	9.35
215.346	11.15
215.732	-6.55
216.117	30.13
216.502	33.63
216.888	8.34
217.273	19.96
217.658	37.21
218.043	37.39
218.428	7.42
218.813	21.72
219.198	10.9
219.583	29.72
219.968	1.68
220.353	-36.03
220.738	18.61
221.122	-1.46
221.507	23.05
221.892	2.07
222.276	12.19
222.661	-2.37
223.046	14.85
223.43	7.78
223.815	3.13
224.199	7.18
224.583	8.73
224.968	1.69
225.352	6.93
225.736	6.14
226.121	0.17
226.505	5.66
226.889	6.13
227.273	5.57
227.657	16.07
228.041	5.23
228.425	3.33
228.809	0.66
229.193	4.79
229.577	4.39
229.961	4.2
230.344	2.96
230.728	2.98
231.112	3.41
231.495	3.21
231.879	3.43
232.263	2
232.646	1.65
233.03	1.5
233.413	2.42
233.797	4
234.18	5.68
234.563	2.48
234.946	5.5
235.33	5.5
235.713	1.52
236.096	4.86
236.479	2.96
236.862	1.92
237.245	3.15
237.628	3.74
238.011	3.69
238.394	2.9
238.777	5.02
239.16	4.61
239.543	5.58
239.925	2.25
240.308	3.05
240.691	0.79
241.073	3.7
241.456	4.75
241.838	4.51
242.221	3.29
242.603	2.46
242.986	1.96
243.368	2.7
243.75	3.29
244.133	2.99
244.515	2.88
244.897	2.79
245.279	3.43
245.661	1.71
246.043	3.07
246.425	3.69
246.807	3.14
247.189	3.56
247.571	3.12
247.953	2.4
248.335	3.31
248.717	3.02
249.098	3.03
249.48	2.73
249.862	3.08
250.243	2.85
250.625	2.68
251.006	2.77
251.388	2.96
251.769	2.72
252.151	3.93
252.532	2.22
252.913	2.52
253.295	3.37
253.676	3.12
254.057	2.71
254.438	3.1
254.819	2.72
255.2	2.13
255.581	1.69
255.962	2.92
256.343	3.39
256.724	3.07
257.105	2.51
257.486	3.25
257.867	4.48
258.247	2.81
258.628	2.71
259.009	3.08
259.389	4.05
259.77	2.67
260.15	2.91
260.531	2.97
260.911	2.73
261.292	2.41
261.672	2.61
262.052	2.71
262.432	2.83
262.813	2.81
263.193	2.58
263.573	3.08
263.953	2.68
264.333	2.43
264.713	3.35
265.093	3.15
265.473	3.65
265.853	2.83
266.233	2.19
266.612	2.82
266.992	3.03
267.372	4.11
267.752	3.77
268.131	3.48
268.511	2.81
268.89	2.92
269.27	3.46
269.649	3.21
270.029	3.28
270.408	2.48
270.787	2.51
271.167	2.4
271.546	3
271.925	2.7
272.304	3.59
272.683	2.43
273.062	2.79
273.441	2.72
273.82	2.67
274.199	2.23
274.578	3.06
274.957	3.16
275.336	2.41
275.715	2.74
276.093	3.43
276.472	2.77
276.851	3.81
277.229	3.34
277.608	2.71
277.986	3.42
278.365	3.11
278.743	2.48
279.122	2.81
279.5	2.73
279.878	2.75
280.257	2.75
280.635	2.71
281.013	2.89
281.391	3.3
281.769	2.51
282.147	2.54
282.525	2.48
282.903	2.94
283.281	3
283.659	2.87
284.037	2.26
284.415	2.59
284.792	2.81
285.17	3.23
285.548	2.72
285.925	2.34
286.303	3.18
286.68	2.65
287.058	2.65
287.435	3
287.813	3.42
288.19	3.05
288.567	2.58
288.945	2.51
289.322	2.31
289.699	2.94
290.076	2.64
290.453	3
290.83	3.46
291.207	3.27
291.584	2.88
291.961	2.98
292.338	3.28
292.715	3.33
293.092	3.07
293.469	3.16
293.845	3.06
294.222	3.84
294.599	3.08
294.975	3.15
295.352	3.05
295.728	3.32
296.105	3.36
296.481	2.87
296.858	3.47
297.234	3.35
297.61	3.55
297.986	3.44
298.363	3.38
298.739	3.58
299.115	3.24
299.491	3.43
299.867	3.11
300.243	3.4
300.619	3.69
300.995	3.17
301.371	3.46
301.746	3.51
302.122	3.51
302.498	4.1
302.874	3.77
303.249	4.07
303.625	3.31
304	3.98
304.376	3.59
304.751	3.48
305.127	3.65
305.502	3.95
305.878	3.78
306.253	4.09
306.628	4.17
307.003	4.64
307.378	4.02
307.754	4.44
308.129	3.93
308.504	4.32
308.879	4.08
309.254	4.61
309.629	4.56
310.003	4.57
310.378	3.88
310.753	4.71
311.128	4.47
311.502	4.47
311.877	4.41
312.252	4.51
312.626	4.58
313.001	4.87
313.375	4.21
313.75	4.82
314.124	5.01
314.498	4.84
314.873	5.01
315.247	4.45
315.621	5.71
315.995	5.71
316.369	5.29
316.743	5.66
317.117	5.48
317.491	5.26
317.865	5.69
318.239	4.98
318.613	5.01
318.987	5.38
319.361	6.16
319.734	5.71
320.108	5.34
320.482	5.5
320.855	5.73
321.229	5.53
321.602	5.45
321.976	6.01
322.349	5.83
322.723	5.58
323.096	6.55
323.469	6.08
323.843	6.16
324.216	6.63
324.589	6.41
324.962	5.86
325.335	6.11
325.708	6.2
326.081	6.66
326.454	6.62
326.827	6.34
327.2	5.94
327.573	5.84
327.945	6.81
328.318	6.62
328.691	6.19
329.063	6.48
329.436	6.33
329.809	6.47
330.181	6.91
330.553	6.32
330.926	6.48
331.298	7.53
331.671	7.08
332.043	7.52
332.415	7.09
332.787	6.85
333.159	6.14
333.532	7.14
333.904	7.23
334.276	7.31
334.648	7.45
335.02	7.43
335.391	6.73
335.763	7.02
336.135	7.23
336.507	7.28
336.879	7.42
337.25	7.74
337.622	6.97
337.993	7.08
338.365	7.27
338.736	7.35
339.108	7.84
339.479	7.84
339.851	7.64
340.222	7.75
340.593	7.37
340.964	7.63
341.336	7.8
341.707	7.86
342.078	7.6
342.449	7.8
342.82	7.53
343.191	7.72
343.562	7.79
343.933	7.93
344.303	7.58
344.674	7.73
345.045	7.57
345.416	7.48
345.786	7.99
346.157	8.69
346.527	8.53
346.898	8.28
347.268	8.24
347.639	7.87
348.009	7.96
348.38	7.94
348.75	8.21
349.12	8.66
349.49	8.19
349.861	8.64
350.231	8.05
350.601	8.76
350.971	8.9
351.341	8.51
351.711	8.73
352.081	7.87
352.45	8.7
352.82	8.41
353.19	8.61
353.56	8.34
353.929	8.92
354.299	9.22
354.669	9.11
355.038	9.47
355.408	8.89
355.777	8.98
356.147	9.19
356.516	9.44
356.885	9.14
357.254	9.24
357.624	9.14
357.993	9.07
358.362	9.62
358.731	9.01
359.1	9.49
359.469	9.45
359.838	9.32
360.207	9.45
360.576	9.43
360.945	9.64
361.314	9.73
361.682	9.18
362.051	9.53
362.42	9.48
362.788	9.46
363.157	9.84
363.525	9.3
363.894	9.73
364.262	9.87
364.631	9.82
364.999	9.84
365.367	10.05
365.735	9.9
366.104	9.69
366.472	10.23
366.84	9.62
367.208	9.96
367.576	10.39
367.944	10.29
368.312	10.17
368.68	10.42
369.048	10.2
369.416	10.1
369.783	10.26
370.151	10.52
370.519	11.05
370.886	10.85
371.254	11.15
371.621	11.11
371.989	10.86
372.356	11.01
372.724	11.24
373.091	11.21
373.458	10.86
373.826	10.97
374.193	11.11
374.56	11.37
374.927	11.48
375.294	11.2
375.661	11.25
376.028	11.15
376.395	11.47
376.762	11.21
377.129	11.52
377.496	11.55
377.863	11.73
378.229	11.57
378.596	11.41
378.963	11.56
379.329	11.27
379.696	11.59
380.062	11.15
380.429	11.18
380.795	11.9
381.161	11.81
381.528	11.84
381.894	11.94
382.26	11.94
382.626	11.7
382.993	12.06
383.359	12.02
383.725	11.91
384.091	12.39
384.457	12.04
384.823	12.03
385.188	12.23
385.554	11.71
385.92	11.84
386.286	11.93
386.651	12.16
387.017	12.35
387.383	12.38
387.748	12.21
388.114	12.09
388.479	12.24
388.845	12.44
389.21	12.39
389.575	12.62
389.94	12.68
390.306	12.76
390.671	12.83
391.036	12.87
391.401	12.93
391.766	12.83
392.131	12.98
392.496	13.06
392.861	13.3
393.226	12.96
393.591	13.28
393.956	13.04
394.32	13.32
394.685	13.04
395.05	13.1
395.414	13.46
395.779	13.04
396.143	13.16
396.508	13.22
396.872	13.27
397.236	13.54
397.601	13.15
397.965	13.65
398.329	13.75
398.694	13.55
399.058	13.78
399.422	13.62
399.786	13.65
400.15	13.49
400.514	14.1
400.878	13.74
401.242	13.98
401.605	14.04
401.969	14.04
402.333	13.72
402.697	14
403.06	14.24
403.424	14.43
403.787	14.58
404.151	14.23
404.514	13.9
404.878	14.2
405.241	14.07
405.604	14.46
405.968	14.37
406.331	14.05
406.694	14.23
407.057	14.16
407.42	14.73
407.783	14.63
408.146	14.81
408.509	14.5
408.872	14.39
409.235	14.48
409.598	14.65
409.961	14.76
410.323	15.01
410.686	14.94
411.049	14.87
411.411	15.06
411.774	15.1
412.136	14.87
412.499	15.28
412.861	15.03
413.223	15.1
413.586	15.28
413.948	15.21
414.31	15.2
414.672	15.09
415.035	15.28
415.397	15.3
415.759	15.47
416.121	15.6
416.483	15.56
416.845	15.67
417.206	15.4
417.568	15.55
417.93	15.51
418.292	15.49
418.653	15.47
419.015	15.63
419.377	15.5
419.738	15.71
420.1	15.49
420.461	15.54
420.822	15.42
421.184	15.69
421.545	15.6
421.906	15.78
422.267	15.8
422.629	15.71
422.99	15.75
423.351	15.7
423.712	15.68
424.073	15.76
424.434	15.92
424.795	16.01
425.155	15.96
425.516	15.88
425.877	15.86
426.238	16
426.598	16.06
426.959	16.02
427.32	16.05
427.68	16.39
428.041	16.18
428.401	16.39
428.761	16.63
429.122	16.44
429.482	16.45
429.842	16.74
430.202	16.85
430.563	16.96
430.923	16.73
431.283	16.75
431.643	17.11
432.003	16.92
432.363	17.1
432.722	17.23
433.082	17.05
433.442	17.15
433.802	17.15
434.161	17.32
434.521	16.96
434.881	17.24
435.24	17.09
435.6	17.11
435.959	17.14
436.319	17.16
436.678	17.45
437.037	17.3
437.396	17.49
437.756	17.53
438.115	17.74
438.474	17.56
438.833	17.71
439.192	17.72
439.551	17.78
439.91	17.88
440.269	17.86
440.628	17.66
440.987	17.96
441.345	17.76
441.704	18.02
442.063	17.79
442.421	17.82
442.78	17.76
443.138	17.82
443.497	18.05
443.855	17.78
444.214	18.23
444.572	18.11
444.93	18.12
445.288	18.15
445.647	18.52
446.005	18.1
446.363	18.41
446.721	18.35
447.079	18.34
447.437	18.46
447.795	18.31
448.153	18.34
448.51	18.37
448.868	18.1
449.226	18.33
449.584	18.36
449.941	18.51
450.299	18.46
450.656	18.65
451.014	18.72
451.371	18.7
451.729	19.06
452.086	18.99
452.443	19.01
452.801	18.98
453.158	19.15
453.515	18.98
453.872	19.15
454.229	19.19
454.586	18.99
454.943	19.11
455.3	19.31
455.657	19.24
456.014	19.31
456.371	19.58
456.727	19.47
457.084	19.26
457.441	19.58
457.797	19.71
458.154	19.44
458.51	19.79
458.867	19.66
459.223	19.85
459.58	19.66
459.936	19.95
460.292	19.87
460.648	19.72
461.005	19.8
461.361	19.69
461.717	19.47
462.073	19.64
462.429	19.72
462.785	19.72
463.141	19.91
463.496	20.19
463.852	20.16
464.208	20.21
464.564	20.27
464.919	20.27
465.275	20.23
465.631	20.23
465.986	20.59
466.342	20.43
466.697	20.57
467.052	20.67
467.408	20.85
467.763	20.61
468.118	20.51
468.473	20.55
468.829	20.86
469.184	20.98
469.539	20.79
469.894	20.85
470.249	20.94
470.603	21.2
470.958	21.04
471.313	20.78
471.668	21.29
472.023	21.24
472.377	21.09
472.732	21.23
473.086	21.35
473.441	21.27
473.795	21.37
474.15	21.54
474.504	21.54
474.859	21.42
475.213	21.29
475.567	21.59
475.921	21.52
476.275	21.61
476.63	21.59
476.984	21.56
477.338	21.71
477.692	21.66
478.045	21.83
478.399	21.83
478.753	21.49
479.107	21.7
479.461	21.93
479.814	22.05
480.168	21.98
480.521	21.96
480.875	21.84
481.228	22.04
481.582	22.22
481.935	22.1
482.289	22.17
482.642	22.19
482.995	22.08
483.348	22.18
483.701	22.06
484.055	22.07
484.408	22.04
484.761	21.92
485.114	21.68
485.466	21.44
485.819	21.34
486.172	21.31
486.525	21.39
486.878	21.62
487.23	21.74
487.583	21.86
487.936	21.95
488.288	22.23
488.641	22.09
488.993	21.84
489.345	21.9
489.698	21.89
490.05	21.85
490.402	21.96
490.754	22.21
491.107	22.36
491.459	22.4
491.811	22.67
492.163	22.75
492.515	22.75
492.866	22.87
493.218	22.47
493.57	22.38
493.922	22.33
494.274	22.54
494.625	22.76
494.977	22.93
495.328	23.09
495.68	23.38
496.031	23.46
496.383	23.63
496.734	23.76
497.086	23.92
497.437	23.94
497.788	23.97
498.139	23.84
498.49	23.76
498.842	23.82
499.193	23.74
499.544	23.78
499.894	23.84
500.245	23.85
500.596	23.95
500.947	24.04
501.298	24.16
501.648	24.15
501.999	24.06
502.35	24.4
502.7	24.26
503.051	24.28
503.401	24.44
503.752	24.42
504.102	24.61
504.452	24.46
504.803	24.72
505.153	24.73
505.503	24.76
505.853	24.81
506.203	24.61
506.553	24.87
506.903	24.99
507.253	24.81
507.603	24.95
507.953	25.14
508.303	24.97
508.652	25.13
509.002	25.01
509.352	25.23
509.701	25.02
510.051	25.16
510.4	25.19
510.75	25.01
511.099	25.13
511.449	25.26
511.798	25.25
512.147	25.21
512.496	25.26
512.846	25.48
513.195	25.42
513.544	25.44
513.893	25.45
514.242	25.66
514.591	25.4
514.939	25.46
515.288	25.87
515.637	25.51
515.986	25.8
516.334	25.86
516.683	25.82
517.032	25.99
517.38	25.96
517.729	25.92
518.077	26.14
518.426	26.17
518.774	26.32
519.122	26.26
519.47	26.12
519.819	26.1
520.167	25.93
520.515	25.74
520.863	25.74
521.211	25.95
521.559	26.14
521.907	26.16
522.255	26.16
522.602	26.41
522.95	26.44
523.298	26.45
523.645	26.69
523.993	26.62
524.341	26.71
524.688	26.61
525.036	26.75
525.383	26.94
525.73	26.95
526.078	26.92
526.425	26.88
526.772	26.71
527.119	26.7
527.466	26.59
527.814	26.55
528.161	26.65
528.508	26.66
528.854	26.7
529.201	26.62
529.548	26.67
529.895	26.61
530.242	26.39
530.588	26.22
530.935	26.23
531.282	26.27
531.628	26.49
531.975	26.57
532.321	26.59
532.667	26.94
533.014	27.05
533.36	27.23
533.706	27.29
534.052	27.26
534.399	27.29
534.745	27.24
535.091	26.96
535.437	26.82
535.783	27.1
536.129	27.19
536.474	27.37
536.82	27.33
537.166	27.65
537.512	27.84
537.857	27.9
538.203	27.75
538.549	27.71
538.894	27.61
539.239	27.95
539.585	27.93
539.93	28.03
540.276	28.3
540.621	28.42
540.966	28.53
541.311	28.39
541.656	28.47
542.001	28.63
542.346	28.49
542.691	28.2
543.036	27.91
543.381	27.64
543.726	27.83
544.071	27.99
544.415	27.94
544.76	28.13
545.105	28.19
545.449	28.3
545.794	28.47
546.138	28.62
546.483	28.81
546.827	28.96
547.171	28.91
547.516	29.01
547.86	29.07
548.204	29.1
548.548	29.08
548.892	29.11
549.236	29.16
549.58	29.48
549.924	29.26
550.268	29.36
550.612	29.55
550.956	29.26
551.3	29.75
551.643	29.82
551.987	29.89
552.33	30.2
552.674	30.15
553.017	30.2
553.361	29.92
553.704	30.02
554.048	30.21
554.391	30.12
554.734	30.26
555.077	29.9
555.42	30.21
555.764	30.16
556.107	30.23
556.45	30.29
556.793	30.4
557.135	30.42
557.478	30.4
557.821	30.5
558.164	30.54
558.507	30.63
558.849	30.53
559.192	30.57
559.534	30.67
559.877	30.68
560.219	30.76
560.562	31.03
560.904	30.54
561.246	30.96
561.589	30.99
561.931	31.07
562.273	30.93
562.615	31.14
562.957	31.2
563.299	31.15
563.641	31.09
563.983	31.24
564.325	31.26
564.667	31.23
565.008	31.18
565.35	31.62
565.692	31.48
566.033	31.43
566.375	31.72
566.716	31.74
567.058	31.61
567.399	31.49
567.741	31.63
568.082	31.29
568.423	31.49
568.764	31.4
569.105	31.52
569.447	31.8
569.788	31.83
570.129	31.77
570.47	31.72
570.811	31.87
571.151	31.87
571.492	31.73
571.833	32.04
572.174	32.21
572.514	31.97
572.855	31.71
573.195	32.11
573.536	32.15
573.876	32.11
574.217	32.1
574.557	31.96
574.898	32.15
575.238	32.5
575.578	32.25
575.918	32.35
576.258	32.35
576.598	32.51
576.938	32.57
577.278	32.5
577.618	32.35
577.958	32.58
578.298	32.79
578.638	32.82
578.977	32.86
579.317	32.56
579.657	32.68
579.996	32.77
580.336	33.11
580.675	32.9
581.014	33.22
581.354	32.78
581.693	33.11
582.032	33.16
582.372	33.35
582.711	33.25
583.05	33.56
583.389	33.52
583.728	33.64
584.067	33.44
584.406	33.47
584.745	33.5
585.083	33.67
585.422	33.69
585.761	33.59
586.1	33.64
586.438	33.7
586.777	33.54
587.115	33.62
587.454	33.5
587.792	33.94
588.13	34.06
588.469	33.81
588.807	33.78
589.145	34.11
589.483	34.2
589.821	34.34
590.159	33.9
590.497	33.99
590.835	33.97
591.173	34.15
591.511	34.05
591.849	34.33
592.187	34.12
592.524	34.06
592.862	34.21
593.2	34.62
593.537	34.32
593.875	34.42
594.212	34.53
594.55	34.65
594.887	34.53
595.224	34.63
595.561	34.89
595.899	34.5
596.236	34.32
596.573	34.97
596.91	34.55
597.247	34.87
597.584	34.55
597.921	34.57
598.258	34.99
598.594	34.77
598.931	34.42
599.268	34.6
599.604	34.83
599.941	34.73
600.277	35.03
600.614	34.89
600.95	35.03
601.287	35.13
601.623	35.11
601.959	35.24
602.296	35.44
602.632	35.24
602.968	35.01
603.304	35.42
603.64	35.62
603.976	35.57
604.312	35.42
604.648	35.48
604.984	35.65
605.319	35.5
605.655	35.34
605.991	35.63
606.326	35.59
606.662	35.21
606.998	35.34
607.333	35.33
607.668	35.56
608.004	35.48
608.339	35.89
608.674	35.76
609.01	36.05
609.345	35.95
609.68	36.2
610.015	36.17
610.35	35.9
610.685	36.02
611.02	35.79
611.355	36
611.689	36.16
612.024	35.64
612.359	35.81
612.694	36.06
613.028	36.11
613.363	36.3
613.697	36.43
614.032	36.12
614.366	36.06
614.7	36.33
615.035	36.61
615.369	36.49
615.703	36.41
616.037	36.36
616.371	37.01
616.705	36.58
617.039	36.62
617.373	36.84
617.707	36.51
618.041	36.95
618.375	36.8
618.709	36.53
619.042	37.09
619.376	36.95
619.71	36.69
620.043	36.83
620.377	37.25
620.71	37.17
621.043	37.03
621.377	36.87
621.71	37.09
622.043	37.1
622.376	37.04
622.709	37.25
623.043	37.87
623.376	37.19
623.709	37.27
624.041	37.53
624.374	37.42
624.707	37.26
625.04	37.72
625.373	37.13
625.705	37.4
626.038	37.67
626.37	37.87
626.703	37.71
627.035	37.52
627.368	37.3
627.7	37.38
628.032	37.46
628.365	37.82
628.697	37.67
629.029	37.9
629.361	37.5
629.693	37.52
630.025	37.81
630.357	38.29
630.689	37.4
631.021	37.96
631.353	38.41
631.684	38
632.016	38.24
632.348	38.04
632.679	38.57
633.011	38.46
633.342	38.48
633.674	38.55
634.005	38.28
634.336	38.03
634.668	38.31
634.999	39.17
635.33	38.41
635.661	38.33
635.992	38.49
636.323	38.31
636.654	38.21
636.985	38.89
637.316	38.64
637.647	38.35
637.977	38.52
638.308	38.81
638.639	38.82
638.969	38.36
639.3	38.59
639.63	38.67
639.961	38.69
640.291	39.37
640.622	38.99
640.952	39.2
641.282	38.72
641.612	39.41
641.943	38.79
642.273	39.04
642.603	39.05
642.933	38.67
643.263	39.42
643.592	39.54
643.922	39.5
644.252	39.14
644.582	39.52
644.911	39.61
645.241	38.94
645.571	39.57
645.9	39.81
646.23	39.58
646.559	39.21
646.888	39.49
647.218	39.33
647.547	39.03
647.876	39.64
648.205	38.68
648.534	39.53
648.863	39.93
649.192	39.52
649.521	40.46
649.85	39.4
650.179	39.88
650.508	39.62
650.837	39.83
651.165	40.26
651.494	39.89
651.822	39.75
652.151	40.49
652.479	39.71
652.808	39.98
653.136	40.62
653.465	40.12
653.793	39.69
654.121	39.88
654.449	40.73
654.777	39.69
655.105	39.55
655.433	40
655.761	39.89
656.089	40.2
656.417	39.67
656.745	40.54
657.073	39.99
657.4	41.01
657.728	40.42
658.056	40.43
658.383	40.34
658.711	40.27
659.038	40.67
659.365	40.72
659.693	40.23
660.02	40.56
660.347	40.04
660.674	40.46
661.001	40.46
661.329	40.66
661.656	40.55
661.982	40.88
662.309	40.88
662.636	40.98
662.963	41.05
663.29	40.5
663.616	40.27
663.943	41.12
664.27	40.73
664.596	41.39
664.923	40.63
665.249	41.27
665.576	40.62
665.902	41.45
666.228	41.63
666.554	40.92
666.881	41.46
667.207	41.37
667.533	40.89
667.859	41.18
668.185	41.18
668.511	41.39
668.837	41.02
669.162	42.1
669.488	40.82
669.814	41.38
670.139	41.82
670.465	41.68
670.791	41.02
671.116	41.21
671.442	41.76
671.767	42.19
672.092	41.28
672.418	41.69
672.743	41.57
673.068	41.96
673.393	40.88
673.718	41.53
674.043	42.12
674.368	41.86
674.693	41.4
675.018	42.13
675.343	41.94
675.667	41.74
675.992	42.05
676.317	42.66
676.641	41.49
676.966	41.66
677.29	41.29
677.615	42.72
677.939	41.49
678.264	42.9
678.588	42.85
678.912	41.87
679.236	42.12
679.56	42.95
679.885	41.92
680.209	42.18
680.532	41.81
680.856	42.73
681.18	42.58
681.504	42.63
681.828	41.62
682.152	41.63
682.475	42.21
682.799	42.57
683.122	42.81
683.446	41.92
683.769	42.69
684.093	42.98
684.416	42.58
684.739	42.6
685.062	43.67
685.386	42.18
685.709	42.83
686.032	43.11
686.355	43.05
686.678	42.35
687.001	43.11
687.324	41.85
687.646	42.65
687.969	42.85
688.292	43.64
688.614	43.13
688.937	42.42
689.26	43.16
689.582	41.97
689.904	43.37
690.227	42.95
690.549	43.44
690.871	43.15
691.194	42.99
691.516	42.44
691.838	43.08
692.16	43.43
692.482	43.58
692.804	43.2
693.126	43.87
693.448	41.82
693.769	42.43
694.091	43.52
694.413	43.51
694.735	44.05
695.056	43.71
695.378	43.32
695.699	43.63
696.021	43.59
696.342	43.18
696.663	43.12
696.984	44.24
697.306	43.41
697.627	44.03
697.948	43.23
698.269	43.98
698.59	43.78
698.911	43.74
699.232	43.64
699.553	43.49
699.873	44.52
700.194	43.91
700.515	43.96
700.835	43.63
701.156	43.71
701.477	43.4
701.797	43.46
702.117	43.4
702.438	43.57
702.758	44.3
703.078	44.4
703.398	43.95
703.719	44.25
704.039	44.85
704.359	44.64
704.679	44.74
704.999	44.51
705.319	44.65
705.638	43.68
705.958	44.67
706.278	44.08
706.597	44.45
706.917	44.4
707.237	44.2
707.556	44.49
707.876	43.86
708.195	45.24
708.514	45.43
708.834	45.09
709.153	44.86
709.472	44.66
709.791	45.93
710.11	45
710.429	43.77
710.748	44.38
711.067	44.82
711.386	44.93
711.705	44.91
712.023	45.17
712.342	44.41
712.661	44.13
712.979	44.56
713.298	44.9
713.616	46.16
713.935	44.31
714.253	45.02
714.572	44.58
714.89	44.16
715.208	44.4
715.526	45.85
715.844	45.93
716.162	44.06
716.48	46.05
716.798	45.74
717.116	45.85
717.434	45.07
717.752	45.66
718.069	44.53
718.387	45.98
718.705	44.93
719.022	45.05
719.34	45.18
719.657	45.03
719.975	45.95
720.292	45.63
720.609	45.48
720.927	45.58
721.244	46.06
721.561	45.8
721.878	46.16
722.195	45.37
722.512	44.42
722.829	45.79
723.146	46.62
723.463	47.31
723.779	45.99
724.096	46.68
724.413	44.53
724.729	45.87
725.046	45.67
725.362	44.49
725.679	46.88
725.995	46.46
726.311	45.68
726.628	44.27
726.944	46.07
727.26	44.41
727.576	45.21
727.892	44.78
728.208	44.87
728.524	43.89
728.84	46.26
729.156	45.44
729.472	45.8
729.787	47.01
730.103	45.08
730.419	45.71
730.734	46.08
731.05	44.75
731.365	45.26
731.681	45.6
731.996	44.81
732.311	44.87
732.626	45.1
732.942	45.96
733.257	46.05
733.572	45.16
733.887	44.97
734.202	45.28
734.517	46.3
734.832	47.25
735.146	46.14
735.461	46.3
735.776	46.41
736.091	46.09
736.405	46.91
736.72	46.33
737.034	47.92
737.349	45.09
737.663	44.78
737.977	46.09
738.292	46.83
738.606	43.41
738.92	46.56
739.234	47.48
739.548	46.5
739.862	47.61
740.176	45.75
740.49	47.19
740.804	47.33
741.117	47.3
741.431	46.17
741.745	46.39
742.058	47.98
742.372	44.92
742.685	47.55
742.999	46.04
743.312	47.36
743.626	45.18
743.939	45.65
744.252	46.34
744.565	47.51
744.878	47.82
745.191	47.43
745.505	46.25
745.817	45.7
746.13	47.08
746.443	47.25
746.756	47.25
747.069	47.01
747.381	44.83
747.694	48.02
748.007	47.78
748.319	46.72
748.632	47.65
748.944	46.95
749.256	46.75
749.569	45.66
749.881	47.38
750.193	48.01
750.505	47.43
750.817	46.74
751.129	46.88
751.441	47.14
751.753	47.25
752.065	47.56
752.377	47.05
752.689	45.6
753	46.91
753.312	47.87
753.624	46.51
753.935	49.32
754.247	48.25
754.558	47.25
754.869	47.47
755.181	47.37
755.492	46.87
755.803	47.78
756.114	45.93
756.425	48.06
756.736	47.54
757.047	46.45
757.358	48.66
757.669	47.98
757.98	48.17
758.291	45.6
758.601	48.63
758.912	47.21
759.223	44.86
759.533	47.72
759.844	45.03
760.154	46.71
760.464	49
760.775	49.65
761.085	47.95
761.395	45.86
761.705	47.6
762.016	50.21
762.326	46.04
762.636	48.02
762.945	46.95
763.255	47.39
763.565	48.21
763.875	48.3
764.185	47.85
764.494	49.05
764.804	49.23
765.113	47.72
765.423	48.93
765.732	49.18
766.042	47.01
766.351	48.08
766.66	47.39
766.97	48.15
767.279	49.46
767.588	47.65
767.897	47.21
768.206	47.08
768.515	49.9
768.824	47.68
769.133	48.1
769.441	49.39
769.75	48.82
770.059	47.54
770.367	47.96
770.676	49.14
770.984	47.66
771.293	47.76
771.601	46.51
771.91	47.95
772.218	47.54
772.526	48.94
772.834	49.83
773.142	48.5
773.45	51.15
773.758	48.79
774.066	48.25
774.374	47.73
774.682	46.62
774.99	48.82
775.298	49.34
775.605	47.01
775.913	50.49
776.22	47.22
776.528	49.23
776.835	50.9
777.143	47.93
777.45	45.17
777.757	46.15
778.065	44.24
778.372	51.39
778.679	50.62
778.986	47.63
779.293	44.32
779.6	45.67
779.907	46.84
780.214	48.39
780.52	50.59
780.827	53.17
781.134	48.27
781.44	49.47
781.747	49.69
782.053	51.91
782.36	49.18
782.666	47.17
782.973	49.79
783.279	47.67
783.585	45.52
783.891	51.3
784.197	48.28
784.503	50.81
784.809	47.72
785.115	52.36
785.421	45.63
785.727	50.03
786.033	51.65
786.339	51.27
786.644	47.64
786.95	56.4
787.255	46.13
787.561	53.4
787.866	52.92
788.172	50.28
788.477	49.39
788.782	51.02
789.088	51.13
789.393	50.34
789.698	48.83
790.003	47.39
790.308	50.16
790.613	46.74
790.918	51.56
791.223	47.66
791.527	50.35
791.832	49.67
792.137	51.99
792.441	50.81
792.746	49.84
793.05	51.57
793.355	52.52
793.659	48.45
793.963	51.69
794.268	48.97
794.572	47.58
794.876	47.77
795.18	49.66
795.484	47.07
795.788	49.07
796.092	52.54
796.396	50.77
796.7	48.5
797.004	51.5
797.307	50.87
797.611	50.16
797.915	48.61
798.218	51.15
798.522	52.21
798.825	49.25
799.128	55.17
799.432	48.73
799.735	50.63
800.038	49.51
800.341	49.37
800.644	48.94
800.947	44.58
801.25	54.39
801.553	47.95
801.856	48.47
802.159	47.09
802.462	46.69
802.764	52.79
803.067	50.14
803.37	49.5
803.672	49.72
803.975	44.62
804.277	52.44
804.579	50.39
804.882	57.98
805.184	50.03
805.486	52.22
805.788	45.84
806.09	46.9
806.392	46.4
806.694	49.85
806.996	51.76
807.298	55
807.6	50.35
807.902	50.67
808.203	49.92
808.505	51.04
808.807	42.62
809.108	49.96
809.409	51.14
809.711	53.65
810.012	55.79
810.313	46.95
810.615	53.16
810.916	54.54
811.217	51.28
811.518	47.43
811.819	57.79
812.12	51.88
812.421	51
812.722	49.75
813.023	53.44
813.323	50.11
813.624	55.19
813.925	45.67
814.225	44.77
814.526	51.16
814.826	54.92
815.126	49.74
815.427	48.2
815.727	47.53
816.027	47.94
816.327	46.84
816.627	49.99
816.927	50.66
817.227	44.89
817.527	51.35
817.827	48.5
818.127	51.33
818.427	53.59
818.727	52.56
819.026	54.08
819.326	56.47
819.625	48.16
819.925	45.73
820.224	48.82
820.524	53.48
820.823	47.96
821.122	53.89
821.421	49.52
821.72	46.93
822.019	47.29
822.318	52.07
822.617	50.63
822.916	53.11
823.215	49.78
823.514	51.1
823.813	50.92
824.111	51.47
824.41	52.98
824.709	50.79
825.007	51.03
825.306	50.91
825.604	50.47
825.902	50.5
826.201	52.11
826.499	50.49
826.797	52.56
827.095	52.13
827.393	50.4
827.691	51.24
827.989	52.63
828.287	52.41
828.585	49.13
828.882	53.24
829.18	50.25
829.478	50.39
829.775	50.71
830.073	49.2
830.37	50.28
830.668	49.42
830.965	52.4
831.263	52.03
831.56	55.03
831.857	51.62
832.154	52.68
832.451	50.92
832.748	53.74
833.045	49.55
833.342	54.94
833.639	49.34
833.936	54.47
834.232	48.12
834.529	55.57
834.826	53.68
835.122	49.29
835.419	51.95
835.715	55.46
836.012	49.33
836.308	52.17
836.604	55.14
836.901	53.13
837.197	52.37
837.493	51.14
837.789	50.44
838.085	53.71
838.381	50.7
838.677	56.26
838.972	52.2
839.268	50.25
839.564	53.85
839.86	47.33
840.155	50.17
840.451	57.76
840.746	50.52
841.042	50.44
841.337	54.42
841.632	47.96
841.928	43.92
842.223	69.12
842.518	61.49
842.813	48.37
843.108	43.33
843.403	44.57
843.698	44.42
843.993	41.68
844.287	38.08
844.582	61.42
844.877	42.92
845.171	50.08
845.466	51.88
845.761	42.62
846.055	50.28
846.349	44.87
846.644	56.42
846.938	57.34
847.232	34.87
847.526	54.67
847.82	58.93
848.114	60.82
848.408	43.33
848.702	47.22
848.996	67.24
849.29	55.08
849.584	68.86
849.877	47.65
850.171	59.46
850.465	38.68
850.758	43.5
851.052	37.68
851.345	52.26
851.638	53.23
851.932	53.29
852.225	28.9
852.518	63.14
852.811	60.75
853.104	39.99
853.397	58.88
853.69	46.82
853.983	44.12
854.276	53.62
854.569	47.21
854.861	58.01
855.154	43.76
855.447	83.71
855.739	69.16
856.032	62.1
856.324	54.25
856.616	52.62
856.909	42.75
857.201	34.81
857.493	29.19
857.785	51.85
858.077	46.91
858.369	35.17
858.661	85.32
858.953	50.09
859.245	37.19
859.537	49.55
859.829	69.3
860.12	61.74
860.412	70.23
860.703	60.04
860.995	29.22
861.286	39.66
861.578	61.24
861.869	63.7
862.16	42.44
862.452	66.92
862.743	66.21
863.034	75.63
863.325	6.61
863.616	47.81
863.907	37.68
864.198	50.73
864.488	55.24
864.779	55.22
865.07	39.47
865.36	41.61
865.651	60.74
865.941	82.75
866.232	35.46
866.522	34.43
866.813	43.55
867.103	42.13
867.393	41.16
867.683	37.65
867.973	54.51
868.263	50.34
868.553	33.07
868.843	61.1
869.133	52.49
869.423	42.67
869.713	9.67
870.002	50.62
870.292	28.7
870.582	67.6
870.871	79.58
871.161	53.3
871.45	23.4
871.739	43.76
872.029	54.19
872.318	18.24
872.607	46.2
872.896	45.71
873.185	47.48
873.474	43.52
873.763	52.73
874.052	54.61
874.341	47.61
874.63	68.11
874.918	47.69
875.207	47.49
875.496	49.13
875.784	-21.96
876.073	65.03
876.361	69.26
876.649	33.13
876.938	49.37
877.226	48.74
877.514	44.3
877.802	60.77
878.09	63.17
878.378	37.08
878.666	59.23
878.954	26.45
879.242	68.64
879.53	25.35
879.817	58.77
880.105	57.39
880.392	54.9
880.68	30.47
880.967	28.41
881.255	18.75
881.542	46.68
881.83	56.07
882.117	70.59
882.404	43.45
882.691	21.4
882.978	44.05
883.265	66.5
883.552	64.53
883.839	59.32
884.126	37.34
884.413	64.44
884.699	39.58
884.986	49.03
885.273	58.94
885.559	58.94
885.846	58.94
