Data from 0356_chest_Reflection__1__62.txt Node

Date: Mon Dec 11 18:25:42 CST 2023
User: ToomeyLab
Spectrometer: FLMS14357
Trigger mode: 0
Integration Time (sec): 1.000000E-2
Scans to average: 100
Electric dark correction enabled: true
Nonlinearity correction enabled: false
Boxcar width: 0
XAxis mode: Wavelengths
Number of Pixels in Spectrum: 2048
>>>>>Begin Spectral Data<<<<<
189.047	59.74
189.435	59.74
189.823	59.74
190.211	-33.71
190.599	133.22
190.987	279.51
191.375	482.63
191.763	104.43
192.151	14808.33
192.538	-258.78
192.926	430.6
193.314	23375
193.702	111.63
194.089	-104.5
194.477	490.85
194.864	-296.35
195.252	140.77
195.639	127.79
196.027	193.58
196.414	-78.83
196.801	-128.26
197.189	-50.16
197.576	41.89
197.963	185.34
198.351	-19.87
198.738	5.57
199.125	18.79
199.512	18.78
199.899	25.51
200.286	27.09
200.673	-85.28
201.06	88.17
201.447	93.71
201.833	20.64
202.22	33.3
202.607	10.53
202.994	-31.19
203.38	-0.49
203.767	68.11
204.154	8.27
204.54	-8.73
204.927	-22.08
205.313	17.56
205.699	-45.98
206.086	7.8
206.472	17.46
206.858	8.52
207.245	36.87
207.631	17.15
208.017	16.15
208.403	20.12
208.789	41.2
209.175	-3.55
209.561	27.62
209.947	7.82
210.333	48.36
210.719	31.71
211.105	7.11
211.491	37.59
211.876	34.29
212.262	-5.97
212.648	5.25
213.034	40.59
213.419	8.5
213.805	-3.64
214.19	33.53
214.576	-35.65
214.961	13.35
215.346	-6.35
215.732	14.24
216.117	39.39
216.502	13.99
216.888	10.49
217.273	23.37
217.658	5.66
218.043	9.19
218.428	39.01
218.813	5.21
219.198	9.74
219.583	3.59
219.968	2.54
220.353	-7.1
220.738	18.08
221.122	5.7
221.507	22.22
221.892	27.03
222.276	2.54
222.661	15.96
223.046	17.22
223.43	12.83
223.815	6.16
224.199	19.84
224.583	9.61
224.968	8.86
225.352	5.44
225.736	6.07
226.121	2.49
226.505	-3.56
226.889	7.6
227.273	4.01
227.657	18.46
228.041	3.79
228.425	0.86
228.809	-3.48
229.193	4.38
229.577	5.76
229.961	5.78
230.344	4.96
230.728	3.71
231.112	5.29
231.495	5.46
231.879	4.25
232.263	3.89
232.646	4.6
233.03	4.33
233.413	4.77
233.797	5.49
234.18	5.14
234.563	5.69
234.946	6.16
235.33	6.42
235.713	6.07
236.096	5.03
236.479	6.46
236.862	5.06
237.245	4.51
237.628	2.76
238.011	5.29
238.394	3.79
238.777	5.87
239.16	4.16
239.543	5.01
239.925	4.13
240.308	4.35
240.691	4.79
241.073	5.53
241.456	6.58
241.838	5.95
242.221	4.53
242.603	3.27
242.986	4.29
243.368	4.16
243.75	4.11
244.133	4.41
244.515	4.34
244.897	4.32
245.279	4.45
245.661	4.13
246.043	4.11
246.425	5.67
246.807	5.09
247.189	3.94
247.571	4.41
247.953	4.39
248.335	4.52
248.717	4.44
249.098	4.11
249.48	4.17
249.862	4.68
250.243	4.34
250.625	4.21
251.006	4.02
251.388	4.24
251.769	4.49
252.151	5.74
252.532	4.75
252.913	4.9
253.295	4.6
253.676	4.19
254.057	3.72
254.438	4.14
254.819	4.31
255.2	3.24
255.581	3.75
255.962	3.79
256.343	3.85
256.724	4.45
257.105	3.38
257.486	4.23
257.867	5.06
258.247	3.67
258.628	4.88
259.009	5.41
259.389	4.48
259.77	3.82
260.15	3.49
260.531	4.81
260.911	3.34
261.292	3.87
261.672	4.05
262.052	3.85
262.432	3.91
262.813	3.95
263.193	4.02
263.573	4.73
263.953	3.9
264.333	3.07
264.713	4.45
265.093	4
265.473	4.44
265.853	4.68
266.233	3.62
266.612	4.24
266.992	4.87
267.372	4.85
267.752	4.14
268.131	4.18
268.511	3.65
268.89	4.43
269.27	4.17
269.649	4.19
270.029	4.1
270.408	4.24
270.787	3.46
271.167	2.78
271.546	3.74
271.925	3.74
272.304	3.69
272.683	4.69
273.062	3.91
273.441	3.95
273.82	3.68
274.199	3.79
274.578	4.08
274.957	4.16
275.336	3.56
275.715	3.65
276.093	4.6
276.472	4.17
276.851	3.58
277.229	4.13
277.608	3.87
277.986	3.75
278.365	4.14
278.743	4.06
279.122	3.72
279.5	4.32
279.878	4.11
280.257	4.23
280.635	4.27
281.013	3.09
281.391	3.87
281.769	3.37
282.147	4.08
282.525	3.61
282.903	3.88
283.281	3.75
283.659	3.6
284.037	3.57
284.415	3.44
284.792	3.85
285.17	3.72
285.548	4.29
285.925	4.04
286.303	3.82
286.68	3.94
287.058	3.81
287.435	3.88
287.813	3.71
288.19	3.65
288.567	3.79
288.945	3.82
289.322	2.93
289.699	3.67
290.076	3.7
290.453	4.1
290.83	3.9
291.207	3.72
291.584	3.91
291.961	3.63
292.338	3.87
292.715	4.2
293.092	4
293.469	3.53
293.845	4.33
294.222	4.44
294.599	3.91
294.975	4.2
295.352	3.85
295.728	4.06
296.105	3.96
296.481	3.82
296.858	3.65
297.234	4.05
297.61	4.4
297.986	3.87
298.363	3.93
298.739	3.94
299.115	3.75
299.491	3.74
299.867	3.89
300.243	3.96
300.619	3.84
300.995	3.98
301.371	3.7
301.746	3.62
302.122	3.81
302.498	4.41
302.874	4
303.249	4.51
303.625	3.94
304	3.62
304.376	3.93
304.751	3.85
305.127	3.67
305.502	3.97
305.878	3.9
306.253	3.57
306.628	4.09
307.003	4.1
307.378	3.87
307.754	3.94
308.129	4.11
308.504	4.15
308.879	3.76
309.254	4.57
309.629	3.9
310.003	3.96
310.378	3.67
310.753	3.87
311.128	3.74
311.502	3.81
311.877	3.8
312.252	3.86
312.626	4.05
313.001	4.03
313.375	3.53
313.75	3.87
314.124	3.72
314.498	3.76
314.873	3.78
315.247	3.61
315.621	4.53
315.995	3.83
316.369	3.78
316.743	4.47
317.117	4.25
317.491	4.55
317.865	3.52
318.239	4.53
318.613	4.73
318.987	3.94
319.361	4.51
319.734	4
320.108	3.66
320.482	3.77
320.855	3.73
321.229	3.62
321.602	3.56
321.976	4.55
322.349	3.64
322.723	4.32
323.096	4.73
323.469	4.31
323.843	4.34
324.216	3.92
324.589	4.51
324.962	4.01
325.335	3.88
325.708	4.03
326.081	4.36
326.454	3.93
326.827	3.86
327.2	3.96
327.573	3.41
327.945	4.52
328.318	3.88
328.691	4.23
329.063	3.64
329.436	3.79
329.809	3.77
330.181	4.02
330.553	4.42
330.926	4.59
331.298	4.72
331.671	4.07
332.043	4.38
332.415	4.45
332.787	4.47
333.159	3.69
333.532	4.11
333.904	4.24
334.276	4.53
334.648	4.86
335.02	3.58
335.391	3.81
335.763	4.25
336.135	3.79
336.507	4.39
336.879	4.75
337.25	4.23
337.622	3.68
337.993	4.03
338.365	3.7
338.736	4.24
339.108	4.41
339.479	4.03
339.851	3.87
340.222	4.17
340.593	3.32
340.964	3.99
341.336	4.28
341.707	4
342.078	4.48
342.449	4.11
342.82	3.88
343.191	3.82
343.562	4.07
343.933	4.19
344.303	4.08
344.674	4.05
345.045	4.3
345.416	4.18
345.786	4.17
346.157	4.11
346.527	4.45
346.898	4.25
347.268	4.02
347.639	4.12
348.009	4.26
348.38	3.67
348.75	3.95
349.12	4.47
349.49	3.84
349.861	3.41
350.231	3.5
350.601	4.31
350.971	4.04
351.341	3.62
351.711	4.36
352.081	3.91
352.45	4.47
352.82	3.95
353.19	3.8
353.56	3.65
353.929	4.43
354.299	3.89
354.669	4.18
355.038	4.05
355.408	4.27
355.777	3.94
356.147	3.98
356.516	4.13
356.885	3.97
357.254	4.24
357.624	4.07
357.993	3.7
358.362	3.77
358.731	3.69
359.1	4
359.469	3.91
359.838	3.81
360.207	4.03
360.576	4.1
360.945	4.26
361.314	4.21
361.682	3.97
362.051	3.86
362.42	3.99
362.788	3.86
363.157	4.03
363.525	3.82
363.894	3.82
364.262	3.75
364.631	3.99
364.999	3.8
365.367	4.32
365.735	3.88
366.104	3.98
366.472	4.11
366.84	4.06
367.208	3.94
367.576	4.39
367.944	3.84
368.312	4.16
368.68	3.93
369.048	3.77
369.416	3.76
369.783	4.26
370.151	4
370.519	4.68
370.886	3.79
371.254	4.7
371.621	4.26
371.989	3.99
372.356	4.17
372.724	4.1
373.091	3.97
373.458	4.29
373.826	4.42
374.193	3.98
374.56	3.95
374.927	4.1
375.294	4.07
375.661	3.93
376.028	4.08
376.395	4.16
376.762	4.05
377.129	4.49
377.496	4.15
377.863	4.25
378.229	4.28
378.596	4.39
378.963	4.18
379.329	3.99
379.696	4.23
380.062	3.63
380.429	3.92
380.795	4.57
381.161	4.13
381.528	4.24
381.894	4.23
382.26	4.51
382.626	3.91
382.993	4
383.359	4.12
383.725	4.07
384.091	4.04
384.457	4.07
384.823	4.43
385.188	3.81
385.554	3.48
385.92	4.31
386.286	4.02
386.651	4.23
387.017	4.14
387.383	4.03
387.748	4.08
388.114	3.81
388.479	4.07
388.845	4.13
389.21	4.01
389.575	3.87
389.94	4.24
390.306	3.98
390.671	4.1
391.036	4.2
391.401	4.26
391.766	4.26
392.131	4.14
392.496	4.31
392.861	4.15
393.226	3.99
393.591	4.29
393.956	4.12
394.32	4.05
394.685	4.15
395.05	4.22
395.414	4.23
395.779	3.85
396.143	3.98
396.508	3.99
396.872	4.18
397.236	4.26
397.601	3.99
397.965	4.29
398.329	4.21
398.694	4.25
399.058	3.99
399.422	4.24
399.786	4.16
400.15	3.87
400.514	4.43
400.878	4.3
401.242	4.16
401.605	4.33
401.969	4.07
402.333	4.05
402.697	4.24
403.06	4.12
403.424	4.28
403.787	4.21
404.151	4.27
404.514	4.1
404.878	3.91
405.241	4.22
405.604	4.18
405.968	4.02
406.331	3.97
406.694	4.2
407.057	4.15
407.42	4.54
407.783	4.22
408.146	4.23
408.509	4.12
408.872	3.94
409.235	4.11
409.598	4.26
409.961	4.29
410.323	4.44
410.686	4.3
411.049	4.13
411.411	4.13
411.774	4.47
412.136	4.07
412.499	4.22
412.861	4.22
413.223	4.23
413.586	4.39
413.948	4.33
414.31	4.08
414.672	3.91
415.035	4.11
415.397	4.3
415.759	4.09
416.121	4.12
416.483	4.1
416.845	4.36
417.206	4.22
417.568	4.26
417.93	4.2
418.292	4.15
418.653	4.02
419.015	4.23
419.377	4.14
419.738	4.17
420.1	4.14
420.461	4.23
420.822	4
421.184	4.16
421.545	4.17
421.906	4.14
422.267	4.21
422.629	4.18
422.99	4.07
423.351	3.96
423.712	3.95
424.073	3.99
424.434	4.01
424.795	4.24
425.155	4.1
425.516	4.14
425.877	4.05
426.238	4.06
426.598	4.12
426.959	4.1
427.32	4.17
427.68	4.12
428.041	3.96
428.401	4.06
428.761	4.17
429.122	4.15
429.482	4.25
429.842	4.17
430.202	4.11
430.563	4.15
430.923	4.11
431.283	4.15
431.643	4.29
432.003	4.38
432.363	4.26
432.722	4.11
433.082	4.32
433.442	4.3
433.802	4.22
434.161	4.43
434.521	4.06
434.881	4.31
435.24	4.06
435.6	4.13
435.959	4.13
436.319	4.2
436.678	4.15
437.037	4.12
437.396	4.22
437.756	4.36
438.115	4.35
438.474	4.29
438.833	4.22
439.192	4.36
439.551	4.31
439.91	4.27
440.269	4.37
440.628	4.09
440.987	4.43
441.345	4.16
441.704	4.31
442.063	4.22
442.421	4.17
442.78	4.23
443.138	4.15
443.497	4.19
443.855	4.06
444.214	4.35
444.572	4.29
444.93	4.26
445.288	4.45
445.647	4.4
446.005	4.13
446.363	4.28
446.721	4.36
447.079	4.27
447.437	4.23
447.795	4.17
448.153	4.29
448.51	4.27
448.868	4.2
449.226	4.02
449.584	4.26
449.941	4.33
450.299	4.19
450.656	4.23
451.014	4.21
451.371	4.15
451.729	4.36
452.086	4.44
452.443	4.5
452.801	4.32
453.158	4.32
453.515	4.24
453.872	4.39
454.229	4.31
454.586	4.32
454.943	4.43
455.3	4.38
455.657	4.38
456.014	4.35
456.371	4.41
456.727	4.27
457.084	4.29
457.441	4.44
457.797	4.43
458.154	4.41
458.51	4.35
458.867	4.21
459.223	4.21
459.58	4.37
459.936	4.41
460.292	4.39
460.648	4.3
461.005	4.28
461.361	4.39
461.717	4.13
462.073	4.17
462.429	4.24
462.785	4.36
463.141	4.3
463.496	4.41
463.852	4.35
464.208	4.2
464.564	4.24
464.919	4.46
465.275	4.27
465.631	4.2
465.986	4.61
466.342	4.49
466.697	4.37
467.052	4.32
467.408	4.62
467.763	4.3
468.118	4.18
468.473	4.18
468.829	4.54
469.184	4.56
469.539	4.43
469.894	4.31
470.249	4.43
470.603	4.43
470.958	4.36
471.313	4.5
471.668	4.63
472.023	4.63
472.377	4.53
472.732	4.31
473.086	4.64
473.441	4.7
473.795	4.54
474.15	4.43
474.504	4.33
474.859	4.43
475.213	4.28
475.567	4.43
475.921	4.35
476.275	4.37
476.63	4.46
476.984	4.58
477.338	4.39
477.692	4.45
478.045	4.45
478.399	4.37
478.753	4.17
479.107	4.38
479.461	4.44
479.814	4.42
480.168	4.4
480.521	4.57
480.875	4.37
481.228	4.33
481.582	4.63
481.935	4.38
482.289	4.45
482.642	4.41
482.995	4.55
483.348	4.33
483.701	4.28
484.055	4.46
484.408	4.4
484.761	4.43
485.114	4.35
485.466	4.24
485.819	4.2
486.172	4.17
486.525	4.12
486.878	4.23
487.23	4.26
487.583	4.3
487.936	4.32
488.288	4.43
488.641	4.27
488.993	4.26
489.345	4.28
489.698	4.25
490.05	4.28
490.402	4.3
490.754	4.3
491.107	4.33
491.459	4.38
491.811	4.41
492.163	4.45
492.515	4.45
492.866	4.42
493.218	4.28
493.57	4.39
493.922	4.35
494.274	4.33
494.625	4.42
494.977	4.53
495.328	4.44
495.68	4.55
496.031	4.57
496.383	4.42
496.734	4.66
497.086	4.59
497.437	4.57
497.788	4.54
498.139	4.53
498.49	4.56
498.842	4.54
499.193	4.6
499.544	4.47
499.894	4.49
500.245	4.5
500.596	4.63
500.947	4.61
501.298	4.65
501.648	4.59
501.999	4.56
502.35	4.63
502.7	4.66
503.051	4.63
503.401	4.58
503.752	4.57
504.102	4.61
504.452	4.56
504.803	4.69
505.153	4.63
505.503	4.88
505.853	4.78
506.203	4.48
506.553	4.82
506.903	4.53
507.253	4.65
507.603	4.56
507.953	4.73
508.303	4.62
508.652	4.65
509.002	4.67
509.352	4.77
509.701	4.65
510.051	4.55
510.4	4.66
510.75	4.68
511.099	4.64
511.449	4.71
511.798	4.56
512.147	4.74
512.496	4.56
512.846	4.73
513.195	4.78
513.544	4.76
513.893	4.67
514.242	4.63
514.591	4.62
514.939	4.72
515.288	4.88
515.637	4.71
515.986	4.68
516.334	4.82
516.683	4.76
517.032	4.82
517.38	4.7
517.729	4.77
518.077	4.75
518.426	4.94
518.774	4.91
519.122	4.84
519.47	4.7
519.819	4.76
520.167	4.72
520.515	4.73
520.863	4.62
521.211	4.8
521.559	4.74
521.907	4.7
522.255	4.62
522.602	4.8
522.95	4.88
523.298	4.77
523.645	5.02
523.993	4.85
524.341	4.93
524.688	4.75
525.036	4.91
525.383	4.87
525.73	4.85
526.078	4.92
526.425	4.85
526.772	4.97
527.119	4.9
527.466	4.8
527.814	4.83
528.161	4.83
528.508	4.83
528.854	4.77
529.201	4.83
529.548	4.84
529.895	4.81
530.242	4.8
530.588	4.72
530.935	4.73
531.282	4.73
531.628	4.68
531.975	4.72
532.321	4.86
532.667	4.91
533.014	4.88
533.36	4.92
533.706	4.97
534.052	5.02
534.399	4.99
534.745	5
535.091	4.87
535.437	4.86
535.783	4.93
536.129	4.91
536.474	4.94
536.82	4.99
537.166	5.09
537.512	5
537.857	5.21
538.203	5.09
538.549	5.02
538.894	5.07
539.239	5.15
539.585	5.01
539.93	4.97
540.276	5.21
540.621	5.23
540.966	5.19
541.311	5.09
541.656	5.13
542.001	5.34
542.346	5.23
542.691	5.11
543.036	5.09
543.381	4.98
543.726	5.08
544.071	5.12
544.415	5.04
544.76	5.12
545.105	5.13
545.449	5.2
545.794	5.22
546.138	5.18
546.483	5.21
546.827	5.32
547.171	5.25
547.516	5.4
547.86	5.42
548.204	5.27
548.548	5.28
548.892	5.3
549.236	5.31
549.58	5.5
549.924	5.49
550.268	5.38
550.612	5.37
550.956	5.32
551.3	5.56
551.643	5.55
551.987	5.64
552.33	5.59
552.674	5.7
553.017	5.5
553.361	5.44
553.704	5.51
554.048	5.74
554.391	5.57
554.734	5.64
555.077	5.63
555.42	5.84
555.764	5.61
556.107	5.75
556.45	5.69
556.793	5.43
557.135	5.76
557.478	5.73
557.821	5.69
558.164	5.85
558.507	5.64
558.849	5.76
559.192	5.78
559.534	5.77
559.877	5.88
560.219	5.82
560.562	5.96
560.904	5.79
561.246	5.89
561.589	5.8
561.931	5.81
562.273	5.84
562.615	5.93
562.957	5.88
563.299	6.07
563.641	5.72
563.983	6.25
564.325	6.14
564.667	5.92
565.008	6.12
565.35	6.27
565.692	6.07
566.033	6.07
566.375	6.27
566.716	6.22
567.058	6.18
567.399	6.02
567.741	5.91
568.082	6.03
568.423	6.05
568.764	6.01
569.105	6.16
569.447	6.09
569.788	6.1
570.129	6.25
570.47	5.97
570.811	6.1
571.151	6.17
571.492	6.32
571.833	6.24
572.174	6.42
572.514	6.26
572.855	6.18
573.195	6.33
573.536	6.14
573.876	6.25
574.217	6.39
574.557	6.23
574.898	6.52
575.238	6.37
575.578	6.46
575.918	6.56
576.258	6.48
576.598	6.58
576.938	6.61
577.278	6.51
577.618	6.48
577.958	6.58
578.298	6.57
578.638	6.8
578.977	6.68
579.317	6.6
579.657	6.41
579.996	6.68
580.336	6.67
580.675	6.69
581.014	6.86
581.354	6.68
581.693	6.78
582.032	6.43
582.372	6.7
582.711	6.59
583.05	6.72
583.389	6.95
583.728	7.08
584.067	6.69
584.406	6.7
584.745	7.09
585.083	7.17
585.422	6.93
585.761	6.98
586.1	7.02
586.438	6.83
586.777	6.92
587.115	6.76
587.454	6.92
587.792	6.91
588.13	7.42
588.469	7.31
588.807	7.1
589.145	7.43
589.483	7.43
589.821	7.05
590.159	7.15
590.497	7.3
590.835	7.37
591.173	7.31
591.511	7.31
591.849	7.46
592.187	7.25
592.524	7.34
592.862	7.43
593.2	7.33
593.537	7.34
593.875	7.43
594.212	7.42
594.55	7.44
594.887	7.53
595.224	7.52
595.561	7.45
595.899	7.36
596.236	7.53
596.573	7.45
596.91	7.4
597.247	7.7
597.584	7.65
597.921	7.45
598.258	7.62
598.594	7.53
598.931	7.53
599.268	7.69
599.604	7.68
599.941	7.96
600.277	7.72
600.614	7.92
600.95	7.71
601.287	7.75
601.623	8.01
601.959	8.02
602.296	7.64
602.632	7.7
602.968	8.12
603.304	7.99
603.64	8.05
603.976	8.18
604.312	8.22
604.648	8.15
604.984	8.23
605.319	8.02
605.655	8.1
605.991	7.94
606.326	8.24
606.662	8.24
606.998	8.1
607.333	8.18
607.668	8.24
608.004	8.02
608.339	8.61
608.674	8.34
609.01	8.56
609.345	8.42
609.68	8.3
610.015	8.73
610.35	8.39
610.685	8.43
611.02	8.18
611.355	8.47
611.689	8.61
612.024	8.4
612.359	8.44
612.694	8.51
613.028	8.4
613.363	8.4
613.697	8.74
614.032	8.58
614.366	8.91
614.7	8.67
615.035	9.01
615.369	8.86
615.703	8.77
616.037	8.86
616.371	9.2
616.705	8.92
617.039	9.06
617.373	8.56
617.707	9
618.041	9.21
618.375	9.4
618.709	8.96
619.042	8.76
619.376	8.92
619.71	9.17
620.043	8.76
620.377	8.87
620.71	9.09
621.043	9.01
621.377	8.89
621.71	8.8
622.043	9.09
622.376	8.99
622.709	9.71
623.043	9.5
623.376	9.17
623.709	9.66
624.041	9.48
624.374	9.58
624.707	9.48
625.04	9.87
625.373	9.52
625.705	9.63
626.038	9.54
626.37	9.74
626.703	9.51
627.035	9.89
627.368	9.46
627.7	9.54
628.032	9.83
628.365	9.75
628.697	9.69
629.029	9.93
629.361	9.71
629.693	9.67
630.025	9.56
630.357	9.48
630.689	9.56
631.021	9.82
631.353	10.03
631.684	9.91
632.016	9.99
632.348	10.15
632.679	10.56
633.011	9.69
633.342	10.17
633.674	10.16
634.005	10.37
634.336	10.08
634.668	10.14
634.999	10.68
635.33	10.06
635.661	10.18
635.992	10.42
636.323	9.98
636.654	10.35
636.985	10.12
637.316	10.17
637.647	10.52
637.977	10.43
638.308	10.41
638.639	10.34
638.969	10.27
639.3	10.41
639.63	10.23
639.961	10.39
640.291	11.22
640.622	10.42
640.952	10.66
641.282	10.97
641.612	11.11
641.943	10.61
642.273	10.88
642.603	10.87
642.933	10.76
643.263	10.77
643.592	11.1
643.922	11.07
644.252	10.31
644.582	11.05
644.911	11.37
645.241	10.64
645.571	11.31
645.9	10.98
646.23	11.48
646.559	11.1
646.888	11.25
647.218	11.37
647.547	10.99
647.876	10.68
648.205	10.7
648.534	11.31
648.863	11.58
649.192	11.68
649.521	11.08
649.85	11.11
650.179	11.76
650.508	11.15
650.837	10.97
651.165	11.7
651.494	11.36
651.822	11.53
652.151	11.38
652.479	11.41
652.808	11.95
653.136	11.27
653.465	11.98
653.793	11.67
654.121	11.48
654.449	11.87
654.777	12.01
655.105	11.61
655.433	11.9
655.761	11.54
656.089	12.02
656.417	11.55
656.745	12.15
657.073	11.86
657.4	11.96
657.728	11.72
658.056	12.28
658.383	12.43
658.711	12.02
659.038	12.11
659.365	12.2
659.693	12.31
660.02	11.44
660.347	12.01
660.674	12.29
661.001	12.14
661.329	11.79
661.656	12.42
661.982	12.6
662.309	12.41
662.636	12.41
662.963	12.89
663.29	12.13
663.616	12.08
663.943	11.71
664.27	12.33
664.596	13.03
664.923	12.41
665.249	12.83
665.576	12.25
665.902	12.74
666.228	12.78
666.554	12.73
666.881	12.18
667.207	13.17
667.533	12.55
667.859	12.88
668.185	12.91
668.511	13.09
668.837	13.19
669.162	13.21
669.488	12.58
669.814	13.35
670.139	12.94
670.465	13.71
670.791	13.34
671.116	13.53
671.442	12.98
671.767	13.57
672.092	13.36
672.418	13.45
672.743	12.88
673.068	13.25
673.393	13.02
673.718	13.25
674.043	14.04
674.368	13.4
674.693	13.76
675.018	14.08
675.343	12.77
675.667	13.44
675.992	13.41
676.317	13.7
676.641	13.69
676.966	13.98
677.29	13.78
677.615	14.07
677.939	13.37
678.264	13.81
678.588	14.27
678.912	14.17
679.236	13.69
679.56	13.4
679.885	14.09
680.209	14.06
680.532	14.01
680.856	14.62
681.18	14.23
681.504	13.68
681.828	13.58
682.152	13.81
682.475	14.26
682.799	14.48
683.122	13.86
683.446	13.96
683.769	14.06
684.093	13.95
684.416	13.94
684.739	14.1
685.062	14.3
685.386	14.28
685.709	14.26
686.032	14.24
686.355	14.61
686.678	13.8
687.001	14.24
687.324	13.83
687.646	13.92
687.969	15.12
688.292	15.1
688.614	15.03
688.937	15.54
689.26	14.52
689.582	14.46
689.904	14.77
690.227	14.72
690.549	14.25
690.871	14.96
691.194	14.95
691.516	14.4
691.838	14.82
692.16	15.9
692.482	15.42
692.804	14.45
693.126	15.69
693.448	15.25
693.769	14.34
694.091	15.2
694.413	15.5
694.735	15.05
695.056	14.79
695.378	15.79
695.699	15.34
696.021	14.98
696.342	14.9
696.663	15.68
696.984	15.4
697.306	15.4
697.627	16.44
697.948	15.6
698.269	15.85
698.59	16.22
698.911	16.01
699.232	16.14
699.553	15.34
699.873	15.95
700.194	15.27
700.515	15.98
700.835	15.59
701.156	16
701.477	15.04
701.797	15.82
702.117	15.77
702.438	16.09
702.758	15.68
703.078	15.88
703.398	15.8
703.719	16.5
704.039	15.58
704.359	15.92
704.679	17.28
704.999	15.84
705.319	16.26
705.638	16.34
705.958	16.52
706.278	16.86
706.597	16.67
706.917	16
707.237	16.47
707.556	16.54
707.876	15.75
708.195	16.04
708.514	17.34
708.834	16.84
709.153	16.67
709.472	15.77
709.791	17.24
710.11	16.89
710.429	16.02
710.748	15.8
711.067	16.98
711.386	17.14
711.705	17.21
712.023	16.98
712.342	17.41
712.661	16.25
712.979	16.61
713.298	15.97
713.616	18.77
713.935	16.27
714.253	17.06
714.572	15.83
714.89	17.31
715.208	17.03
715.526	17.16
715.844	17.83
716.162	16.56
716.48	17.93
716.798	16.59
717.116	18.82
717.434	16.69
717.752	17.45
718.069	17.62
718.387	17.03
718.705	17.48
719.022	17.29
719.34	18.53
719.657	17.09
719.975	17.96
720.292	18.81
720.609	18.22
720.927	18.26
721.244	17.88
721.561	18.05
721.878	19.1
722.195	18.55
722.512	17.38
722.829	17.26
723.146	19.08
723.463	18.4
723.779	18.76
724.096	17.71
724.413	16.79
724.729	19.14
725.046	18.65
725.362	19.03
725.679	16.81
725.995	19.12
726.311	17.47
726.628	17.77
726.944	20.25
727.26	17.22
727.576	19.29
727.892	17.55
728.208	19.39
728.524	18.38
728.84	19.98
729.156	18.16
729.472	18.16
729.787	18.8
730.103	18.99
730.419	19.7
730.734	18.34
731.05	19.75
731.365	19.2
731.681	18.97
731.996	18.59
732.311	18.73
732.626	18.41
732.942	18.55
733.257	18.25
733.572	19.46
733.887	19.68
734.202	17.6
734.517	17.35
734.832	17.72
735.146	18.66
735.461	19.4
735.776	19.19
736.091	19.55
736.405	19.41
736.72	19.8
737.034	19.53
737.349	18.91
737.663	18.95
737.977	18.92
738.292	19.29
738.606	17.51
738.92	19.02
739.234	17.98
739.548	20.08
739.862	20.53
740.176	18.72
740.49	20.71
740.804	21.57
741.117	20.06
741.431	20.99
741.745	20.07
742.058	20.66
742.372	18.93
742.685	21.07
742.999	20.78
743.312	20.32
743.626	18.81
743.939	19.73
744.252	19.38
744.565	18.91
744.878	19.72
745.191	20.49
745.505	19.23
745.817	19.32
746.13	20.37
746.443	20.15
746.756	20.48
747.069	19.51
747.381	21.12
747.694	19.67
748.007	20.78
748.319	19.28
748.632	20.03
748.944	19.55
749.256	21.05
749.569	19.46
749.881	22.17
750.193	20.19
750.505	20.64
750.817	19.93
751.129	19.96
751.441	20.8
751.753	19.47
752.065	22.05
752.377	21.94
752.689	19.06
753	21.24
753.312	21.59
753.624	20.75
753.935	21.2
754.247	20.64
754.558	21.85
754.869	20.93
755.181	20.62
755.492	21.09
755.803	21.12
756.114	21.07
756.425	22.77
756.736	20.95
757.047	19.98
757.358	20.67
757.669	21.21
757.98	20.29
758.291	19.7
758.601	21.57
758.912	21.43
759.223	19.89
759.533	21.62
759.844	22.25
760.154	22.03
760.464	21.26
760.775	20.62
761.085	21.66
761.395	22.83
761.705	22.12
762.016	22.15
762.326	19.73
762.636	23.36
762.945	20.42
763.255	21.62
763.565	22.1
763.875	22.17
764.185	22.16
764.494	23.89
764.804	21.98
765.113	21.44
765.423	20.31
765.732	22.43
766.042	21.59
766.351	21.64
766.66	21.99
766.97	22.28
767.279	23.5
767.588	22.09
767.897	20.83
768.206	22.8
768.515	23.49
768.824	23.36
769.133	22.47
769.441	23.17
769.75	22.92
770.059	23.3
770.367	21.73
770.676	21.79
770.984	20.32
771.293	20.12
771.601	23
771.91	22.77
772.218	25.72
772.526	24.18
772.834	23.21
773.142	21.12
773.45	24.16
773.758	22.2
774.066	25.54
774.374	20.05
774.682	22.98
774.99	22.53
775.298	22.77
775.605	22.92
775.913	27.99
776.22	22.41
776.528	23.92
776.835	26.53
777.143	24.22
777.45	17.8
777.757	23.97
778.065	24.86
778.372	25.35
778.679	25.95
778.986	25.01
779.293	21.15
779.6	21.91
779.907	22.54
780.214	26.9
780.52	25.01
780.827	24.79
781.134	23.49
781.44	22.17
781.747	24.19
782.053	20.46
782.36	24.11
782.666	22.31
782.973	23.06
783.279	22.61
783.585	24.5
783.891	23.41
784.197	21.67
784.503	24.5
784.809	22.61
785.115	23.51
785.421	20.22
785.727	24.45
786.033	23.72
786.339	22.54
786.644	26.71
786.95	27.76
787.255	21.61
787.561	29.43
787.866	23.39
788.172	26.14
788.477	25.63
788.782	22.05
789.088	26.68
789.393	22.2
789.698	25.5
790.003	22.73
790.308	23.95
790.613	23.97
790.918	23.68
791.223	26.96
791.527	25.3
791.832	24.41
792.137	22.77
792.441	26.36
792.746	27.89
793.05	27.59
793.355	30.56
793.659	22.69
793.963	22.55
794.268	26.72
794.572	25.78
794.876	25.48
795.18	28.47
795.484	24.43
795.788	26.19
796.092	27.97
796.396	21.13
796.7	26.53
797.004	26.94
797.307	24.44
797.611	23.2
797.915	26.72
798.218	23.39
798.522	29.26
798.825	27.12
799.128	31.33
799.432	25.18
799.735	25.22
800.038	23.89
800.341	27.13
800.644	28.76
800.947	23.81
801.25	25.37
801.553	23.23
801.856	29.24
802.159	28.31
802.462	30.79
802.764	27.59
803.067	29.08
803.37	28.17
803.672	26.5
803.975	25.83
804.277	22.63
804.579	25.48
804.882	24.59
805.184	27.59
805.486	25.77
805.788	26.65
806.09	22.82
806.392	26.48
806.694	26.4
806.996	27.88
807.298	31.6
807.6	24.86
807.902	24.64
808.203	27.96
808.505	23.88
808.807	20.06
809.108	23.3
809.409	28.89
809.711	31.78
810.012	23.12
810.313	27.86
810.615	26.15
810.916	27.83
811.217	26.76
811.518	22.68
811.819	31.07
812.12	27.63
812.421	27.53
812.722	31.15
813.023	27.29
813.323	25.28
813.624	31.64
813.925	24.6
814.225	24.08
814.526	28.32
814.826	28.65
815.126	31.03
815.427	28.39
815.727	21.68
816.027	23.66
816.327	23.22
816.627	25.07
816.927	31.58
817.227	32.18
817.527	20.98
817.827	31.56
818.127	26.46
818.427	24.43
818.727	26.28
819.026	28.77
819.326	31.73
819.625	21.3
819.925	26.49
820.224	32.76
820.524	27.14
820.823	20.64
821.122	26.32
821.421	28.72
821.72	24.3
822.019	30.9
822.318	27.93
822.617	26.72
822.916	29.85
823.215	24.82
823.514	24.14
823.813	25.95
824.111	29.21
824.41	30.9
824.709	26.34
825.007	28.94
825.306	29.03
825.604	28.62
825.902	27.39
826.201	27.93
826.499	27.65
826.797	27.67
827.095	28.09
827.393	26.1
827.691	26.83
827.989	26.35
828.287	28.08
828.585	26.92
828.882	29.71
829.18	27.97
829.478	28.23
829.775	29.29
830.073	27.45
830.37	29.57
830.668	27.22
830.965	31.16
831.263	26.49
831.56	28.95
831.857	29.18
832.154	26.3
832.451	27.51
832.748	27.24
833.045	25.24
833.342	28.98
833.639	34.8
833.936	28.96
834.232	34.91
834.529	26.77
834.826	27.01
835.122	28.27
835.419	27.24
835.715	31.13
836.012	25.91
836.308	29.07
836.604	30.06
836.901	32.05
837.197	26.11
837.493	33.05
837.789	31.26
838.085	31.88
838.381	27.15
838.677	24.76
838.972	27.31
839.268	28.65
839.564	20.46
839.86	31.67
840.155	27.68
840.451	31.3
840.746	28.45
841.042	34.91
841.337	24.09
841.632	35.4
841.928	14.94
842.223	36.19
842.518	33.33
842.813	28.65
843.108	38.58
843.403	17.87
843.698	31.79
843.993	26.36
844.287	18
844.582	34.13
844.877	29.51
845.171	18.61
845.466	29.75
845.761	28.06
846.055	31.5
846.349	27.33
846.644	24.64
846.938	43.76
847.232	23.39
847.526	47.09
847.82	21.5
848.114	23.83
848.408	39.94
848.702	27.84
848.996	36.44
849.29	34.14
849.584	53.95
849.877	25.11
850.171	36.89
850.465	22.79
850.758	21.99
851.052	44.91
851.345	-2.59
851.638	28.49
851.932	39.17
852.225	27.95
852.518	38.4
852.811	34.94
853.104	21.82
853.397	53.75
853.69	7.2
853.983	29.97
854.276	43.65
854.569	44.04
854.861	41.68
855.154	13.33
855.447	23.82
855.739	44.01
856.032	34.2
856.324	32.6
856.616	31.28
856.909	23.55
857.201	23.3
857.493	24.57
857.785	35.65
858.077	30.52
858.369	21.1
858.661	33.01
858.953	21.98
859.245	39.71
859.537	35.29
859.829	37.12
860.12	46.4
860.412	69.08
860.703	33.83
860.995	44.86
861.286	13.65
861.578	32.48
861.869	52.55
862.16	32.37
862.452	25.71
862.743	32.34
863.034	39.11
863.325	29.14
863.616	34.78
863.907	14.47
864.198	26.25
864.488	18.2
864.779	34.08
865.07	45
865.36	39.55
865.651	30.53
865.941	62.7
866.232	21.76
866.522	17.63
866.813	41.49
867.103	28.04
867.393	35.54
867.683	30.08
867.973	28.41
868.263	-15.23
868.553	32.88
868.843	36.88
869.133	37
869.423	29.02
869.713	26.21
870.002	35.23
870.292	24.83
870.582	49.81
870.871	40.93
871.161	52.44
871.45	2.76
871.739	6.17
872.029	29.49
872.318	35.68
872.607	38.44
872.896	50.35
873.185	33.18
873.474	36.49
873.763	66.32
874.052	65.51
874.341	29.38
874.63	53.75
874.918	41.01
875.207	20.53
875.496	48.21
875.784	-6.33
876.073	28.91
876.361	30.67
876.649	28.83
876.938	54.87
877.226	21.19
877.514	58.22
877.802	92.7
878.09	57.3
878.378	43.32
878.666	35.66
878.954	39.38
879.242	36.41
879.53	43.51
879.817	5.73
880.105	58.15
880.392	36.02
880.68	24.46
880.967	30.6
881.255	37.18
881.542	30.07
881.83	52.14
882.117	40.42
882.404	14.1
882.691	15.36
882.978	18.6
883.265	44.8
883.552	23.45
883.839	27.22
884.126	29.32
884.413	47.43
884.699	21.86
884.986	30.53
885.273	32.74
885.559	32.74
885.846	32.74
