Data from 2019-4_forehead_Reflection__4__204.txt Node

Date: Fri Nov 11 18:31:08 CST 2022
User: ToomeyLab
Spectrometer: FLMS14357
Trigger mode: 0
Integration Time (sec): 1.000000E-2
Scans to average: 100
Electric dark correction enabled: true
Nonlinearity correction enabled: false
Boxcar width: 0
XAxis mode: Wavelengths
Number of Pixels in Spectrum: 2048
>>>>>Begin Spectral Data<<<<<
189.047	197.55
189.435	197.55
189.823	197.55
190.211	3.38
190.599	-9.08
190.987	86.74
191.375	-421.07
191.763	31.28
192.151	-150
192.538	247.89
192.926	90.25
193.314	-128.49
193.702	-345.39
194.089	49.14
194.477	145.02
194.864	55.07
195.252	41.57
195.639	171.84
196.027	-5.75
196.414	-148.16
196.801	27.33
197.189	4.08
197.576	298.84
197.963	-13.21
198.351	-1.17
198.738	-10.06
199.125	32.44
199.512	-10.54
199.899	3.53
200.286	-85.16
200.673	-39.06
201.06	-12.93
201.447	51.36
201.833	79
202.22	24.24
202.607	30.23
202.994	33.98
203.38	-6.4
203.767	11.71
204.154	15.31
204.54	1.55
204.927	34.95
205.313	25.81
205.699	7.51
206.086	-9.03
206.472	-25.48
206.858	-6.29
207.245	19.21
207.631	-13.18
208.017	3.93
208.403	17.59
208.789	61.49
209.175	-58.13
209.561	-33.25
209.947	-3.55
210.333	45.72
210.719	35.59
211.105	25.94
211.491	6.23
211.876	-14.04
212.262	1.82
212.648	24.47
213.034	-2.86
213.419	-13.31
213.805	6.71
214.19	4.85
214.576	-6.47
214.961	11.98
215.346	-8.27
215.732	8.94
216.117	42.99
216.502	36.19
216.888	-22.99
217.273	25.73
217.658	-7.31
218.043	20.47
218.428	24.43
218.813	16.93
219.198	7.58
219.583	7.57
219.968	-14.58
220.353	0.38
220.738	7.16
221.122	-15.86
221.507	27.95
221.892	17.88
222.276	10.79
222.661	14.87
223.046	11.29
223.43	22.29
223.815	-2.44
224.199	-7.98
224.583	22.6
224.968	8.07
225.352	4.28
225.736	9.6
226.121	8.82
226.505	-0.21
226.889	1.97
227.273	8.94
227.657	-0.35
228.041	4.18
228.425	0.08
228.809	2.11
229.193	5.67
229.577	4.26
229.961	3.29
230.344	3.1
230.728	3.71
231.112	3.89
231.495	4.79
231.879	3.4
232.263	4.64
232.646	3.52
233.03	3.11
233.413	3.62
233.797	4.46
234.18	1.81
234.563	4.22
234.946	1.04
235.33	4.64
235.713	1.49
236.096	4.19
236.479	2.25
236.862	2.89
237.245	4.71
237.628	3.71
238.011	3.63
238.394	2.32
238.777	3.42
239.16	3.12
239.543	4.01
239.925	2.59
240.308	4.57
240.691	4.22
241.073	4.18
241.456	3.34
241.838	3.68
242.221	4.19
242.603	3.08
242.986	3.71
243.368	4.14
243.75	4.01
244.133	3.8
244.515	4.19
244.897	4.23
245.279	3.56
245.661	3.27
246.043	3.01
246.425	3.19
246.807	4.56
247.189	3.93
247.571	3.97
247.953	3.64
248.335	3.83
248.717	3.86
249.098	3.78
249.48	3.59
249.862	3.8
250.243	3.56
250.625	3.52
251.006	3.12
251.388	3.7
251.769	3.69
252.151	3.96
252.532	4.03
252.913	4.12
253.295	3
253.676	4.17
254.057	3.6
254.438	3.55
254.819	2.88
255.2	4.92
255.581	3.49
255.962	3.57
256.343	2.76
256.724	2.64
257.105	2.85
257.486	2.93
257.867	4.12
258.247	4.02
258.628	4.1
259.009	2.82
259.389	3.91
259.77	4.1
260.15	3.65
260.531	4.01
260.911	3.63
261.292	3.66
261.672	3.76
262.052	3.56
262.432	3.38
262.813	3.72
263.193	3.83
263.573	4.22
263.953	3.56
264.333	3.58
264.713	3.73
265.093	3.59
265.473	3.96
265.853	3.42
266.233	3.96
266.612	3.35
266.992	3.36
267.372	4.58
267.752	3.46
268.131	3.59
268.511	3.75
268.89	3.84
269.27	3.15
269.649	3.58
270.029	2.98
270.408	3.35
270.787	4
271.167	3.68
271.546	3.67
271.925	3.75
272.304	3.72
272.683	3.3
273.062	3.39
273.441	3.12
273.82	3.72
274.199	3.13
274.578	3.33
274.957	3.75
275.336	3.17
275.715	3.29
276.093	3.36
276.472	3.41
276.851	3.54
277.229	3.66
277.608	3.41
277.986	3.61
278.365	3.05
278.743	3.54
279.122	4.36
279.5	3.51
279.878	3.47
280.257	2.82
280.635	3.42
281.013	3.31
281.391	3.77
281.769	3.07
282.147	3.81
282.525	3.47
282.903	3.78
283.281	3.81
283.659	3.51
284.037	3.76
284.415	3.62
284.792	3.87
285.17	3.75
285.548	3.28
285.925	3.29
286.303	3.41
286.68	3.25
287.058	3.68
287.435	3.44
287.813	3.79
288.19	3.46
288.567	2.91
288.945	3.21
289.322	3.74
289.699	3.4
290.076	3.39
290.453	3.73
290.83	3.19
291.207	3.57
291.584	4.06
291.961	3.34
292.338	3.54
292.715	3.74
293.092	3.52
293.469	3.77
293.845	3.8
294.222	4.09
294.599	4.21
294.975	3.22
295.352	4.02
295.728	4.01
296.105	3.69
296.481	4.41
296.858	4.1
297.234	4.19
297.61	3.99
297.986	4.36
298.363	3.94
298.739	4.37
299.115	4.52
299.491	4.32
299.867	4.37
300.243	4.09
300.619	4.14
300.995	4.47
301.371	5.01
301.746	4.09
302.122	4.34
302.498	4.55
302.874	4.48
303.249	4.5
303.625	4.48
304	4.55
304.376	4.34
304.751	5.2
305.127	4.8
305.502	4.35
305.878	4.85
306.253	5.15
306.628	4.81
307.003	5.16
307.378	4.44
307.754	4.32
308.129	5.06
308.504	4.6
308.879	5.45
309.254	4.82
309.629	4.96
310.003	5.44
310.378	5.09
310.753	4.96
311.128	5.28
311.502	4.93
311.877	5.2
312.252	5.53
312.626	5.26
313.001	5.56
313.375	5.05
313.75	5.61
314.124	5.23
314.498	5.29
314.873	5.41
315.247	5.31
315.621	5.82
315.995	5.63
316.369	5.56
316.743	5.28
317.117	5.72
317.491	5.72
317.865	6.14
318.239	6.55
318.613	6.34
318.987	5.39
319.361	6.34
319.734	6.19
320.108	5.77
320.482	6.32
320.855	5.62
321.229	5.58
321.602	6.36
321.976	6.47
322.349	6.83
322.723	6.93
323.096	6.4
323.469	6.54
323.843	6.53
324.216	6.39
324.589	6.88
324.962	5.82
325.335	5.92
325.708	6.34
326.081	6.54
326.454	6.84
326.827	6.52
327.2	7.03
327.573	6.83
327.945	7
328.318	6.9
328.691	6.76
329.063	6.32
329.436	6.44
329.809	6.66
330.181	7.11
330.553	6.67
330.926	7.14
331.298	6.77
331.671	6.86
332.043	7.37
332.415	6.31
332.787	6.69
333.159	6.58
333.532	6.88
333.904	7.29
334.276	7.54
334.648	6.76
335.02	7.29
335.391	7.28
335.763	7.25
336.135	7.69
336.507	7.46
336.879	7.35
337.25	6.9
337.622	7.51
337.993	7.61
338.365	7.77
338.736	7.36
339.108	7.62
339.479	7.46
339.851	7.41
340.222	7.14
340.593	7.68
340.964	7.98
341.336	7.19
341.707	7.64
342.078	7.48
342.449	7.75
342.82	7.78
343.191	7.66
343.562	8.07
343.933	7.23
344.303	7.77
344.674	7.85
345.045	7.65
345.416	7.95
345.786	7.94
346.157	7.66
346.527	8.03
346.898	7.84
347.268	7.9
347.639	8.25
348.009	7.75
348.38	8.08
348.75	8.05
349.12	7.83
349.49	7.97
349.861	7.94
350.231	8.08
350.601	8.22
350.971	8.29
351.341	8.22
351.711	8.17
352.081	8.06
352.45	7.94
352.82	8.26
353.19	8.54
353.56	8.77
353.929	8.34
354.299	8
354.669	8.15
355.038	8.76
355.408	7.91
355.777	8.4
356.147	8.32
356.516	8.09
356.885	8.39
357.254	8.6
357.624	8.43
357.993	8.38
358.362	8.69
358.731	8.24
359.1	8.57
359.469	8.51
359.838	8.65
360.207	8.89
360.576	8.56
360.945	8.5
361.314	8.91
361.682	8.59
362.051	8.86
362.42	8.53
362.788	8.63
363.157	8.55
363.525	8.66
363.894	8.56
364.262	8.48
364.631	8.74
364.999	8.52
365.367	8.73
365.735	9.03
366.104	8.57
366.472	8.97
366.84	8.83
367.208	8.79
367.576	8.74
367.944	8.85
368.312	8.54
368.68	9.04
369.048	8.88
369.416	9.02
369.783	9.29
370.151	8.72
370.519	8.89
370.886	8.88
371.254	8.8
371.621	9.28
371.989	9.21
372.356	8.98
372.724	9.06
373.091	9.24
373.458	9.05
373.826	9.4
374.193	9.09
374.56	9.1
374.927	9.21
375.294	9.22
375.661	9.46
376.028	9.35
376.395	9.33
376.762	9.48
377.129	9.19
377.496	9.67
377.863	9.09
378.229	9.5
378.596	9.46
378.963	9.58
379.329	9.51
379.696	9.61
380.062	9.47
380.429	9.22
380.795	9.42
381.161	9.7
381.528	10
381.894	9.47
382.26	9.34
382.626	9.58
382.993	9.5
383.359	9.98
383.725	9.83
384.091	9.87
384.457	9.8
384.823	9.49
385.188	9.88
385.554	9.89
385.92	10.17
386.286	10.06
386.651	9.98
387.017	9.95
387.383	9.76
387.748	9.71
388.114	10.05
388.479	9.77
388.845	10.03
389.21	9.78
389.575	9.89
389.94	9.93
390.306	10.25
390.671	10.04
391.036	9.88
391.401	10.36
391.766	10.14
392.131	10.18
392.496	9.9
392.861	10
393.226	10.27
393.591	10.27
393.956	10.24
394.32	10.35
394.685	10.14
395.05	10.28
395.414	10.43
395.779	10.05
396.143	10.27
396.508	10.23
396.872	10.08
397.236	10.24
397.601	10.21
397.965	10.17
398.329	10.35
398.694	10.71
399.058	10.35
399.422	10.44
399.786	10.71
400.15	10.71
400.514	10.4
400.878	10.14
401.242	10.35
401.605	10.25
401.969	10.53
402.333	10.43
402.697	10.74
403.06	10.52
403.424	10.59
403.787	10.61
404.151	10.33
404.514	10.64
404.878	10.43
405.241	10.59
405.604	10.43
405.968	10.7
406.331	10.34
406.694	10.63
407.057	10.61
407.42	10.45
407.783	10.46
408.146	10.64
408.509	10.72
408.872	10.74
409.235	10.78
409.598	10.85
409.961	11.08
410.323	10.95
410.686	10.97
411.049	10.88
411.411	10.99
411.774	10.87
412.136	10.92
412.499	11
412.861	10.85
413.223	10.79
413.586	10.71
413.948	10.87
414.31	11.12
414.672	10.78
415.035	11.1
415.397	11.21
415.759	11.22
416.121	11.33
416.483	11.21
416.845	11.02
417.206	11.16
417.568	11.2
417.93	10.94
418.292	10.97
418.653	11.12
419.015	11.22
419.377	11.04
419.738	11.07
420.1	11.06
420.461	11.27
420.822	11.11
421.184	10.95
421.545	11.09
421.906	10.96
422.267	11.05
422.629	10.95
422.99	11.03
423.351	10.98
423.712	10.99
424.073	11
424.434	11.18
424.795	11.13
425.155	11.21
425.516	11.03
425.877	11.07
426.238	11.07
426.598	11.16
426.959	11.24
427.32	11.23
427.68	11.39
428.041	11.39
428.401	11.49
428.761	11.47
429.122	11.39
429.482	11.68
429.842	11.49
430.202	11.71
430.563	11.76
430.923	11.7
431.283	11.68
431.643	11.73
432.003	11.87
432.363	11.57
432.722	11.64
433.082	11.91
433.442	11.85
433.802	11.68
434.161	11.79
434.521	11.59
434.881	11.7
435.24	11.73
435.6	11.83
435.959	11.76
436.319	11.83
436.678	11.96
437.037	11.85
437.396	12.07
437.756	11.84
438.115	11.83
438.474	12.03
438.833	12.14
439.192	11.87
439.551	11.83
439.91	11.93
440.269	12.03
440.628	12.05
440.987	11.99
441.345	11.91
441.704	11.99
442.063	12.05
442.421	11.99
442.78	11.94
443.138	12.04
443.497	11.91
443.855	12.16
444.214	12.19
444.572	12.34
444.93	12.23
445.288	12.06
445.647	12.11
446.005	12.3
446.363	12.23
446.721	12.2
447.079	12.06
447.437	12.13
447.795	12.05
448.153	12.12
448.51	12.11
448.868	12.16
449.226	12.18
449.584	12.23
449.941	12.27
450.299	12.42
450.656	12.47
451.014	12.46
451.371	12.52
451.729	12.33
452.086	12.54
452.443	12.66
452.801	12.46
453.158	12.58
453.515	12.71
453.872	12.58
454.229	12.49
454.586	12.59
454.943	12.66
455.3	12.8
455.657	12.58
456.014	12.79
456.371	12.68
456.727	12.69
457.084	12.92
457.441	12.93
457.797	12.88
458.154	12.83
458.51	12.89
458.867	12.93
459.223	12.77
459.58	12.95
459.936	12.74
460.292	12.77
460.648	12.68
461.005	13.05
461.361	12.59
461.717	12.59
462.073	12.59
462.429	12.57
462.785	12.97
463.141	12.97
463.496	12.85
463.852	13.12
464.208	13.05
464.564	13.28
464.919	13.13
465.275	13.11
465.631	13.2
465.986	13.07
466.342	13.27
466.697	13.11
467.052	13.24
467.408	13.37
467.763	13.2
468.118	13.42
468.473	13.27
468.829	12.95
469.184	13.24
469.539	13.34
469.894	13.25
470.249	13.33
470.603	13.44
470.958	13.44
471.313	13.32
471.668	13.5
472.023	13.39
472.377	13.38
472.732	13.58
473.086	13.59
473.441	13.59
473.795	13.53
474.15	13.47
474.504	13.61
474.859	13.54
475.213	13.38
475.567	13.72
475.921	13.58
476.275	13.73
476.63	13.62
476.984	13.67
477.338	13.7
477.692	13.82
478.045	13.55
478.399	13.58
478.753	13.71
479.107	13.82
479.461	13.73
479.814	13.67
480.168	13.71
480.521	13.61
480.875	13.62
481.228	13.89
481.582	13.87
481.935	13.75
482.289	13.73
482.642	13.78
482.995	13.68
483.348	13.6
483.701	13.56
484.055	13.63
484.408	13.39
484.761	13.41
485.114	13.08
485.466	13.01
485.819	13.01
486.172	13.07
486.525	13.28
486.878	13.34
487.23	13.46
487.583	13.57
487.936	13.67
488.288	13.56
488.641	13.47
488.993	13.33
489.345	13.38
489.698	13.37
490.05	13.48
490.402	13.38
490.754	13.68
491.107	13.76
491.459	13.89
491.811	13.92
492.163	13.97
492.515	13.94
492.866	13.67
493.218	13.53
493.57	13.57
493.922	13.68
494.274	13.78
494.625	13.95
494.977	14.02
495.328	14.28
495.68	14.32
496.031	14.31
496.383	14.43
496.734	14.45
497.086	14.34
497.437	14.45
497.788	14.35
498.139	14.37
498.49	14.34
498.842	14.34
499.193	14.29
499.544	14.28
499.894	14.3
500.245	14.45
500.596	14.5
500.947	14.55
501.298	14.5
501.648	14.66
501.999	14.7
502.35	14.62
502.7	14.58
503.051	14.63
503.401	14.59
503.752	14.56
504.102	14.66
504.452	14.68
504.803	14.7
505.153	14.74
505.503	14.77
505.853	14.82
506.203	14.87
506.553	14.84
506.903	14.81
507.253	14.87
507.603	14.69
507.953	15.07
508.303	14.81
508.652	15.07
509.002	14.88
509.352	14.94
509.701	14.86
510.051	14.75
510.4	14.89
510.75	14.92
511.099	14.85
511.449	14.86
511.798	14.88
512.147	14.95
512.496	14.95
512.846	15.05
513.195	15.01
513.544	14.99
513.893	14.86
514.242	14.95
514.591	14.92
514.939	15
515.288	15.13
515.637	15.09
515.986	15.28
516.334	15.26
516.683	15.22
517.032	15.28
517.38	15.26
517.729	15.2
518.077	15.3
518.426	15.23
518.774	15.22
519.122	15.22
519.47	15.09
519.819	14.99
520.167	14.95
520.515	15.02
520.863	15.08
521.211	15.09
521.559	15.04
521.907	15.25
522.255	15.27
522.602	15.38
522.95	15.46
523.298	15.44
523.645	15.49
523.993	15.62
524.341	15.54
524.688	15.5
525.036	15.6
525.383	15.6
525.73	15.55
526.078	15.67
526.425	15.53
526.772	15.45
527.119	15.22
527.466	15.22
527.814	15.1
528.161	15.25
528.508	15.32
528.854	15.32
529.201	15.38
529.548	15.19
529.895	14.85
530.242	14.89
530.588	14.81
530.935	14.96
531.282	15.08
531.628	15.16
531.975	15.26
532.321	15.36
532.667	15.48
533.014	15.47
533.36	15.7
533.706	15.55
534.052	15.57
534.399	15.51
534.745	15.35
535.091	15.21
535.437	15.28
535.783	15.46
536.129	15.6
536.474	15.67
536.82	15.81
537.166	15.8
537.512	15.86
537.857	15.81
538.203	15.66
538.549	15.64
538.894	15.7
539.239	15.67
539.585	15.94
539.93	15.98
540.276	16.07
540.621	16.19
540.966	16.2
541.311	16.09
541.656	16.05
542.001	16.05
542.346	15.89
542.691	15.68
543.036	15.53
543.381	15.49
543.726	15.56
544.071	15.74
544.415	15.87
544.76	15.84
545.105	15.81
545.449	15.85
545.794	16.1
546.138	16.21
546.483	16.2
546.827	16.21
547.171	16.29
547.516	16.06
547.86	16.15
548.204	16.24
548.548	16.22
548.892	16.19
549.236	16.27
549.58	16.52
549.924	16.49
550.268	16.46
550.612	16.64
550.956	16.74
551.3	16.55
551.643	16.63
551.987	16.51
552.33	16.88
552.674	16.86
553.017	16.88
553.361	16.66
553.704	16.86
554.048	16.61
554.391	16.6
554.734	16.76
555.077	16.72
555.42	16.88
555.764	16.84
556.107	16.8
556.45	16.8
556.793	16.91
557.135	17.12
557.478	16.85
557.821	16.97
558.164	17.06
558.507	17
558.849	16.86
559.192	17.06
559.534	16.98
559.877	17.04
560.219	17.02
560.562	17.06
560.904	17.21
561.246	17.16
561.589	17.2
561.931	17.1
562.273	17.2
562.615	17.11
562.957	17.24
563.299	16.97
563.641	17.18
563.983	17.05
564.325	17.08
564.667	17.21
565.008	17.21
565.35	17.32
565.692	17.24
566.033	17.47
566.375	17.25
566.716	17.16
567.058	17.23
567.399	17.32
567.741	17.19
568.082	17.16
568.423	17.23
568.764	17.09
569.105	17.45
569.447	17.31
569.788	17.37
570.129	17.55
570.47	17.59
570.811	17.39
571.151	17.4
571.492	17.3
571.833	17.46
572.174	17.33
572.514	17.54
572.855	17.59
573.195	17.31
573.536	17.46
573.876	17.5
574.217	17.39
574.557	17.47
574.898	17.72
575.238	17.65
575.578	17.59
575.918	17.43
576.258	17.68
576.598	17.84
576.938	17.62
577.278	17.58
577.618	17.61
577.958	17.69
578.298	17.84
578.638	17.71
578.977	17.81
579.317	17.86
579.657	17.85
579.996	17.97
580.336	17.91
580.675	17.85
581.014	17.99
581.354	18.03
581.693	17.8
582.032	17.91
582.372	17.81
582.711	17.89
583.05	17.88
583.389	17.99
583.728	18.3
584.067	18.29
584.406	17.9
584.745	18.42
585.083	17.9
585.422	18.07
585.761	18.13
586.1	18.06
586.438	18.17
586.777	18.15
587.115	18.43
587.454	18.23
587.792	18.29
588.13	18.22
588.469	18.21
588.807	18.2
589.145	18.43
589.483	18.27
589.821	18.46
590.159	18.13
590.497	18.03
590.835	18.37
591.173	18.03
591.511	18.46
591.849	18.28
592.187	18.35
592.524	18.39
592.862	18.37
593.2	18.52
593.537	18.35
593.875	18.55
594.212	18.51
594.55	18.66
594.887	18.65
595.224	18.51
595.561	18.57
595.899	18.28
596.236	18.24
596.573	18.3
596.91	18.55
597.247	18.37
597.584	18.54
597.921	18.56
598.258	18.51
598.594	18.37
598.931	18.39
599.268	18.47
599.604	18.39
599.941	18.71
600.277	18.86
600.614	18.59
600.95	18.68
601.287	18.43
601.623	18.7
601.959	18.83
602.296	18.85
602.632	18.81
602.968	18.66
603.304	18.7
603.64	18.98
603.976	18.89
604.312	18.61
604.648	18.89
604.984	18.46
605.319	18.74
605.655	18.58
605.991	18.66
606.326	18.73
606.662	18.68
606.998	18.55
607.333	18.86
607.668	18.89
608.004	18.9
608.339	18.93
608.674	19.01
609.01	18.86
609.345	19.1
609.68	19.03
610.015	18.92
610.35	18.93
610.685	18.88
611.02	18.83
611.355	18.82
611.689	18.84
612.024	18.85
612.359	19.03
612.694	19.08
613.028	18.94
613.363	19.03
613.697	18.89
614.032	19.04
614.366	19.26
614.7	19.41
615.035	19.3
615.369	19.35
615.703	19.12
616.037	19.23
616.371	19.42
616.705	19.33
617.039	19.34
617.373	19.42
617.707	19.89
618.041	19.46
618.375	19.55
618.709	18.97
619.042	19.25
619.376	19.4
619.71	19.4
620.043	19.37
620.377	19.42
620.71	19.6
621.043	19.58
621.377	19.63
621.71	19.08
622.043	19.56
622.376	19.61
622.709	19.44
623.043	19.72
623.376	19.66
623.709	19.33
624.041	19.9
624.374	19.95
624.707	19.57
625.04	19.72
625.373	19.41
625.705	19.33
626.038	19.85
626.37	19.4
626.703	19.76
627.035	19.53
627.368	19.58
627.7	19.64
628.032	19.5
628.365	19.47
628.697	19.56
629.029	19.62
629.361	19.64
629.693	19.74
630.025	19.98
630.357	19.73
630.689	19.92
631.021	19.74
631.353	20.08
631.684	19.91
632.016	19.83
632.348	19.68
632.679	19.72
633.011	19.79
633.342	20.04
633.674	19.69
634.005	19.62
634.336	20.17
634.668	20.17
634.999	19.82
635.33	19.94
635.661	19.95
635.992	20.28
636.323	20.24
636.654	20.08
636.985	20.12
637.316	19.82
637.647	20.36
637.977	20.23
638.308	20.06
638.639	20.08
638.969	20.33
639.3	20.5
639.63	19.82
639.961	20.33
640.291	20.25
640.622	20.07
640.952	20.35
641.282	20.55
641.612	20.44
641.943	20.48
642.273	20.22
642.603	20.38
642.933	20.25
643.263	20.05
643.592	20.27
643.922	20
644.252	20.59
644.582	20.3
644.911	20.09
645.241	20.17
645.571	20.44
645.9	20.11
646.23	20.81
646.559	19.94
646.888	20.59
647.218	20.53
647.547	20.69
647.876	20.71
648.205	20.72
648.534	20.27
648.863	20.29
649.192	20.95
649.521	20.51
649.85	20.81
650.179	20.73
650.508	21.02
650.837	20.26
651.165	20.31
651.494	20.74
651.822	20.61
652.151	20.75
652.479	20.76
652.808	20.88
653.136	20.22
653.465	20.84
653.793	20.96
654.121	20.55
654.449	20.76
654.777	20.73
655.105	20.95
655.433	21.07
655.761	20.81
656.089	20.45
656.417	21.05
656.745	20.58
657.073	20.9
657.4	21
657.728	21.22
658.056	20.62
658.383	20.56
658.711	20.33
659.038	21.14
659.365	21.39
659.693	21.1
660.02	20.8
660.347	21.16
660.674	20.69
661.001	20.73
661.329	20.92
661.656	20.55
661.982	20.96
662.309	21.02
662.636	21.46
662.963	21.27
663.29	20.96
663.616	21.24
663.943	21.15
664.27	21.33
664.596	20.9
664.923	20.57
665.249	20.74
665.576	21.35
665.902	21.24
666.228	20.27
666.554	21.28
666.881	20.85
667.207	21.27
667.533	21.25
667.859	20.95
668.185	20.72
668.511	21
668.837	21.3
669.162	21.33
669.488	21.28
669.814	20.85
670.139	21.35
670.465	21.1
670.791	21.26
671.116	21.39
671.442	21.68
671.767	21.54
672.092	20.18
672.418	20.85
672.743	21.26
673.068	22.38
673.393	20.65
673.718	21.38
674.043	21.02
674.368	21.74
674.693	21.54
675.018	21.35
675.343	20.93
675.667	21.26
675.992	21.65
676.317	21.05
676.641	21.09
676.966	21.12
677.29	21.42
677.615	21.44
677.939	21.21
678.264	21.74
678.588	21.99
678.912	21.34
679.236	21.43
679.56	21.81
679.885	21.83
680.209	21.29
680.532	20.96
680.856	21.53
681.18	21.68
681.504	22.02
681.828	21.48
682.152	21.53
682.475	21.54
682.799	21.73
683.122	21.71
683.446	22.21
683.769	21.89
684.093	21.31
684.416	22.19
684.739	22.18
685.062	21.81
685.386	21.36
685.709	22.44
686.032	22.01
686.355	21.96
686.678	21.72
687.001	21.3
687.324	22.1
687.646	22.31
687.969	22.43
688.292	22.15
688.614	22.14
688.937	21.71
689.26	21.88
689.582	22.31
689.904	21.89
690.227	22.04
690.549	22.2
690.871	22.03
691.194	22.06
691.516	21.61
691.838	21.39
692.16	20.9
692.482	21.6
692.804	22.1
693.126	21.94
693.448	21.57
693.769	22.5
694.091	21.95
694.413	22.06
694.735	22.04
695.056	21.78
695.378	22.18
695.699	23
696.021	22.44
696.342	22.28
696.663	21.44
696.984	22.34
697.306	22.14
697.627	22.47
697.948	22.23
698.269	22.01
698.59	22.56
698.911	22.46
699.232	22.57
699.553	22.8
699.873	21.98
700.194	21.73
700.515	22.26
700.835	22.02
701.156	22.36
701.477	22.04
701.797	22.3
702.117	22.57
702.438	22.54
702.758	23.12
703.078	22.95
703.398	22.19
703.719	21.9
704.039	22.81
704.359	22.95
704.679	22.68
704.999	23.04
705.319	23.36
705.638	22.48
705.958	23.04
706.278	22.13
706.597	22.71
706.917	23.37
707.237	22.73
707.556	21.72
707.876	23.08
708.195	23.38
708.514	22.14
708.834	22.98
709.153	21.69
709.472	22.37
709.791	22.04
710.11	21.94
710.429	22.53
710.748	22.48
711.067	23.09
711.386	24.19
711.705	22.68
712.023	23.31
712.342	22.46
712.661	22.89
712.979	23.69
713.298	23.57
713.616	22.4
713.935	22.39
714.253	22.42
714.572	22.69
714.89	22.88
715.208	23.81
715.526	22.52
715.844	22.44
716.162	23.17
716.48	23.17
716.798	22.74
717.116	21.68
717.434	22.72
717.752	22.87
718.069	22.68
718.387	23.07
718.705	23.22
719.022	22.92
719.34	23.35
719.657	23.16
719.975	23.23
720.292	22.73
720.609	23.31
720.927	23.28
721.244	23.74
721.561	23.06
721.878	22.63
722.195	23.04
722.512	22.56
722.829	23.29
723.146	23.38
723.463	24.21
723.779	23.41
724.096	23.71
724.413	22.65
724.729	23.18
725.046	22.78
725.362	23.83
725.679	23.99
725.995	23.24
726.311	22.78
726.628	22.61
726.944	24.23
727.26	23.86
727.576	23.79
727.892	22.83
728.208	22.79
728.524	22.96
728.84	23.89
729.156	22.98
729.472	23.65
729.787	23.07
730.103	23.51
730.419	23.45
730.734	23.19
731.05	23.45
731.365	22.22
731.681	23.18
731.996	22.82
732.311	24.07
732.626	22.27
732.942	23.56
733.257	24.78
733.572	23.39
733.887	23.14
734.202	23.22
734.517	23.37
734.832	24.08
735.146	23.56
735.461	23.92
735.776	24.26
736.091	22.8
736.405	22.17
736.72	24.14
737.034	23.92
737.349	23.8
737.663	25.01
737.977	24.5
738.292	23.52
738.606	23.09
738.92	23.48
739.234	23.59
739.548	24.47
739.862	23.24
740.176	23.88
740.49	24.41
740.804	24.22
741.117	23.27
741.431	25.21
741.745	24.51
742.058	24.08
742.372	22.81
742.685	23.88
742.999	23.53
743.312	23.27
743.626	23.97
743.939	23.8
744.252	23.57
744.565	23.62
744.878	22.82
745.191	22.88
745.505	22.99
745.817	23.54
746.13	24.85
746.443	23.11
746.756	23.11
747.069	24.68
747.381	23.85
747.694	25.34
748.007	24.32
748.319	23.97
748.632	22.81
748.944	24.95
749.256	23.84
749.569	24.12
749.881	21.68
750.193	22.49
750.505	24.04
750.817	24.18
751.129	22.51
751.441	23.5
751.753	25.65
752.065	23.96
752.377	25.09
752.689	23.82
753	23.38
753.312	22.9
753.624	25.09
753.935	23.98
754.247	24.47
754.558	23.83
754.869	24.37
755.181	24.08
755.492	23.95
755.803	24.53
756.114	24.64
756.425	25.37
756.736	23.97
757.047	26.12
757.358	24.61
757.669	24.28
757.98	23.37
758.291	23.9
758.601	23.98
758.912	25.83
759.223	24.38
759.533	25.66
759.844	24.91
760.154	25.17
760.464	25.18
760.775	22.5
761.085	23.28
761.395	24.17
761.705	26.58
762.016	22.39
762.326	23.07
762.636	24.67
762.945	24.71
763.255	23.52
763.565	22.5
763.875	22.67
764.185	23.26
764.494	23.53
764.804	23.25
765.113	23.06
765.423	24.66
765.732	24.57
766.042	23.82
766.351	24.57
766.66	25.64
766.97	24.7
767.279	25.23
767.588	25.27
767.897	23.95
768.206	23.9
768.515	24.96
768.824	25.38
769.133	23.92
769.441	25.75
769.75	25.9
770.059	23.69
770.367	25.3
770.676	25.47
770.984	24.68
771.293	22.94
771.601	24.26
771.91	23.08
772.218	24.29
772.526	24.9
772.834	24.1
773.142	24.92
773.45	23.74
773.758	26.14
774.066	26.92
774.374	23.46
774.682	26.47
774.99	23.38
775.298	28.57
775.605	24.47
775.913	24.11
776.22	26.67
776.528	27.52
776.835	25.68
777.143	20.84
777.45	25.78
777.757	25.01
778.065	20.22
778.372	22.76
778.679	23.73
778.986	22.51
779.293	26.03
779.6	26.12
779.907	25.54
780.214	26.24
780.52	27.06
780.827	25.57
781.134	27.54
781.44	26.4
781.747	23.62
782.053	29.41
782.36	24.25
782.666	28.58
782.973	25.49
783.279	25.58
783.585	25.42
783.891	24.19
784.197	28.02
784.503	26.33
784.809	25.44
785.115	22.82
785.421	24.41
785.727	25.39
786.033	24.68
786.339	23.03
786.644	26.35
786.95	25.54
787.255	26.61
787.561	25.85
787.866	25.55
788.172	23.77
788.477	23.46
788.782	23.3
789.088	23.3
789.393	27.84
789.698	25.22
790.003	23.54
790.308	25.21
790.613	25.73
790.918	23.35
791.223	25.72
791.527	27.16
791.832	28.39
792.137	26.44
792.441	23.33
792.746	24.89
793.05	28.47
793.355	21.33
793.659	26.4
793.963	24.35
794.268	27.17
794.572	29.29
794.876	28.66
795.18	27.96
795.484	19.84
795.788	25.07
796.092	24.88
796.396	24.81
796.7	27.15
797.004	27.36
797.307	24.71
797.611	25.12
797.915	27.46
798.218	23.32
798.522	25.18
798.825	23.64
799.128	26.35
799.432	25.7
799.735	27.05
800.038	24.33
800.341	26.89
800.644	26.41
800.947	26.36
801.25	28.59
801.553	26.24
801.856	23.92
802.159	22.3
802.462	23.59
802.764	25.64
803.067	28.31
803.37	27.73
803.672	19.68
803.975	26.72
804.277	25.37
804.579	25.06
804.882	26.1
805.184	24.96
805.486	20.17
805.788	27.16
806.09	24.01
806.392	30.69
806.694	25.6
806.996	22.32
807.298	21.69
807.6	25.8
807.902	28.64
808.203	23.21
808.505	28.1
808.807	28.3
809.108	30.07
809.409	29.03
809.711	29.63
810.012	26.07
810.313	27.35
810.615	24.75
810.916	24.71
811.217	23.9
811.518	23.84
811.819	27.5
812.12	28.64
812.421	26.51
812.722	26.18
813.023	26.54
813.323	20.94
813.624	25.55
813.925	23.31
814.225	27.64
814.526	27.13
814.826	24.3
815.126	22.54
815.427	21.64
815.727	25.82
816.027	27.57
816.327	26.6
816.627	24.93
816.927	26.35
817.227	30.4
817.527	30.28
817.827	29
818.127	24.52
818.427	20.11
818.727	26.33
819.026	25.3
819.326	22.65
819.625	28.81
819.925	25.14
820.224	23.68
820.524	30.35
820.823	35.64
821.122	23.59
821.421	22.82
821.72	24.55
822.019	28.33
822.318	25.88
822.617	25.86
822.916	24.19
823.215	25.76
823.514	25.25
823.813	30.11
824.111	26.91
824.41	24.97
824.709	25.62
825.007	26.31
825.306	26.49
825.604	27.1
825.902	26.09
826.201	28.11
826.499	27.28
826.797	27.06
827.095	27.04
827.393	28.1
827.691	28.66
827.989	26.98
828.287	27.14
828.585	27.43
828.882	26.45
829.18	29.16
829.478	27
829.775	26.56
830.073	27.83
830.37	25.95
830.668	28.39
830.965	26.89
831.263	25.7
831.56	24.62
831.857	26.83
832.154	29.77
832.451	24.97
832.748	24.91
833.045	26.43
833.342	25.85
833.639	27.46
833.936	19.34
834.232	24.55
834.529	27.21
834.826	19.23
835.122	22.05
835.419	25.92
835.715	28.29
836.012	27.3
836.308	26.68
836.604	24.13
836.901	26.49
837.197	26.1
837.493	24.81
837.789	24.79
838.085	26.91
838.381	26.48
838.677	22.48
838.972	30.9
839.268	29.68
839.564	25.09
839.86	16.25
840.155	27.57
840.451	23.06
840.746	34.05
841.042	22.83
841.337	23.17
841.632	25.02
841.928	30.72
842.223	27.85
842.518	33.2
842.813	24.11
843.108	25.06
843.403	15.73
843.698	29.16
843.993	28.14
844.287	30.64
844.582	33.04
844.877	19.78
845.171	32.66
845.466	23.23
845.761	24.37
846.055	18.66
846.349	24.8
846.644	23.43
846.938	19.02
847.232	31.58
847.526	32.93
847.82	21.91
848.114	27.08
848.408	35.08
848.702	47.38
848.996	13.7
849.29	31.01
849.584	14.27
849.877	27.22
850.171	37.1
850.465	37.23
850.758	32.12
851.052	22.17
851.345	14.15
851.638	22.12
851.932	37.62
852.225	16.81
852.518	13.78
852.811	34.72
853.104	32.54
853.397	11.35
853.69	19.83
853.983	22.28
854.276	44.81
854.569	20.15
854.861	7.49
855.154	-9.16
855.447	30.19
855.739	31.64
856.032	43.1
856.324	-7.72
856.616	36.34
856.909	28.54
857.201	10.88
857.493	42.15
857.785	19
858.077	25.81
858.369	-4.14
858.661	22.39
858.953	10
859.245	41.77
859.537	17.91
859.829	39.01
860.12	21.04
860.412	36.66
860.703	-4.91
860.995	46.47
861.286	27.98
861.578	17.42
861.869	44.12
862.16	45.85
862.452	37.56
862.743	19.35
863.034	31.88
863.325	8.03
863.616	16.11
863.907	21.21
864.198	28.61
864.488	25.61
864.779	20.38
865.07	39.12
865.36	22.93
865.651	34.32
865.941	25.34
866.232	42.16
866.522	46.37
866.813	13.48
867.103	37.7
867.393	25.3
867.683	4.09
867.973	38.38
868.263	32
868.553	27.66
868.843	29.68
869.133	7.3
869.423	13.15
869.713	4.29
870.002	37.75
870.292	31.61
870.582	29.71
870.871	2.45
871.161	26.18
871.45	22.34
871.739	31.58
872.029	38.7
872.318	24.89
872.607	8.15
872.896	47.46
873.185	27.82
873.474	28.18
873.763	37.68
874.052	16.45
874.341	34.49
874.63	41.31
874.918	46.53
875.207	11.48
875.496	3.64
875.784	28.66
876.073	-1.75
876.361	33.92
876.649	17.98
876.938	27.4
877.226	25.21
877.514	11.81
877.802	5.81
878.09	41.65
878.378	41.63
878.666	37.94
878.954	41.15
879.242	25.44
879.53	32
879.817	25.45
880.105	0.91
880.392	34.18
880.68	18.21
880.967	1.39
881.255	24.93
881.542	30.68
881.83	8.42
882.117	60.06
882.404	34.02
882.691	-14.41
882.978	9.62
883.265	32.69
883.552	28.34
883.839	28.79
884.126	26.55
884.413	22.32
884.699	40.33
884.986	29.26
885.273	27.09
885.559	27.09
885.846	27.09
