Data from 0099_chest_Reflection__4__176.txt Node

Date: Fri Sep 22 22:17:14 CDT 2023
User: ToomeyLab
Spectrometer: FLMS14357
Trigger mode: 0
Integration Time (sec): 1.000000E-2
Scans to average: 100
Electric dark correction enabled: true
Nonlinearity correction enabled: false
Boxcar width: 0
XAxis mode: Wavelengths
Number of Pixels in Spectrum: 2048
>>>>>Begin Spectral Data<<<<<
189.047	12.7
189.435	12.7
189.823	12.7
190.211	29.52
190.599	-3.02
190.987	22.68
191.375	313.9
191.763	102.11
192.151	133.18
192.538	-168.6
192.926	54.01
193.314	36.71
193.702	52.29
194.089	166.87
194.477	-409.83
194.864	538.29
195.252	99.14
195.639	66.17
196.027	96.59
196.414	25.93
196.801	69.89
197.189	-1059.64
197.576	97.07
197.963	-40.62
198.351	49.81
198.738	26.59
199.125	27.1
199.512	25.68
199.899	57.12
200.286	28.43
200.673	74.09
201.06	-4.02
201.447	62.13
201.833	-3.51
202.22	44.88
202.607	65.26
202.994	46.93
203.38	22.02
203.767	-0.38
204.154	44.16
204.54	50.15
204.927	41.49
205.313	14.32
205.699	51.23
206.086	38.7
206.472	48.65
206.858	54.98
207.245	-18.04
207.631	62.8
208.017	67.27
208.403	17.04
208.789	19.48
209.175	50.34
209.561	28.62
209.947	32.12
210.333	44.84
210.719	-6.2
211.105	58.81
211.491	52.11
211.876	39.33
212.262	35.4
212.648	37.37
213.034	33.54
213.419	16.72
213.805	12.5
214.19	27.27
214.576	28.98
214.961	25.49
215.346	24.31
215.732	31.79
216.117	19.45
216.502	53.6
216.888	44.01
217.273	28.46
217.658	16.71
218.043	47.14
218.428	36.61
218.813	22.91
219.198	8.53
219.583	34.83
219.968	-10.59
220.353	39.74
220.738	32.1
221.122	20.57
221.507	23.62
221.892	14.41
222.276	10.28
222.661	-5.05
223.046	15.41
223.43	21.61
223.815	8.79
224.199	-0.41
224.583	-0.41
224.968	18.13
225.352	6.29
225.736	9.21
226.121	1.77
226.505	6.55
226.889	18.26
227.273	2.86
227.657	7.19
228.041	8.8
228.425	7.07
228.809	5.8
229.193	5.81
229.577	6.61
229.961	5.59
230.344	5.58
230.728	2.91
231.112	3.16
231.495	3.31
231.879	4.07
232.263	3.54
232.646	3.31
233.03	4.93
233.413	4.75
233.797	3.22
234.18	1.99
234.563	7.66
234.946	4.13
235.33	2.84
235.713	3.85
236.096	5.13
236.479	3.88
236.862	5.73
237.245	4.88
237.628	2.86
238.011	4.47
238.394	3.59
238.777	5.46
239.16	3.42
239.543	5.98
239.925	3.71
240.308	3.98
240.691	3.69
241.073	4.04
241.456	4.65
241.838	3
242.221	3.05
242.603	4.53
242.986	3.27
243.368	3.57
243.75	4.11
244.133	3.96
244.515	3.53
244.897	3.1
245.279	3.19
245.661	3.53
246.043	3.7
246.425	2.82
246.807	3.2
247.189	1.89
247.571	3.62
247.953	4.04
248.335	3.54
248.717	3.16
249.098	3.03
249.48	3.08
249.862	3.33
250.243	3.23
250.625	3.29
251.006	2.69
251.388	3.43
251.769	3.33
252.151	3.02
252.532	2.33
252.913	4
253.295	4.04
253.676	3.63
254.057	3.3
254.438	3.67
254.819	2.93
255.2	3.42
255.581	3.14
255.962	4.05
256.343	3.93
256.724	3.38
257.105	3.88
257.486	2.68
257.867	2.96
258.247	3.44
258.628	4.82
259.009	3.65
259.389	2.92
259.77	3.79
260.15	3.59
260.531	2.54
260.911	3.11
261.292	2.9
261.672	2.74
262.052	3.02
262.432	2.93
262.813	3.13
263.193	2.9
263.573	3.86
263.953	2.81
264.333	3.5
264.713	2.86
265.093	2.93
265.473	3.49
265.853	2.42
266.233	3.98
266.612	2.44
266.992	3.52
267.372	3.97
267.752	4.12
268.131	3.24
268.511	2.95
268.89	3.37
269.27	2.96
269.649	3.56
270.029	3.16
270.408	3.65
270.787	2.83
271.167	3.42
271.546	3.26
271.925	2.68
272.304	2.68
272.683	3.01
273.062	3.47
273.441	2.75
273.82	3.92
274.199	3.08
274.578	3.34
274.957	2.6
275.336	2.72
275.715	3.21
276.093	2.87
276.472	2.82
276.851	2.92
277.229	2.41
277.608	3.85
277.986	2.79
278.365	2.89
278.743	3.1
279.122	3.6
279.5	3.52
279.878	2.86
280.257	3.9
280.635	2.7
281.013	3.65
281.391	2.68
281.769	2.95
282.147	3.22
282.525	3.35
282.903	3.49
283.281	2.79
283.659	3.27
284.037	2.94
284.415	3.49
284.792	2.92
285.17	2.65
285.548	3.67
285.925	2.66
286.303	2.73
286.68	2.62
287.058	3.26
287.435	2.81
287.813	2.31
288.19	2.67
288.567	3.02
288.945	2.83
289.322	3.07
289.699	3.09
290.076	2.86
290.453	2.32
290.83	2.93
291.207	3
291.584	3.09
291.961	2.84
292.338	3.27
292.715	3.1
293.092	2.85
293.469	2.92
293.845	2.71
294.222	2.95
294.599	2.97
294.975	3.42
295.352	3.49
295.728	2.75
296.105	3.81
296.481	3.2
296.858	2.72
297.234	3.22
297.61	3.13
297.986	2.96
298.363	2.64
298.739	3.04
299.115	3.02
299.491	3.28
299.867	3.15
300.243	2.55
300.619	2.9
300.995	2.36
301.371	3.14
301.746	3.06
302.122	2.58
302.498	2.35
302.874	2.85
303.249	2.63
303.625	2.59
304	3.44
304.376	3.14
304.751	2.89
305.127	2.87
305.502	3.89
305.878	3.01
306.253	3.1
306.628	3.25
307.003	2.82
307.378	3.13
307.754	3.12
308.129	3.38
308.504	2.86
308.879	2.73
309.254	2.85
309.629	3.72
310.003	2.97
310.378	3.18
310.753	2.61
311.128	3.22
311.502	3.26
311.877	2.85
312.252	2.9
312.626	2.87
313.001	3.25
313.375	3.11
313.75	3.1
314.124	3.36
314.498	2.75
314.873	2.94
315.247	3.15
315.621	3.45
315.995	2.68
316.369	2.93
316.743	3.53
317.117	3.15
317.491	3.36
317.865	2.81
318.239	2.81
318.613	3.57
318.987	3.32
319.361	3.39
319.734	3.32
320.108	3.31
320.482	2.65
320.855	3.51
321.229	3.69
321.602	3.42
321.976	3.76
322.349	2.63
322.723	3.32
323.096	3.28
323.469	3.36
323.843	3.05
324.216	3.19
324.589	3.7
324.962	2.87
325.335	2.79
325.708	2.92
326.081	3.22
326.454	3.13
326.827	2.66
327.2	3.31
327.573	3.17
327.945	3.4
328.318	3.28
328.691	3.37
329.063	3.18
329.436	3.25
329.809	3.67
330.181	3.3
330.553	2.86
330.926	3.36
331.298	3.44
331.671	3.48
332.043	2
332.415	3.04
332.787	3.24
333.159	3.28
333.532	3.01
333.904	2.77
334.276	3.09
334.648	2.91
335.02	2.52
335.391	2.88
335.763	3.37
336.135	3.28
336.507	3.61
336.879	3.25
337.25	3.05
337.622	3.69
337.993	3.02
338.365	3.39
338.736	3.03
339.108	3.29
339.479	3.54
339.851	3.14
340.222	3.08
340.593	2.85
340.964	2.62
341.336	2.97
341.707	2.94
342.078	2.98
342.449	2.87
342.82	2.87
343.191	2.47
343.562	3.28
343.933	3.08
344.303	3.17
344.674	3.13
345.045	3.14
345.416	2.94
345.786	3.01
346.157	2.92
346.527	2.85
346.898	2.96
347.268	2.8
347.639	3.26
348.009	2.85
348.38	3.23
348.75	3.27
349.12	3.06
349.49	3.2
349.861	3.14
350.231	3.11
350.601	3.24
350.971	3.54
351.341	2.81
351.711	2.96
352.081	2.89
352.45	3
352.82	3.27
353.19	3.32
353.56	3.14
353.929	2.93
354.299	3.41
354.669	2.87
355.038	3.13
355.408	3.25
355.777	3.26
356.147	3.37
356.516	3.37
356.885	3.21
357.254	3.08
357.624	2.91
357.993	3.24
358.362	3.05
358.731	3.08
359.1	2.85
359.469	2.97
359.838	2.85
360.207	3.1
360.576	3.27
360.945	3.22
361.314	3.13
361.682	3.2
362.051	3.29
362.42	3.12
362.788	2.84
363.157	3.11
363.525	2.97
363.894	3.01
364.262	3
364.631	3.03
364.999	2.92
365.367	3.17
365.735	2.91
366.104	2.91
366.472	3.33
366.84	2.99
367.208	3.25
367.576	3.14
367.944	3.04
368.312	3.54
368.68	2.95
369.048	3.3
369.416	3.37
369.783	3.16
370.151	2.93
370.519	3.25
370.886	3.53
371.254	3.04
371.621	2.85
371.989	2.92
372.356	2.95
372.724	3.37
373.091	3.07
373.458	2.84
373.826	3
374.193	3.06
374.56	3.15
374.927	3.31
375.294	2.78
375.661	2.76
376.028	3.07
376.395	3.3
376.762	3.11
377.129	3.2
377.496	3.44
377.863	3.27
378.229	3.1
378.596	3.19
378.963	3.47
379.329	3.27
379.696	3.32
380.062	3.13
380.429	3.16
380.795	2.95
381.161	3.17
381.528	3
381.894	2.94
382.26	3.1
382.626	3.14
382.993	3.37
383.359	3.04
383.725	2.97
384.091	3.15
384.457	3.1
384.823	3.17
385.188	3.23
385.554	3.1
385.92	3.36
386.286	3.27
386.651	3.27
387.017	3.15
387.383	3.26
387.748	3.06
388.114	3.35
388.479	3.07
388.845	3.19
389.21	2.85
389.575	3.42
389.94	3.26
390.306	3.24
390.671	3.61
391.036	2.82
391.401	3.32
391.766	3.18
392.131	3.38
392.496	3.3
392.861	3.12
393.226	3.39
393.591	3.32
393.956	3.37
394.32	3.38
394.685	3.03
395.05	3.47
395.414	3.23
395.779	3.07
396.143	3.31
396.508	3.24
396.872	3.07
397.236	3.3
397.601	3.22
397.965	3.31
398.329	3.31
398.694	3.11
399.058	3.29
399.422	3.04
399.786	3.34
400.15	3.47
400.514	3.15
400.878	3.27
401.242	3.16
401.605	3.41
401.969	3.05
402.333	3.26
402.697	3.11
403.06	3.15
403.424	3.25
403.787	3.33
404.151	3.39
404.514	3.43
404.878	3.56
405.241	3.54
405.604	3.42
405.968	3.26
406.331	3.22
406.694	3.43
407.057	3.25
407.42	3.55
407.783	3.23
408.146	3.1
408.509	3.16
408.872	3.15
409.235	3.51
409.598	3.39
409.961	3.37
410.323	3.56
410.686	3.22
411.049	3.62
411.411	3.34
411.774	3.39
412.136	3.25
412.499	3.3
412.861	3.24
413.223	3.3
413.586	3.16
413.948	3.36
414.31	3.41
414.672	3.44
415.035	3.35
415.397	3.57
415.759	3.47
416.121	3.14
416.483	3.33
416.845	3.41
417.206	3.19
417.568	3.33
417.93	3.35
418.292	3.32
418.653	3.15
419.015	3.29
419.377	3.26
419.738	3.21
420.1	3.2
420.461	3.27
420.822	3.2
421.184	3.24
421.545	3.21
421.906	3.28
422.267	3.24
422.629	3.2
422.99	3.2
423.351	3.04
423.712	3.16
424.073	3.22
424.434	3.22
424.795	3.13
425.155	3.32
425.516	3.28
425.877	3.23
426.238	3.07
426.598	3.14
426.959	3.27
427.32	3.25
427.68	3.15
428.041	3.15
428.401	3.34
428.761	3.4
429.122	3.24
429.482	3.33
429.842	3.11
430.202	3.29
430.563	3.39
430.923	3.45
431.283	3.36
431.643	3.39
432.003	3.52
432.363	3.49
432.722	3.52
433.082	3.52
433.442	3.35
433.802	3.6
434.161	3.34
434.521	3.28
434.881	3.36
435.24	3.32
435.6	3.24
435.959	3.29
436.319	3.36
436.678	3.53
437.037	3.32
437.396	3.35
437.756	3.41
438.115	3.35
438.474	3.44
438.833	3.5
439.192	3.53
439.551	3.4
439.91	3.42
440.269	3.55
440.628	3.25
440.987	3.34
441.345	3.47
441.704	3.39
442.063	3.39
442.421	3.42
442.78	3.29
443.138	3.36
443.497	3.41
443.855	3.38
444.214	3.21
444.572	3.54
444.93	3.45
445.288	3.46
445.647	3.49
446.005	3.42
446.363	3.15
446.721	3.44
447.079	3.38
447.437	3.27
447.795	3.35
448.153	3.31
448.51	3.39
448.868	3.39
449.226	3.41
449.584	3.33
449.941	3.28
450.299	3.51
450.656	3.41
451.014	3.42
451.371	3.39
451.729	3.45
452.086	3.41
452.443	3.5
452.801	3.46
453.158	3.51
453.515	3.59
453.872	3.49
454.229	3.5
454.586	3.46
454.943	3.39
455.3	3.55
455.657	3.49
456.014	3.49
456.371	3.58
456.727	3.61
457.084	3.49
457.441	3.42
457.797	3.6
458.154	3.61
458.51	3.63
458.867	3.5
459.223	3.63
459.58	3.49
459.936	3.46
460.292	3.62
460.648	3.55
461.005	3.6
461.361	3.47
461.717	3.32
462.073	3.39
462.429	3.33
462.785	3.44
463.141	3.4
463.496	3.57
463.852	3.55
464.208	3.65
464.564	3.62
464.919	3.68
465.275	3.75
465.631	3.66
465.986	3.56
466.342	3.68
466.697	3.77
467.052	3.54
467.408	3.63
467.763	3.62
468.118	3.71
468.473	3.51
468.829	3.55
469.184	3.64
469.539	3.5
469.894	3.68
470.249	3.69
470.603	3.59
470.958	3.71
471.313	3.69
471.668	3.57
472.023	3.74
472.377	3.72
472.732	3.67
473.086	3.81
473.441	3.44
473.795	3.93
474.15	3.59
474.504	3.55
474.859	3.79
475.213	3.46
475.567	3.59
475.921	3.63
476.275	3.66
476.63	3.51
476.984	3.57
477.338	3.78
477.692	3.6
478.045	3.61
478.399	3.76
478.753	3.62
479.107	3.67
479.461	3.81
479.814	3.73
480.168	3.72
480.521	3.83
480.875	3.83
481.228	3.58
481.582	3.64
481.935	3.68
482.289	3.62
482.642	3.59
482.995	3.73
483.348	3.65
483.701	3.71
484.055	3.73
484.408	3.64
484.761	3.65
485.114	3.62
485.466	3.53
485.819	3.45
486.172	3.44
486.525	3.44
486.878	3.44
487.23	3.54
487.583	3.58
487.936	3.67
488.288	3.61
488.641	3.56
488.993	3.55
489.345	3.57
489.698	3.53
490.05	3.56
490.402	3.54
490.754	3.53
491.107	3.56
491.459	3.67
491.811	3.7
492.163	3.64
492.515	3.68
492.866	3.73
493.218	3.69
493.57	3.74
493.922	3.6
494.274	3.6
494.625	3.67
494.977	3.71
495.328	3.77
495.68	3.8
496.031	3.74
496.383	3.9
496.734	4.06
497.086	3.78
497.437	3.95
497.788	3.95
498.139	3.91
498.49	3.98
498.842	3.85
499.193	3.79
499.544	3.81
499.894	3.79
500.245	3.78
500.596	3.86
500.947	3.93
501.298	4.03
501.648	3.98
501.999	3.97
502.35	3.98
502.7	4
503.051	3.98
503.401	4.02
503.752	3.98
504.102	3.89
504.452	3.94
504.803	3.96
505.153	4.03
505.503	3.95
505.853	4.07
506.203	3.89
506.553	3.94
506.903	3.98
507.253	3.91
507.603	4.1
507.953	4.14
508.303	4.12
508.652	3.93
509.002	4.12
509.352	4.05
509.701	4.06
510.051	4.02
510.4	4.1
510.75	4.1
511.099	3.94
511.449	4.02
511.798	4.11
512.147	4.11
512.496	4.09
512.846	4.16
513.195	4.08
513.544	4.16
513.893	4.1
514.242	4.12
514.591	4.14
514.939	4.18
515.288	4.06
515.637	4.14
515.986	4.13
516.334	4.17
516.683	4.19
517.032	4.29
517.38	4.35
517.729	4.18
518.077	4.32
518.426	4.15
518.774	4.35
519.122	4.25
519.47	4.19
519.819	4.18
520.167	4.31
520.515	4.21
520.863	4.11
521.211	4.15
521.559	4.25
521.907	4.24
522.255	4.28
522.602	4.35
522.95	4.26
523.298	4.37
523.645	4.44
523.993	4.27
524.341	4.23
524.688	4.41
525.036	4.39
525.383	4.39
525.73	4.32
526.078	4.35
526.425	4.32
526.772	4.49
527.119	4.4
527.466	4.27
527.814	4.33
528.161	4.28
528.508	4.29
528.854	4.36
529.201	4.42
529.548	4.43
529.895	4.32
530.242	4.27
530.588	4.24
530.935	4.18
531.282	4.2
531.628	4.3
531.975	4.29
532.321	4.31
532.667	4.36
533.014	4.42
533.36	4.44
533.706	4.38
534.052	4.55
534.399	4.5
534.745	4.5
535.091	4.44
535.437	4.43
535.783	4.39
536.129	4.43
536.474	4.49
536.82	4.46
537.166	4.61
537.512	4.6
537.857	4.62
538.203	4.67
538.549	4.65
538.894	4.57
539.239	4.63
539.585	4.52
539.93	4.78
540.276	4.65
540.621	4.62
540.966	4.76
541.311	4.78
541.656	4.58
542.001	4.82
542.346	4.83
542.691	4.8
543.036	4.76
543.381	4.65
543.726	4.67
544.071	4.68
544.415	4.64
544.76	4.74
545.105	4.71
545.449	4.67
545.794	4.83
546.138	4.88
546.483	4.91
546.827	4.8
547.171	4.88
547.516	4.89
547.86	5
548.204	4.91
548.548	5.03
548.892	4.97
549.236	4.98
549.58	5.08
549.924	5.09
550.268	5.13
550.612	5.12
550.956	5.12
551.3	5.03
551.643	5.1
551.987	5.35
552.33	5.35
552.674	5.13
553.017	5.18
553.361	5.35
553.704	5.32
554.048	5.42
554.391	5.32
554.734	5.34
555.077	5.4
555.42	5.35
555.764	5.4
556.107	5.44
556.45	5.53
556.793	5.39
557.135	5.44
557.478	5.49
557.821	5.48
558.164	5.56
558.507	5.49
558.849	5.49
559.192	5.56
559.534	5.64
559.877	5.72
560.219	5.74
560.562	5.49
560.904	5.77
561.246	5.92
561.589	5.77
561.931	5.58
562.273	5.6
562.615	5.69
562.957	5.83
563.299	5.87
563.641	5.84
563.983	5.94
564.325	5.76
564.667	6.06
565.008	5.84
565.35	6.04
565.692	5.96
566.033	5.88
566.375	5.92
566.716	5.97
567.058	5.85
567.399	5.95
567.741	6.1
568.082	5.99
568.423	6.09
568.764	6.18
569.105	5.85
569.447	5.9
569.788	5.93
570.129	6.22
570.47	6.2
570.811	6.1
571.151	6.06
571.492	6.22
571.833	6.27
572.174	6.09
572.514	6.14
572.855	6.42
573.195	6.32
573.536	6.26
573.876	6.27
574.217	6.37
574.557	6.3
574.898	6.46
575.238	6.28
575.578	6.45
575.918	6.44
576.258	6.23
576.598	6.4
576.938	6.53
577.278	6.48
577.618	6.38
577.958	6.78
578.298	6.66
578.638	6.57
578.977	6.6
579.317	6.66
579.657	6.68
579.996	6.82
580.336	6.85
580.675	6.66
581.014	6.72
581.354	6.58
581.693	6.93
582.032	7.06
582.372	6.9
582.711	6.92
583.05	7
583.389	6.92
583.728	6.88
584.067	7.15
584.406	7.08
584.745	6.84
585.083	7.36
585.422	7.31
585.761	7.11
586.1	7.06
586.438	7.23
586.777	7.16
587.115	7.31
587.454	7.19
587.792	7.53
588.13	7.53
588.469	7.22
588.807	7.34
589.145	7.6
589.483	7.58
589.821	7.31
590.159	7.53
590.497	7.72
590.835	7.57
591.173	7.54
591.511	7.32
591.849	7.85
592.187	7.41
592.524	7.77
592.862	7.67
593.2	7.45
593.537	7.65
593.875	7.77
594.212	7.72
594.55	8.12
594.887	7.64
595.224	7.97
595.561	7.88
595.899	7.93
596.236	8.08
596.573	7.97
596.91	8.05
597.247	7.92
597.584	8.1
597.921	8.3
598.258	8.08
598.594	8.08
598.931	8.05
599.268	8.02
599.604	8.11
599.941	8.2
600.277	8.11
600.614	8.07
600.95	8.43
601.287	8.34
601.623	8.29
601.959	8.49
602.296	8.5
602.632	8.18
602.968	8.58
603.304	8.36
603.64	8.59
603.976	8.55
604.312	8.55
604.648	8.26
604.984	8.77
605.319	8.55
605.655	8.44
605.991	8.74
606.326	8.87
606.662	8.55
606.998	8.65
607.333	8.95
607.668	8.62
608.004	8.99
608.339	8.77
608.674	8.96
609.01	8.71
609.345	8.89
609.68	9.1
610.015	9.02
610.35	9.29
610.685	9.39
611.02	9.2
611.355	9.07
611.689	9
612.024	9.24
612.359	9
612.694	9.03
613.028	9.1
613.363	9.2
613.697	9.25
614.032	9.49
614.366	9.06
614.7	9.41
615.035	9.23
615.369	9.54
615.703	9.19
616.037	9.66
616.371	9.8
616.705	9.92
617.039	9.78
617.373	9.69
617.707	9.65
618.041	9.86
618.375	9.69
618.709	9.62
619.042	9.99
619.376	9.96
619.71	9.97
620.043	9.59
620.377	9.89
620.71	10.14
621.043	10.1
621.377	9.73
621.71	9.94
622.043	10.16
622.376	10.26
622.709	9.87
623.043	10.65
623.376	10.45
623.709	10.47
624.041	10.04
624.374	10.48
624.707	10.23
625.04	10.45
625.373	9.99
625.705	10.4
626.038	10.23
626.37	10.55
626.703	10.35
627.035	10.34
627.368	10.54
627.7	10.81
628.032	10.76
628.365	10.73
628.697	10.99
629.029	10.58
629.361	10.58
629.693	10.82
630.025	10.89
630.357	10.66
630.689	10.78
631.021	10.66
631.353	10.84
631.684	10.97
632.016	11.2
632.348	10.99
632.679	10.87
633.011	11.12
633.342	11.67
633.674	11.34
634.005	11.13
634.336	11.36
634.668	11.52
634.999	11.55
635.33	11.31
635.661	11.27
635.992	11.08
636.323	11.06
636.654	11.21
636.985	11.27
637.316	11.24
637.647	11.63
637.977	11.04
638.308	11.8
638.639	11.14
638.969	11.85
639.3	11.5
639.63	11.93
639.961	11.78
640.291	11.85
640.622	11.78
640.952	11.58
641.282	11.99
641.612	12.15
641.943	11.84
642.273	11.81
642.603	11.93
642.933	12.23
643.263	11.36
643.592	12.2
643.922	12.13
644.252	11.94
644.582	12.3
644.911	12.31
645.241	12.35
645.571	12.37
645.9	12.25
646.23	12.44
646.559	12.6
646.888	12.26
647.218	12.69
647.547	12.18
647.876	12.35
648.205	12.21
648.534	12.9
648.863	12.4
649.192	12.25
649.521	12.76
649.85	13.08
650.179	12.73
650.508	12.57
650.837	13.04
651.165	13.51
651.494	12.63
651.822	13.01
652.151	12.8
652.479	13.15
652.808	13.26
653.136	13.48
653.465	13.27
653.793	12.65
654.121	12.35
654.449	12.83
654.777	13.24
655.105	13.57
655.433	13.25
655.761	13.7
656.089	13.13
656.417	13.17
656.745	13.7
657.073	13.19
657.4	14.18
657.728	13.6
658.056	13.13
658.383	13.99
658.711	13.75
659.038	13.94
659.365	13.99
659.693	13.63
660.02	13.77
660.347	13.63
660.674	13.52
661.001	13.91
661.329	13.66
661.656	13.77
661.982	13.67
662.309	13.91
662.636	13.87
662.963	14.05
663.29	14.03
663.616	14.13
663.943	14.31
664.27	14.18
664.596	13.81
664.923	13.89
665.249	14.45
665.576	13.58
665.902	14.13
666.228	14.5
666.554	13.74
666.881	14.45
667.207	13.98
667.533	14.07
667.859	14.83
668.185	14.6
668.511	15.3
668.837	14.67
669.162	14.19
669.488	14.85
669.814	14.57
670.139	14.76
670.465	15.49
670.791	15
671.116	14.85
671.442	14.98
671.767	14.22
672.092	15.38
672.418	15.35
672.743	15.25
673.068	15.21
673.393	14.77
673.718	15.69
674.043	15.51
674.368	15.29
674.693	15.15
675.018	15.47
675.343	15.71
675.667	15.71
675.992	14.82
676.317	15.97
676.641	15.18
676.966	15.89
677.29	15.34
677.615	15.66
677.939	16.13
678.264	15.13
678.588	16.45
678.912	15.42
679.236	16.18
679.56	15.55
679.885	16.3
680.209	16.47
680.532	15.51
680.856	15.91
681.18	16.16
681.504	16.08
681.828	15.93
682.152	16.52
682.475	16.42
682.799	16.4
683.122	16.38
683.446	16.39
683.769	16.46
684.093	16.51
684.416	16.07
684.739	16.58
685.062	17.19
685.386	16.17
685.709	16.38
686.032	16.3
686.355	16.43
686.678	17.39
687.001	16.73
687.324	17.51
687.646	16.91
687.969	16.96
688.292	16.39
688.614	16.72
688.937	16.83
689.26	16.78
689.582	16.69
689.904	16.95
690.227	17.49
690.549	17.7
690.871	17.02
691.194	17.3
691.516	17.47
691.838	17.49
692.16	17.52
692.482	17.01
692.804	16.81
693.126	16.59
693.448	17.85
693.769	17.05
694.091	18.06
694.413	17.25
694.735	17.77
695.056	18.13
695.378	18.03
695.699	17.61
696.021	17.19
696.342	17.83
696.663	17.26
696.984	17.26
697.306	18.32
697.627	17.05
697.948	17.5
698.269	18.11
698.59	18.08
698.911	17.85
699.232	18.8
699.553	17.32
699.873	17.81
700.194	18.31
700.515	17.37
700.835	17.95
701.156	18.28
701.477	18.13
701.797	17.66
702.117	18.63
702.438	17.72
702.758	17.43
703.078	18.33
703.398	18.2
703.719	18.66
704.039	19.28
704.359	17.79
704.679	17.29
704.999	18.3
705.319	18.46
705.638	18.74
705.958	19.21
706.278	19.99
706.597	19.4
706.917	19.56
707.237	18.28
707.556	18.97
707.876	18.06
708.195	19.35
708.514	19.01
708.834	18.6
709.153	18.59
709.472	18.98
709.791	18.81
710.11	19.94
710.429	19.61
710.748	19.66
711.067	19.06
711.386	19.89
711.705	19.92
712.023	19.14
712.342	20.32
712.661	18.9
712.979	20.14
713.298	19.3
713.616	19.78
713.935	20.61
714.253	20.87
714.572	20.04
714.89	20.8
715.208	20.23
715.526	18.82
715.844	19.7
716.162	18.16
716.48	20.22
716.798	19.83
717.116	21.34
717.434	19.95
717.752	20.5
718.069	19.54
718.387	20.57
718.705	20.11
719.022	20.67
719.34	20.9
719.657	19.43
719.975	21.08
720.292	20.83
720.609	22.75
720.927	20.22
721.244	20.96
721.561	20.18
721.878	19.95
722.195	20.8
722.512	21.4
722.829	20.87
723.146	21.49
723.463	20.52
723.779	20.49
724.096	21.4
724.413	21.72
724.729	21.06
725.046	20.81
725.362	20.95
725.679	21.15
725.995	21.86
726.311	19.88
726.628	18.59
726.944	20.72
727.26	22.14
727.576	21.74
727.892	20.01
728.208	22.35
728.524	22.86
728.84	19.74
729.156	20.13
729.472	22.08
729.787	21.81
730.103	19.88
730.419	22.73
730.734	22.79
731.05	21.29
731.365	22.54
731.681	21.7
731.996	21.83
732.311	21.49
732.626	22.16
732.942	22.07
733.257	20.48
733.572	21.97
733.887	21.86
734.202	22.27
734.517	22.6
734.832	22.07
735.146	22.17
735.461	22.92
735.776	23.29
736.091	22.81
736.405	22.58
736.72	22.39
737.034	22.72
737.349	21.41
737.663	21.92
737.977	23.36
738.292	21.76
738.606	23.52
738.92	22.95
739.234	23.3
739.548	22.86
739.862	22.69
740.176	22.33
740.49	21.32
740.804	23.43
741.117	22.59
741.431	23.23
741.745	24.04
742.058	22.42
742.372	22.06
742.685	23.85
742.999	23.41
743.312	22.81
743.626	23.05
743.939	24.08
744.252	22.78
744.565	23.37
744.878	23.21
745.191	24.34
745.505	23.86
745.817	24.51
746.13	25.38
746.443	25.95
746.756	24.44
747.069	24
747.381	22.1
747.694	23.14
748.007	23.25
748.319	23.72
748.632	24.19
748.944	25.59
749.256	24.3
749.569	23.46
749.881	24.76
750.193	25.23
750.505	25.81
750.817	25.47
751.129	25.22
751.441	26.82
751.753	26.71
752.065	27.56
752.377	26.37
752.689	24.06
753	24.27
753.312	26.58
753.624	23.75
753.935	25.79
754.247	23.35
754.558	24.87
754.869	24.65
755.181	24.73
755.492	24.3
755.803	25.65
756.114	26.07
756.425	27.19
756.736	25.86
757.047	26.35
757.358	25.12
757.669	24.84
757.98	25.62
758.291	26.34
758.601	25.09
758.912	24.73
759.223	26.42
759.533	25.69
759.844	24.63
760.154	25.3
760.464	25.4
760.775	26.83
761.085	26.23
761.395	27.25
761.705	27.14
762.016	24.88
762.326	25.74
762.636	26.99
762.945	24.15
763.255	25.97
763.565	25.5
763.875	23.4
764.185	25.05
764.494	27.84
764.804	25.23
765.113	25.36
765.423	26.4
765.732	25.53
766.042	26.79
766.351	25.81
766.66	26.38
766.97	26.38
767.279	26.95
767.588	26.64
767.897	26.5
768.206	26.36
768.515	27.69
768.824	25.81
769.133	26.95
769.441	27.52
769.75	27.55
770.059	28.06
770.367	23.87
770.676	27.34
770.984	26.25
771.293	26.12
771.601	29.37
771.91	29.36
772.218	27.79
772.526	29.55
772.834	27.14
773.142	28.16
773.45	30.33
773.758	26.7
774.066	28.29
774.374	27.47
774.682	26.52
774.99	28.22
775.298	27.88
775.605	25.67
775.913	29.64
776.22	29.21
776.528	26.07
776.835	26.05
777.143	28.39
777.45	29.11
777.757	29.23
778.065	27.5
778.372	29.54
778.679	28.18
778.986	29.7
779.293	27.32
779.6	27.4
779.907	30.1
780.214	31.49
780.52	29.51
780.827	26.56
781.134	30.14
781.44	31.62
781.747	28.38
782.053	28.87
782.36	33.3
782.666	28.29
782.973	30.72
783.279	27.72
783.585	28.55
783.891	28.42
784.197	26.74
784.503	29.47
784.809	30.02
785.115	30.68
785.421	31.62
785.727	30.54
786.033	26.43
786.339	31.56
786.644	31.54
786.95	28.99
787.255	28.31
787.561	26.87
787.866	29.73
788.172	32.6
788.477	31.9
788.782	24.54
789.088	26.08
789.393	27.84
789.698	27.99
790.003	29.73
790.308	25.43
790.613	27.74
790.918	30.92
791.223	28.02
791.527	28.85
791.832	29.31
792.137	27.36
792.441	32.49
792.746	31.08
793.05	29.25
793.355	33.6
793.659	30.77
793.963	27.78
794.268	29.93
794.572	28.07
794.876	29.38
795.18	28.02
795.484	32.86
795.788	30.87
796.092	29.76
796.396	31.42
796.7	30.52
797.004	31.22
797.307	24.47
797.611	30.93
797.915	28.13
798.218	34.67
798.522	32.69
798.825	30.17
799.128	30.41
799.432	30.96
799.735	35.04
800.038	31.43
800.341	30.5
800.644	35.56
800.947	32.11
801.25	30.89
801.553	31.66
801.856	38.01
802.159	35.39
802.462	30.42
802.764	33.07
803.067	31.02
803.37	31.56
803.672	32.61
803.975	27.02
804.277	36.72
804.579	35.91
804.882	30.79
805.184	31.59
805.486	33.78
805.788	38.07
806.09	35.07
806.392	28.33
806.694	34.53
806.996	36.49
807.298	30.44
807.6	35.03
807.902	35.65
808.203	34.25
808.505	34.81
808.807	31.89
809.108	31.31
809.409	32.97
809.711	34.21
810.012	35.14
810.313	29.76
810.615	36
810.916	28.96
811.217	34.73
811.518	37.89
811.819	36.05
812.12	36.39
812.421	33.56
812.722	39.25
813.023	34.04
813.323	26.6
813.624	33.41
813.925	37.8
814.225	40.9
814.526	33.16
814.826	39.56
815.126	34.28
815.427	38.03
815.727	28.33
816.027	26.33
816.327	24.95
816.627	38.43
816.927	41.21
817.227	35.38
817.527	37.81
817.827	33.43
818.127	31.32
818.427	41.84
818.727	36.53
819.026	35.09
819.326	30.72
819.625	31.43
819.925	36.08
820.224	40.16
820.524	33.02
820.823	30.31
821.122	26.95
821.421	35.62
821.72	37.97
822.019	35.63
822.318	36.02
822.617	36.96
822.916	36.3
823.215	33.68
823.514	35.7
823.813	36.91
824.111	36.81
824.41	33.35
824.709	33.03
825.007	34.84
825.306	34.84
825.604	34.74
825.902	35.99
826.201	34.66
826.499	34.62
826.797	34.42
827.095	35.84
827.393	34.95
827.691	34.04
827.989	33.57
828.287	34.4
828.585	35.99
828.882	33.98
829.18	34.45
829.478	35.26
829.775	35.39
830.073	32.91
830.37	34.72
830.668	36.44
830.965	37.8
831.263	37.71
831.56	36.57
831.857	35.08
832.154	33.89
832.451	36.32
832.748	36.74
833.045	34.88
833.342	37.24
833.639	35.65
833.936	42.4
834.232	36.6
834.529	34.73
834.826	28.82
835.122	41.03
835.419	35.97
835.715	38.01
836.012	32.83
836.308	36.82
836.604	41.02
836.901	33.42
837.197	39.51
837.493	37.01
837.789	33.58
838.085	33.37
838.381	36.27
838.677	36.62
838.972	39.6
839.268	35.48
839.564	39.32
839.86	35.74
840.155	41.3
840.451	34.48
840.746	38.85
841.042	39.66
841.337	41.06
841.632	43.91
841.928	41.35
842.223	50.53
842.518	42.76
842.813	43.84
843.108	33.15
843.403	32.46
843.698	34.09
843.993	32.76
844.287	43.97
844.582	39
844.877	34.45
845.171	36.7
845.466	40.71
845.761	33.9
846.055	30.78
846.349	46.59
846.644	39.5
846.938	42.43
847.232	45.28
847.526	45.28
847.82	44.81
848.114	46.44
848.408	30.1
848.702	27.73
848.996	31.79
849.29	43.85
849.584	40.61
849.877	52.2
850.171	42.63
850.465	25.32
850.758	47.4
851.052	47.89
851.345	47.33
851.638	33.78
851.932	44.24
852.225	43.8
852.518	44.68
852.811	30.75
853.104	52.98
853.397	42.71
853.69	36.94
853.983	25.98
854.276	43.08
854.569	62.38
854.861	31.76
855.154	37.28
855.447	52.97
855.739	37.71
856.032	49.56
856.324	55.74
856.616	45.56
856.909	43.91
857.201	51.76
857.493	37.59
857.785	47.42
858.077	58.7
858.369	62.64
858.661	47.34
858.953	47.47
859.245	36.79
859.537	41.98
859.829	28.19
860.12	44.47
860.412	54.75
860.703	54.82
860.995	45.76
861.286	18.88
861.578	43.72
861.869	65.36
862.16	51.78
862.452	41.77
862.743	45.18
863.034	45.88
863.325	31.34
863.616	62.55
863.907	33.6
864.198	49.28
864.488	45.41
864.779	23.16
865.07	25.42
865.36	40.56
865.651	65
865.941	19.3
866.232	54.73
866.522	53.13
866.813	48.29
867.103	66.41
867.393	60.42
867.683	33.73
867.973	35.44
868.263	37.09
868.553	40.49
868.843	41.07
869.133	48.41
869.423	52.27
869.713	40.1
870.002	44.77
870.292	28.91
870.582	47.6
870.871	34.11
871.161	43.82
871.45	62.36
871.739	44.12
872.029	41.76
872.318	33.93
872.607	76.79
872.896	26.12
873.185	37.15
873.474	56.82
873.763	39.92
874.052	43.42
874.341	44.04
874.63	42.8
874.918	45.88
875.207	67.57
875.496	43.82
875.784	59.45
876.073	36.85
876.361	43.72
876.649	55.82
876.938	72.16
877.226	36.47
877.514	56.17
877.802	43.17
878.09	50.05
878.378	51.69
878.666	76.01
878.954	55.96
879.242	69.67
879.53	61.43
879.817	30.42
880.105	65.97
880.392	49.23
880.68	29.66
880.967	55.98
881.255	36.59
881.542	26.99
881.83	38.66
882.117	33.25
882.404	45.68
882.691	45.34
882.978	15.7
883.265	40.33
883.552	53.65
883.839	56.52
884.126	56.9
884.413	36.19
884.699	42.89
884.986	39.93
885.273	51.33
885.559	51.33
885.846	51.33
