Data from 0099_crown_Reflection__0__177.txt Node

Date: Fri Sep 22 22:18:12 CDT 2023
User: ToomeyLab
Spectrometer: FLMS14357
Trigger mode: 0
Integration Time (sec): 1.000000E-2
Scans to average: 100
Electric dark correction enabled: true
Nonlinearity correction enabled: false
Boxcar width: 0
XAxis mode: Wavelengths
Number of Pixels in Spectrum: 2048
>>>>>Begin Spectral Data<<<<<
189.047	21.85
189.435	21.85
189.823	21.85
190.211	7.58
190.599	-48.2
190.987	163.3
191.375	349.02
191.763	79.76
192.151	25.51
192.538	-175.61
192.926	51.48
193.314	-3.97
193.702	81.81
194.089	34.17
194.477	185.98
194.864	177.32
195.252	100.45
195.639	121.54
196.027	182.17
196.414	-83.28
196.801	98.54
197.189	-519.88
197.576	173.48
197.963	-40.62
198.351	30.9
198.738	71.78
199.125	35.97
199.512	-4.8
199.899	29.32
200.286	3.09
200.673	29.59
201.06	12.77
201.447	29.47
201.833	-43.38
202.22	34.45
202.607	36.14
202.994	62.49
203.38	50.04
203.767	42.89
204.154	48.52
204.54	48.43
204.927	24.66
205.313	18.38
205.699	45.62
206.086	43.83
206.472	31.65
206.858	40.67
207.245	-4.62
207.631	46.56
208.017	15.95
208.403	16.84
208.789	19
209.175	49.33
209.561	15.31
209.947	18.63
210.333	61.35
210.719	24.6
211.105	31.04
211.491	8.56
211.876	11.89
212.262	2.11
212.648	5.37
213.034	19.63
213.419	6.8
213.805	5.89
214.19	-12.87
214.576	20.99
214.961	-18.16
215.346	-39.17
215.732	13.39
216.117	-2.47
216.502	21.53
216.888	10.86
217.273	25.72
217.658	-26.22
218.043	12.39
218.428	23.86
218.813	-23.73
219.198	13.23
219.583	22.14
219.968	15.63
220.353	14.25
220.738	-3.36
221.122	26.8
221.507	11.23
221.892	0.25
222.276	12.01
222.661	-11.26
223.046	5.3
223.43	8.81
223.815	11.3
224.199	-10.43
224.583	-2.86
224.968	13.76
225.352	-6.87
225.736	10.23
226.121	5.54
226.505	2.27
226.889	0.32
227.273	-0
227.657	2.55
228.041	5.75
228.425	4.5
228.809	-2.29
229.193	1.64
229.577	-0.32
229.961	1.96
230.344	4.05
230.728	0.37
231.112	2.97
231.495	1.48
231.879	1.84
232.263	0.22
232.646	1.83
233.03	-1.01
233.413	2.25
233.797	0.19
234.18	0.62
234.563	4.99
234.946	4.29
235.33	-2.64
235.713	-0.53
236.096	2.43
236.479	0.66
236.862	4.95
237.245	2.52
237.628	2.88
238.011	3.33
238.394	2.54
238.777	3.35
239.16	-0.18
239.543	2.88
239.925	1.43
240.308	2
240.691	2.2
241.073	1.06
241.456	2.38
241.838	1.19
242.221	1.09
242.603	2.25
242.986	1.07
243.368	0.97
243.75	1.89
244.133	2.08
244.515	1.75
244.897	1.16
245.279	1.29
245.661	1.46
246.043	2.36
246.425	0.84
246.807	2.02
247.189	0.36
247.571	0.88
247.953	1.44
248.335	1.43
248.717	1.46
249.098	1.73
249.48	1.13
249.862	1.31
250.243	1.26
250.625	1.09
251.006	1.21
251.388	1.37
251.769	2.08
252.151	0.8
252.532	0.93
252.913	1.8
253.295	1.86
253.676	0.82
254.057	1.94
254.438	1.18
254.819	1.49
255.2	1.7
255.581	1.23
255.962	2.01
256.343	0.17
256.724	0.42
257.105	1.66
257.486	2.28
257.867	1.84
258.247	1.88
258.628	2.49
259.009	0.2
259.389	1.12
259.77	1.68
260.15	2.1
260.531	1.02
260.911	1.09
261.292	1.54
261.672	1.07
262.052	1.54
262.432	1.22
262.813	1.39
263.193	1.13
263.573	1.32
263.953	1.33
264.333	1.25
264.713	1.26
265.093	0.8
265.473	0.62
265.853	0.95
266.233	1.32
266.612	0.8
266.992	1.51
267.372	1.18
267.752	1.04
268.131	1.91
268.511	0.83
268.89	1.65
269.27	0.57
269.649	1.47
270.029	0.83
270.408	1.35
270.787	1.35
271.167	1.31
271.546	1.29
271.925	1.57
272.304	0.73
272.683	1.68
273.062	1.5
273.441	1.15
273.82	1.56
274.199	1.38
274.578	1.72
274.957	1.24
275.336	0.98
275.715	1.29
276.093	1.01
276.472	1.14
276.851	0.88
277.229	1.14
277.608	1.08
277.986	1.23
278.365	1.41
278.743	1.09
279.122	0.89
279.5	1.48
279.878	0.84
280.257	2.06
280.635	1.06
281.013	1.57
281.391	0.55
281.769	1.42
282.147	1.39
282.525	0.8
282.903	1.3
283.281	1.2
283.659	1.54
284.037	0.79
284.415	1.41
284.792	1.24
285.17	1.43
285.548	1.49
285.925	1.19
286.303	1.33
286.68	1.04
287.058	0.52
287.435	1.11
287.813	0.92
288.19	0.82
288.567	1.03
288.945	0.97
289.322	1.26
289.699	1.29
290.076	1.5
290.453	1.06
290.83	0.65
291.207	1.27
291.584	0.98
291.961	0.69
292.338	1.35
292.715	1.42
293.092	1.15
293.469	1.12
293.845	1.09
294.222	1.45
294.599	1.96
294.975	1.65
295.352	1.1
295.728	1.26
296.105	1.14
296.481	0.88
296.858	0.74
297.234	1.55
297.61	0.94
297.986	1.1
298.363	1.02
298.739	1.24
299.115	1.32
299.491	1.3
299.867	1.48
300.243	1.18
300.619	1.28
300.995	1.16
301.371	1.4
301.746	1.26
302.122	0.88
302.498	1.14
302.874	0.87
303.249	1.22
303.625	0.95
304	1.33
304.376	1.33
304.751	1.59
305.127	1.2
305.502	1.81
305.878	1.29
306.253	1.48
306.628	1.07
307.003	1.62
307.378	0.8
307.754	0.91
308.129	0.97
308.504	1.28
308.879	1.15
309.254	1.23
309.629	1.41
310.003	1.25
310.378	1.75
310.753	1.23
311.128	1.3
311.502	1.5
311.877	1.06
312.252	1.16
312.626	1.49
313.001	1.39
313.375	1.23
313.75	1.37
314.124	1.58
314.498	1.1
314.873	1.33
315.247	1.82
315.621	1.14
315.995	1.2
316.369	0.97
316.743	0.92
317.117	1.25
317.491	1.69
317.865	0.53
318.239	1.34
318.613	1.24
318.987	1.1
319.361	1.09
319.734	1.02
320.108	1.54
320.482	1
320.855	1.19
321.229	2.19
321.602	1.17
321.976	1.01
322.349	0.99
322.723	1.28
323.096	1.2
323.469	1.72
323.843	1.23
324.216	1.38
324.589	1.3
324.962	1.08
325.335	0.6
325.708	1.4
326.081	1.34
326.454	0.84
326.827	1.6
327.2	1.5
327.573	1.95
327.945	1.51
328.318	0.94
328.691	1.27
329.063	0.93
329.436	1.31
329.809	1.29
330.181	1.69
330.553	1.36
330.926	1.26
331.298	1.18
331.671	1.71
332.043	0.74
332.415	1.24
332.787	1.55
333.159	1.18
333.532	0.78
333.904	1.44
334.276	1.06
334.648	0.73
335.02	1.12
335.391	1.32
335.763	1.57
336.135	1.26
336.507	1.24
336.879	0.81
337.25	1.44
337.622	1.14
337.993	1.13
338.365	1.43
338.736	1.49
339.108	1.05
339.479	1.21
339.851	0.87
340.222	1.23
340.593	1.43
340.964	1.18
341.336	0.82
341.707	0.67
342.078	1.09
342.449	1.33
342.82	0.62
343.191	1.01
343.562	0.77
343.933	1.41
344.303	1.18
344.674	0.84
345.045	1.37
345.416	1.55
345.786	1.18
346.157	1.28
346.527	0.89
346.898	0.87
347.268	0.94
347.639	0.9
348.009	1.17
348.38	1.28
348.75	1.47
349.12	1.24
349.49	1.43
349.861	1.13
350.231	1.09
350.601	1.34
350.971	1.45
351.341	1.16
351.711	1.17
352.081	0.95
352.45	0.67
352.82	1.59
353.19	1.14
353.56	1.03
353.929	1.3
354.299	1.31
354.669	0.88
355.038	1.18
355.408	1.26
355.777	1.73
356.147	0.92
356.516	1.26
356.885	1.39
357.254	1.5
357.624	0.85
357.993	1.22
358.362	1.44
358.731	1.24
359.1	0.9
359.469	1.18
359.838	0.94
360.207	1.13
360.576	1.19
360.945	1.33
361.314	1.04
361.682	1.17
362.051	1.56
362.42	0.95
362.788	1.13
363.157	1.36
363.525	1.23
363.894	0.98
364.262	1.03
364.631	1.14
364.999	1
365.367	1.45
365.735	1.4
366.104	0.85
366.472	1.38
366.84	1.21
367.208	1.5
367.576	1.15
367.944	1.04
368.312	1.23
368.68	1.14
369.048	1.25
369.416	1.08
369.783	1.1
370.151	1.1
370.519	0.93
370.886	1.15
371.254	1.3
371.621	1.11
371.989	1.38
372.356	1.44
372.724	1.33
373.091	1.4
373.458	1.08
373.826	1.42
374.193	1.28
374.56	1.28
374.927	1.18
375.294	1.28
375.661	1.09
376.028	1.03
376.395	1.42
376.762	1.21
377.129	1.46
377.496	1.45
377.863	1.36
378.229	1.27
378.596	1.31
378.963	1.37
379.329	1.24
379.696	1.16
380.062	1.12
380.429	1.18
380.795	1.07
381.161	1.2
381.528	1.07
381.894	0.71
382.26	1.28
382.626	1.4
382.993	1.5
383.359	0.86
383.725	1.29
384.091	1.02
384.457	1.3
384.823	0.88
385.188	1.49
385.554	1.28
385.92	1.41
386.286	1.37
386.651	1.53
387.017	1.31
387.383	1.35
387.748	1.3
388.114	1.27
388.479	1.37
388.845	1
389.21	0.92
389.575	1.6
389.94	1.2
390.306	1.19
390.671	1.64
391.036	0.99
391.401	1.17
391.766	1.01
392.131	1.26
392.496	1.25
392.861	1.2
393.226	1.48
393.591	1.37
393.956	1.19
394.32	1.13
394.685	1.19
395.05	1.43
395.414	1.17
395.779	1.1
396.143	1.37
396.508	1.17
396.872	1.11
397.236	1.31
397.601	1.15
397.965	1.3
398.329	1.14
398.694	1.19
399.058	1.12
399.422	1.24
399.786	1.18
400.15	1.23
400.514	1.38
400.878	1.26
401.242	1.41
401.605	1.27
401.969	1.07
402.333	1.29
402.697	1.19
403.06	1.08
403.424	1.4
403.787	1.45
404.151	1.18
404.514	1.42
404.878	1.42
405.241	1.52
405.604	1.31
405.968	1.38
406.331	1.32
406.694	1.22
407.057	1.22
407.42	1.32
407.783	1.22
408.146	1.23
408.509	1.08
408.872	1.22
409.235	1.42
409.598	1.3
409.961	1.42
410.323	1.34
410.686	1.28
411.049	1.48
411.411	1.36
411.774	1.23
412.136	1.23
412.499	1.27
412.861	1.3
413.223	1.21
413.586	1.36
413.948	1.26
414.31	1.15
414.672	1.63
415.035	1.22
415.397	1.45
415.759	1.4
416.121	1.13
416.483	1.24
416.845	1.29
417.206	1.12
417.568	1.28
417.93	1.26
418.292	1.41
418.653	1.18
419.015	1.27
419.377	1.12
419.738	1.29
420.1	1.28
420.461	1.2
420.822	1.31
421.184	1.3
421.545	1.17
421.906	1.22
422.267	1.16
422.629	1.32
422.99	1.17
423.351	1.18
423.712	1.16
424.073	1.19
424.434	1.25
424.795	1.24
425.155	1.24
425.516	1.25
425.877	1.19
426.238	1.06
426.598	1.26
426.959	1.21
427.32	1.3
427.68	1.18
428.041	1.24
428.401	1.3
428.761	1.35
429.122	1.3
429.482	1.28
429.842	1.22
430.202	1.3
430.563	1.44
430.923	1.41
431.283	1.35
431.643	1.33
432.003	1.33
432.363	1.44
432.722	1.41
433.082	1.37
433.442	1.29
433.802	1.45
434.161	1.17
434.521	1.36
434.881	1.26
435.24	1.26
435.6	1.26
435.959	1.19
436.319	1.28
436.678	1.47
437.037	1.45
437.396	1.15
437.756	1.18
438.115	1.32
438.474	1.37
438.833	1.29
439.192	1.13
439.551	1.29
439.91	1.41
440.269	1.34
440.628	1.13
440.987	1.26
441.345	1.39
441.704	1.42
442.063	1.33
442.421	1.26
442.78	1.33
443.138	1.39
443.497	1.24
443.855	1.3
444.214	1.15
444.572	1.33
444.93	1.27
445.288	1.33
445.647	1.46
446.005	1.27
446.363	1.17
446.721	1.25
447.079	1.17
447.437	1.27
447.795	1.45
448.153	1.31
448.51	1.31
448.868	1.21
449.226	1.31
449.584	1.3
449.941	1.24
450.299	1.29
450.656	1.33
451.014	1.44
451.371	1.32
451.729	1.26
452.086	1.21
452.443	1.42
452.801	1.36
453.158	1.22
453.515	1.42
453.872	1.46
454.229	1.24
454.586	1.28
454.943	1.3
455.3	1.36
455.657	1.15
456.014	1.32
456.371	1.36
456.727	1.46
457.084	1.37
457.441	1.25
457.797	1.42
458.154	1.33
458.51	1.34
458.867	1.5
459.223	1.48
459.58	1.47
459.936	1.33
460.292	1.43
460.648	1.55
461.005	1.37
461.361	1.35
461.717	1.22
462.073	1.22
462.429	1.19
462.785	1.31
463.141	1.34
463.496	1.42
463.852	1.45
464.208	1.27
464.564	1.53
464.919	1.3
465.275	1.52
465.631	1.47
465.986	1.43
466.342	1.42
466.697	1.53
467.052	1.31
467.408	1.38
467.763	1.25
468.118	1.57
468.473	1.4
468.829	1.28
469.184	1.43
469.539	1.3
469.894	1.38
470.249	1.43
470.603	1.29
470.958	1.54
471.313	1.41
471.668	1.36
472.023	1.47
472.377	1.39
472.732	1.3
473.086	1.57
473.441	1.27
473.795	1.65
474.15	1.27
474.504	1.28
474.859	1.62
475.213	1.2
475.567	1.33
475.921	1.34
476.275	1.41
476.63	1.37
476.984	1.19
477.338	1.4
477.692	1.37
478.045	1.61
478.399	1.5
478.753	1.29
479.107	1.38
479.461	1.37
479.814	1.45
480.168	1.47
480.521	1.38
480.875	1.51
481.228	1.46
481.582	1.21
481.935	1.3
482.289	1.39
482.642	1.37
482.995	1.51
483.348	1.37
483.701	1.37
484.055	1.26
484.408	1.33
484.761	1.37
485.114	1.32
485.466	1.22
485.819	1.23
486.172	1.29
486.525	1.26
486.878	1.26
487.23	1.31
487.583	1.32
487.936	1.35
488.288	1.3
488.641	1.28
488.993	1.27
489.345	1.28
489.698	1.29
490.05	1.26
490.402	1.34
490.754	1.29
491.107	1.3
491.459	1.34
491.811	1.38
492.163	1.38
492.515	1.27
492.866	1.4
493.218	1.4
493.57	1.35
493.922	1.3
494.274	1.33
494.625	1.37
494.977	1.41
495.328	1.46
495.68	1.45
496.031	1.33
496.383	1.37
496.734	1.35
497.086	1.38
497.437	1.5
497.788	1.41
498.139	1.51
498.49	1.56
498.842	1.3
499.193	1.31
499.544	1.39
499.894	1.38
500.245	1.46
500.596	1.44
500.947	1.44
501.298	1.39
501.648	1.52
501.999	1.46
502.35	1.46
502.7	1.51
503.051	1.41
503.401	1.35
503.752	1.45
504.102	1.47
504.452	1.43
504.803	1.45
505.153	1.46
505.503	1.39
505.853	1.59
506.203	1.46
506.553	1.43
506.903	1.42
507.253	1.32
507.603	1.43
507.953	1.53
508.303	1.5
508.652	1.41
509.002	1.52
509.352	1.3
509.701	1.52
510.051	1.53
510.4	1.46
510.75	1.47
511.099	1.41
511.449	1.61
511.798	1.43
512.147	1.45
512.496	1.37
512.846	1.46
513.195	1.57
513.544	1.57
513.893	1.49
514.242	1.42
514.591	1.57
514.939	1.51
515.288	1.48
515.637	1.45
515.986	1.39
516.334	1.43
516.683	1.38
517.032	1.52
517.38	1.52
517.729	1.45
518.077	1.58
518.426	1.54
518.774	1.57
519.122	1.45
519.47	1.44
519.819	1.54
520.167	1.51
520.515	1.45
520.863	1.42
521.211	1.45
521.559	1.49
521.907	1.42
522.255	1.46
522.602	1.55
522.95	1.42
523.298	1.64
523.645	1.61
523.993	1.41
524.341	1.53
524.688	1.45
525.036	1.52
525.383	1.45
525.73	1.54
526.078	1.49
526.425	1.61
526.772	1.56
527.119	1.46
527.466	1.42
527.814	1.42
528.161	1.43
528.508	1.37
528.854	1.53
529.201	1.48
529.548	1.47
529.895	1.46
530.242	1.34
530.588	1.43
530.935	1.34
531.282	1.37
531.628	1.45
531.975	1.4
532.321	1.39
532.667	1.48
533.014	1.5
533.36	1.47
533.706	1.5
534.052	1.56
534.399	1.52
534.745	1.53
535.091	1.4
535.437	1.44
535.783	1.39
536.129	1.42
536.474	1.46
536.82	1.36
537.166	1.59
537.512	1.57
537.857	1.47
538.203	1.52
538.549	1.48
538.894	1.44
539.239	1.43
539.585	1.46
539.93	1.61
540.276	1.45
540.621	1.56
540.966	1.52
541.311	1.57
541.656	1.43
542.001	1.6
542.346	1.53
542.691	1.6
543.036	1.47
543.381	1.48
543.726	1.43
544.071	1.44
544.415	1.49
544.76	1.44
545.105	1.44
545.449	1.46
545.794	1.57
546.138	1.5
546.483	1.51
546.827	1.46
547.171	1.55
547.516	1.51
547.86	1.58
548.204	1.52
548.548	1.58
548.892	1.58
549.236	1.52
549.58	1.49
549.924	1.59
550.268	1.68
550.612	1.64
550.956	1.64
551.3	1.57
551.643	1.74
551.987	1.67
552.33	1.64
552.674	1.63
553.017	1.51
553.361	1.59
553.704	1.68
554.048	1.58
554.391	1.69
554.734	1.72
555.077	1.63
555.42	1.59
555.764	1.58
556.107	1.6
556.45	1.55
556.793	1.53
557.135	1.69
557.478	1.37
557.821	1.55
558.164	1.78
558.507	1.75
558.849	1.55
559.192	1.59
559.534	1.61
559.877	1.58
560.219	1.66
560.562	1.71
560.904	1.86
561.246	1.8
561.589	1.57
561.931	1.63
562.273	1.58
562.615	1.34
562.957	1.6
563.299	1.7
563.641	1.58
563.983	1.81
564.325	1.6
564.667	1.71
565.008	1.68
565.35	1.66
565.692	1.67
566.033	1.63
566.375	1.9
566.716	1.58
567.058	1.73
567.399	1.76
567.741	1.89
568.082	1.62
568.423	1.73
568.764	1.81
569.105	1.56
569.447	1.69
569.788	1.6
570.129	1.68
570.47	1.81
570.811	1.65
571.151	1.58
571.492	1.6
571.833	1.69
572.174	1.69
572.514	1.69
572.855	1.75
573.195	1.4
573.536	1.68
573.876	1.52
574.217	1.58
574.557	1.5
574.898	1.7
575.238	1.65
575.578	1.62
575.918	1.74
576.258	1.54
576.598	1.68
576.938	1.6
577.278	1.67
577.618	1.51
577.958	1.83
578.298	1.84
578.638	1.69
578.977	1.71
579.317	1.77
579.657	1.73
579.996	1.75
580.336	1.72
580.675	1.7
581.014	1.52
581.354	1.59
581.693	1.88
582.032	1.83
582.372	1.78
582.711	1.83
583.05	1.76
583.389	1.59
583.728	1.75
584.067	1.7
584.406	1.91
584.745	1.67
585.083	1.69
585.422	2.06
585.761	1.84
586.1	1.76
586.438	2.03
586.777	1.86
587.115	1.82
587.454	1.67
587.792	1.65
588.13	1.89
588.469	1.64
588.807	1.84
589.145	1.91
589.483	1.7
589.821	1.83
590.159	1.96
590.497	1.94
590.835	1.87
591.173	1.76
591.511	1.85
591.849	1.85
592.187	1.71
592.524	1.85
592.862	1.89
593.2	1.85
593.537	1.54
593.875	1.81
594.212	1.68
594.55	2.05
594.887	1.68
595.224	1.88
595.561	2.03
595.899	1.89
596.236	1.97
596.573	1.97
596.91	1.81
597.247	1.63
597.584	2.05
597.921	1.93
598.258	1.88
598.594	1.89
598.931	1.77
599.268	1.84
599.604	2.03
599.941	1.83
600.277	1.68
600.614	1.88
600.95	1.88
601.287	1.85
601.623	1.68
601.959	2.03
602.296	1.74
602.632	1.51
602.968	1.73
603.304	1.91
603.64	1.62
603.976	1.87
604.312	1.76
604.648	2.02
604.984	1.84
605.319	1.85
605.655	1.68
605.991	1.73
606.326	1.88
606.662	1.87
606.998	1.64
607.333	1.81
607.668	1.85
608.004	1.87
608.339	1.78
608.674	1.91
609.01	1.81
609.345	1.72
609.68	1.95
610.015	1.93
610.35	1.87
610.685	1.98
611.02	1.63
611.355	1.96
611.689	1.84
612.024	1.92
612.359	1.88
612.694	1.96
613.028	1.81
613.363	1.73
613.697	1.92
614.032	1.87
614.366	1.95
614.7	1.8
615.035	1.98
615.369	1.88
615.703	1.53
616.037	1.83
616.371	1.81
616.705	2.2
617.039	1.93
617.373	1.73
617.707	2
618.041	2.04
618.375	1.85
618.709	1.75
619.042	1.98
619.376	2.11
619.71	1.92
620.043	1.82
620.377	1.74
620.71	1.97
621.043	2.13
621.377	1.8
621.71	2.18
622.043	1.94
622.376	2.3
622.709	1.69
623.043	2.05
623.376	1.97
623.709	2.14
624.041	1.64
624.374	2
624.707	1.92
625.04	2.31
625.373	1.48
625.705	1.95
626.038	1.97
626.37	2
626.703	2
627.035	2.06
627.368	1.86
627.7	2.3
628.032	2.17
628.365	2.06
628.697	1.95
629.029	1.92
629.361	1.93
629.693	1.88
630.025	2.1
630.357	1.73
630.689	2.13
631.021	1.66
631.353	1.7
631.684	2.04
632.016	1.91
632.348	2.14
632.679	1.8
633.011	1.7
633.342	2.15
633.674	2.2
634.005	1.82
634.336	2.17
634.668	1.82
634.999	1.97
635.33	2.15
635.661	2.16
635.992	1.94
636.323	1.63
636.654	1.91
636.985	1.64
637.316	1.9
637.647	1.94
637.977	1.79
638.308	2.65
638.639	1.8
638.969	2.15
639.3	1.98
639.63	2.2
639.961	1.77
640.291	1.73
640.622	2.15
640.952	2.28
641.282	2.12
641.612	2.08
641.943	2.24
642.273	1.74
642.603	1.77
642.933	2.23
643.263	1.64
643.592	1.84
643.922	2.4
644.252	1.9
644.582	2.48
644.911	2.37
645.241	1.93
645.571	1.98
645.9	2.5
646.23	2.44
646.559	2.11
646.888	2.3
647.218	2.18
647.547	2.07
647.876	1.83
648.205	1.89
648.534	2.57
648.863	1.89
649.192	1.95
649.521	2.31
649.85	2.16
650.179	2.15
650.508	1.79
650.837	2.16
651.165	1.88
651.494	1.92
651.822	1.96
652.151	1.76
652.479	2.09
652.808	2.07
653.136	2.55
653.465	2.19
653.793	2.27
654.121	2.47
654.449	1.61
654.777	1.88
655.105	2.33
655.433	2.1
655.761	2.38
656.089	2.25
656.417	1.98
656.745	1.77
657.073	2.17
657.4	2.68
657.728	1.91
658.056	1.79
658.383	2.33
658.711	2.16
659.038	1.65
659.365	2.02
659.693	1.81
660.02	2.38
660.347	2.45
660.674	2.07
661.001	1.79
661.329	1.9
661.656	2.05
661.982	1.65
662.309	2.3
662.636	2.12
662.963	2.01
663.29	2.03
663.616	2.23
663.943	2.33
664.27	2.34
664.596	2.31
664.923	1.88
665.249	1.99
665.576	1.78
665.902	2.04
666.228	1.93
666.554	1.8
666.881	2.39
667.207	2.04
667.533	1.9
667.859	2.95
668.185	2.2
668.511	2.46
668.837	2.21
669.162	2.53
669.488	1.78
669.814	2.37
670.139	2.25
670.465	2.98
670.791	2.95
671.116	1.71
671.442	2.98
671.767	1.51
672.092	2.49
672.418	3.1
672.743	2.51
673.068	2.32
673.393	1.91
673.718	2.92
674.043	2.87
674.368	2.51
674.693	2.01
675.018	1.98
675.343	2.44
675.667	2.43
675.992	1.91
676.317	2.58
676.641	2.47
676.966	2.68
677.29	2.5
677.615	2.77
677.939	3.04
678.264	2.42
678.588	2.93
678.912	2.39
679.236	2.41
679.56	2.55
679.885	2
680.209	2.63
680.532	1.71
680.856	2.14
681.18	2.38
681.504	2.22
681.828	2.11
682.152	2.03
682.475	2.73
682.799	2.33
683.122	1.86
683.446	2.07
683.769	2.49
684.093	2.84
684.416	2.57
684.739	2.63
685.062	2.72
685.386	2.2
685.709	2.17
686.032	1.96
686.355	2.8
686.678	2.61
687.001	2.51
687.324	3.32
687.646	2.56
687.969	3.44
688.292	2.4
688.614	2.8
688.937	2.74
689.26	2.47
689.582	2.81
689.904	2.59
690.227	3.18
690.549	3.18
690.871	1.94
691.194	2.87
691.516	2.23
691.838	3.15
692.16	1.9
692.482	2.48
692.804	1.61
693.126	1.46
693.448	2.39
693.769	1.97
694.091	2.47
694.413	2.92
694.735	2.65
695.056	2.75
695.378	3.05
695.699	2.58
696.021	2.22
696.342	3.49
696.663	1.83
696.984	2.53
697.306	2.54
697.627	1.47
697.948	2.62
698.269	2.67
698.59	2.35
698.911	2.57
699.232	2.69
699.553	1.88
699.873	2.71
700.194	2.43
700.515	1.82
700.835	2.91
701.156	2.3
701.477	2.97
701.797	2.32
702.117	2.57
702.438	2.48
702.758	2.36
703.078	2.73
703.398	3.33
703.719	2.75
704.039	3.08
704.359	2.81
704.679	1.66
704.999	2.2
705.319	3.42
705.638	2.74
705.958	2.8
706.278	3.46
706.597	2.79
706.917	2.38
707.237	2.32
707.556	2.24
707.876	2.16
708.195	3.24
708.514	2.21
708.834	1.71
709.153	3.15
709.472	2.22
709.791	2.19
710.11	2.63
710.429	3.18
710.748	2.64
711.067	2.35
711.386	3.24
711.705	2.28
712.023	2.25
712.342	3.36
712.661	3.81
712.979	2.03
713.298	4.86
713.616	2.71
713.935	3.26
714.253	3.9
714.572	4.07
714.89	3.68
715.208	3.33
715.526	2.9
715.844	2.9
716.162	1.31
716.48	3.1
716.798	2.68
717.116	3.32
717.434	2.86
717.752	3.32
718.069	2.13
718.387	3.16
718.705	2.42
719.022	3.44
719.34	2.7
719.657	1.96
719.975	3.51
720.292	2.18
720.609	2.79
720.927	3.15
721.244	2.55
721.561	3.88
721.878	1.99
722.195	2.45
722.512	3.24
722.829	3.65
723.146	3.34
723.463	2.44
723.779	2.81
724.096	2.01
724.413	4.1
724.729	3.25
725.046	2.94
725.362	2.61
725.679	2.5
725.995	4.23
726.311	2.08
726.628	2.51
726.944	2.83
727.26	2.7
727.576	2.68
727.892	3.07
728.208	2.92
728.524	3.84
728.84	1.42
729.156	3.57
729.472	3.9
729.787	4
730.103	1.74
730.419	2.77
730.734	2.4
731.05	2.01
731.365	3.85
731.681	2.89
731.996	2.6
732.311	3
732.626	2.96
732.942	2.9
733.257	2.55
733.572	3.11
733.887	2.44
734.202	3.25
734.517	1.75
734.832	3.47
735.146	2.39
735.461	3.25
735.776	3.19
736.091	3.67
736.405	3.7
736.72	2.97
737.034	3.86
737.349	1.47
737.663	2.4
737.977	3.79
738.292	3.03
738.606	3.28
738.92	2.9
739.234	2.48
739.548	4.46
739.862	1.09
740.176	4.94
740.49	2.66
740.804	1.99
741.117	3.3
741.431	2.68
741.745	3.42
742.058	4.6
742.372	1.37
742.685	2.99
742.999	4.62
743.312	3.93
743.626	2.5
743.939	2.2
744.252	2.73
744.565	1.61
744.878	2.58
745.191	2.37
745.505	2.74
745.817	3.52
746.13	7.56
746.443	3.35
746.756	4.12
747.069	3.76
747.381	-1.6
747.694	2.89
748.007	4
748.319	2.12
748.632	2.53
748.944	5.39
749.256	4.79
749.569	3.82
749.881	4.52
750.193	4.17
750.505	5.24
750.817	4.69
751.129	2.23
751.441	4.26
751.753	4.21
752.065	6.85
752.377	3.83
752.689	2
753	2.15
753.312	2.6
753.624	3.25
753.935	3.82
754.247	3.85
754.558	5.53
754.869	2.95
755.181	0.78
755.492	2.17
755.803	5.29
756.114	3.37
756.425	5.18
756.736	2.82
757.047	3.13
757.358	3.05
757.669	3.39
757.98	3.29
758.291	1.93
758.601	4.85
758.912	3.57
759.223	6.23
759.533	4.59
759.844	4.67
760.154	4.09
760.464	1.82
760.775	3.9
761.085	4.2
761.395	3.79
761.705	3.47
762.016	1.74
762.326	3.96
762.636	4.83
762.945	1.82
763.255	4.22
763.565	4.28
763.875	2.87
764.185	3.77
764.494	4.8
764.804	3.32
765.113	2.87
765.423	4.06
765.732	3.03
766.042	3.41
766.351	3.34
766.66	3.77
766.97	3.21
767.279	3.84
767.588	3.18
767.897	3.34
768.206	3.85
768.515	3.52
768.824	5.46
769.133	3.93
769.441	4.9
769.75	5.35
770.059	7.17
770.367	2.99
770.676	5.11
770.984	1.89
771.293	5.36
771.601	5.33
771.91	5.77
772.218	3.73
772.526	5.31
772.834	3.54
773.142	3.49
773.45	5.91
773.758	3.45
774.066	3.4
774.374	3.04
774.682	2.66
774.99	3.6
775.298	3.19
775.605	5.09
775.913	7.49
776.22	1.27
776.528	2.48
776.835	2.78
777.143	6.56
777.45	5.29
777.757	1.51
778.065	1.4
778.372	4.42
778.679	7.14
778.986	4.31
779.293	2.88
779.6	5.39
779.907	3
780.214	8.53
780.52	1.44
780.827	7.27
781.134	7.33
781.44	3.85
781.747	5
782.053	3.57
782.36	7.94
782.666	2.39
782.973	5.25
783.279	2.38
783.585	4.34
783.891	3.87
784.197	6.49
784.503	0.5
784.809	2.66
785.115	2.77
785.421	9.17
785.727	3.21
786.033	5.61
786.339	3.34
786.644	6.12
786.95	1.72
787.255	7.03
787.561	1.26
787.866	4.61
788.172	6.87
788.477	2.91
788.782	2.98
789.088	4.48
789.393	2.57
789.698	3.67
790.003	7.92
790.308	2.67
790.613	4.63
790.918	5.86
791.223	1.06
791.527	0.01
791.832	6.36
792.137	2.55
792.441	6.27
792.746	5.08
793.05	3.84
793.355	7.42
793.659	7.98
793.963	7.23
794.268	5.18
794.572	1.17
794.876	5.46
795.18	5
795.484	6.88
795.788	-1.23
796.092	8.53
796.396	7.16
796.7	8.35
797.004	5.24
797.307	-3.88
797.611	3.76
797.915	6.1
798.218	4.52
798.522	9.12
798.825	3.89
799.128	4.01
799.432	5.45
799.735	6.75
800.038	7.96
800.341	7.88
800.644	4.93
800.947	6.28
801.25	3.58
801.553	8.13
801.856	7.27
802.159	0.45
802.462	0.24
802.764	5.17
803.067	6.09
803.37	7.7
803.672	1.87
803.975	4.08
804.277	5.14
804.579	8.36
804.882	1.82
805.184	2.87
805.486	4.59
805.788	11.88
806.09	10.02
806.392	3.71
806.694	1.43
806.996	7.06
807.298	6.75
807.6	11.06
807.902	6.24
808.203	2.85
808.505	7.05
808.807	5.86
809.108	8.94
809.409	12.25
809.711	5.59
810.012	8.76
810.313	1.2
810.615	6.8
810.916	0.32
811.217	4.14
811.518	9.21
811.819	14.86
812.12	5.69
812.421	9.69
812.722	6.08
813.023	2.81
813.323	4.86
813.624	9.45
813.925	4.59
814.225	13.79
814.526	9.04
814.826	9.91
815.126	6.82
815.427	5.05
815.727	5.56
816.027	1.41
816.327	1.33
816.627	4.14
816.927	8.64
817.227	6.94
817.527	9.12
817.827	7.31
818.127	2.07
818.427	13.57
818.727	6.92
819.026	14.29
819.326	8.06
819.625	4.49
819.925	8.51
820.224	10.16
820.524	6.6
820.823	1.71
821.122	-3.26
821.421	8.76
821.72	11.38
822.019	8.28
822.318	4.41
822.617	1.67
822.916	3.68
823.215	4.18
823.514	5.7
823.813	11.21
824.111	4.61
824.41	5.63
824.709	4.41
825.007	4.34
825.306	3.66
825.604	3.09
825.902	5.77
826.201	5.33
826.499	4.92
826.797	4.34
827.095	6.78
827.393	5.85
827.691	5.32
827.989	3.53
828.287	5.28
828.585	5.62
828.882	5.81
829.18	5.87
829.478	3.89
829.775	4.16
830.073	2.23
830.37	4.11
830.668	6.5
830.965	5.35
831.263	3.42
831.56	4.74
831.857	5.83
832.154	9.19
832.451	6.51
832.748	8.18
833.045	10.64
833.342	9.4
833.639	7.14
833.936	10.52
834.232	2.65
834.529	8.97
834.826	4.92
835.122	13.12
835.419	8.76
835.715	9.47
836.012	5.24
836.308	10.76
836.604	11
836.901	3.08
837.197	7.46
837.493	6.85
837.789	4.63
838.085	2.88
838.381	2.9
838.677	4.34
838.972	8.54
839.268	9.04
839.564	7.69
839.86	6.98
840.155	3.88
840.451	9.61
840.746	16.03
841.042	9.77
841.337	7.9
841.632	6.12
841.928	12.09
842.223	6.54
842.518	12.52
842.813	12.69
843.108	-0.56
843.403	5.8
843.698	10.52
843.993	6.57
844.287	12.31
844.582	7.52
844.877	2.69
845.171	13.77
845.466	18.08
845.761	2.86
846.055	13.5
846.349	11.49
846.644	7.19
846.938	1.2
847.232	13.33
847.526	9.6
847.82	3.51
848.114	8.18
848.408	8.8
848.702	16.26
848.996	9.87
849.29	8.31
849.584	29.03
849.877	8.19
850.171	9.36
850.465	4.23
850.758	11.27
851.052	2.68
851.345	7.11
851.638	14.5
851.932	37.94
852.225	13.33
852.518	20.26
852.811	6.4
853.104	29.04
853.397	13.1
853.69	3.25
853.983	21.87
854.276	9.94
854.569	6.39
854.861	6.97
855.154	20.98
855.447	25.21
855.739	6.78
856.032	15.31
856.324	24.61
856.616	20.95
856.909	10.67
857.201	-12.44
857.493	21.32
857.785	17.61
858.077	15.88
858.369	22.07
858.661	18.51
858.953	19.37
859.245	24.39
859.537	-0.49
859.829	-4.5
860.12	18.18
860.412	7.65
860.703	-10.1
860.995	-0.38
861.286	0.78
861.578	21.64
861.869	2.7
862.16	13.29
862.452	-19.74
862.743	6.75
863.034	28.15
863.325	22.61
863.616	22.77
863.907	-5.89
864.198	7.51
864.488	-8.26
864.779	0.81
865.07	14.75
865.36	16.65
865.651	13.65
865.941	15.52
866.232	26.07
866.522	7.35
866.813	9.77
867.103	3.28
867.393	5.21
867.683	22.78
867.973	33.2
868.263	6.36
868.553	-24.29
868.843	32.87
869.133	35.81
869.423	16.61
869.713	30.86
870.002	14.6
870.292	15.54
870.582	0.34
870.871	-3.52
871.161	-0.11
871.45	-18.2
871.739	13.97
872.029	-1.34
872.318	8.82
872.607	13.61
872.896	19.42
873.185	12.86
873.474	32.8
873.763	-5.81
874.052	27.37
874.341	16
874.63	-1.88
874.918	-6.07
875.207	45.09
875.496	5.1
875.784	-8.64
876.073	6.7
876.361	5.59
876.649	-6.27
876.938	38.65
877.226	13.49
877.514	21.74
877.802	-18.46
878.09	13.96
878.378	40.36
878.666	26.36
878.954	20.44
879.242	13.92
879.53	26.79
879.817	12.95
880.105	-35.05
880.392	-30.25
880.68	29.27
880.967	32.18
881.255	7.51
881.542	16.82
881.83	27.11
882.117	13.99
882.404	-4.99
882.691	3.4
882.978	-4.22
883.265	-15.94
883.552	6.95
883.839	4.32
884.126	30.98
884.413	2.18
884.699	24.56
884.986	10.92
885.273	4.68
885.559	4.68
885.846	4.68
