Data from 0141_forehead_Reflection__4__14.txt Node

Date: Fri Sep 22 20:27:48 CDT 2023
User: ToomeyLab
Spectrometer: FLMS14357
Trigger mode: 0
Integration Time (sec): 1.000000E-2
Scans to average: 100
Electric dark correction enabled: true
Nonlinearity correction enabled: false
Boxcar width: 0
XAxis mode: Wavelengths
Number of Pixels in Spectrum: 2048
>>>>>Begin Spectral Data<<<<<
189.047	112.21
189.435	112.21
189.823	112.21
190.211	11.93
190.599	164.43
190.987	12.55
191.375	-143.88
191.763	-13.16
192.151	29.32
192.538	-337.27
192.926	114.05
193.314	172.51
193.702	-778.98
194.089	218.71
194.477	408.06
194.864	3
195.252	-115.05
195.639	81.04
196.027	26.58
196.414	436.56
196.801	79.82
197.189	491.15
197.576	114.63
197.963	156.86
198.351	35.21
198.738	36.41
199.125	16.69
199.512	22.41
199.899	49.82
200.286	-0.15
200.673	49.55
201.06	15.67
201.447	65.42
201.833	-96.62
202.22	111.56
202.607	61.09
202.994	33.45
203.38	9.08
203.767	68.13
204.154	68.81
204.54	37.13
204.927	14.94
205.313	38.33
205.699	52.19
206.086	16.28
206.472	52.59
206.858	36.22
207.245	35.7
207.631	40.81
208.017	53.24
208.403	14.64
208.789	56.51
209.175	24.04
209.561	45.58
209.947	30.79
210.333	30.74
210.719	21.01
211.105	22.39
211.491	47.21
211.876	41.57
212.262	31.19
212.648	29.71
213.034	32.25
213.419	39.36
213.805	24.68
214.19	-1.17
214.576	20.6
214.961	62.58
215.346	24.77
215.732	34.34
216.117	-1.23
216.502	24.13
216.888	37.34
217.273	24.59
217.658	-12
218.043	30.59
218.428	42.61
218.813	2.12
219.198	8.65
219.583	14.95
219.968	-3.11
220.353	35.06
220.738	20.35
221.122	-0.55
221.507	6.42
221.892	12.15
222.276	24.6
222.661	-2.47
223.046	17.46
223.43	19.04
223.815	9.7
224.199	-0.95
224.583	11.66
224.968	14.02
225.352	1.09
225.736	11.14
226.121	8.94
226.505	12.71
226.889	7.48
227.273	10.71
227.657	6.9
228.041	10.15
228.425	6.84
228.809	7.66
229.193	3.73
229.577	4.89
229.961	4.62
230.344	5.71
230.728	1.81
231.112	3.13
231.495	2.31
231.879	4.34
232.263	2.36
232.646	3.63
233.03	1.55
233.413	3.65
233.797	3.09
234.18	3.55
234.563	3.53
234.946	4
235.33	0.01
235.713	0.97
236.096	3.2
236.479	2.79
236.862	5.42
237.245	3.25
237.628	3.27
238.011	2.88
238.394	2.57
238.777	5.2
239.16	4.21
239.543	4.44
239.925	6.78
240.308	3.87
240.691	4.31
241.073	6.44
241.456	3.33
241.838	4.14
242.221	3.08
242.603	3
242.986	2.81
243.368	2.55
243.75	2.92
244.133	3.59
244.515	2.58
244.897	2.38
245.279	3.02
245.661	3.21
246.043	3.75
246.425	2.92
246.807	2.95
247.189	2.48
247.571	2.93
247.953	4.03
248.335	2.99
248.717	2.63
249.098	2.74
249.48	2.53
249.862	2.49
250.243	2.76
250.625	2.98
251.006	2.32
251.388	3.59
251.769	3.76
252.151	2.95
252.532	3.62
252.913	3.64
253.295	4.07
253.676	3.68
254.057	3.58
254.438	3.56
254.819	2.55
255.2	3.15
255.581	3.86
255.962	4.4
256.343	3.29
256.724	2.31
257.105	3.99
257.486	4.03
257.867	3.57
258.247	3.33
258.628	3.25
259.009	3
259.389	2.96
259.77	3.63
260.15	3.55
260.531	3.02
260.911	2.67
261.292	2.43
261.672	2.63
262.052	2.61
262.432	2.53
262.813	3.15
263.193	2.78
263.573	3.47
263.953	2.7
264.333	3.37
264.713	3.42
265.093	2.95
265.473	3.12
265.853	2.8
266.233	3.19
266.612	3.22
266.992	3.21
267.372	2.89
267.752	3.77
268.131	3.03
268.511	2.48
268.89	3.29
269.27	3.12
269.649	3.02
270.029	3.26
270.408	3.13
270.787	2.62
271.167	3.16
271.546	2.31
271.925	2.92
272.304	2.45
272.683	2.34
273.062	3.45
273.441	2.53
273.82	3.24
274.199	3.14
274.578	2.7
274.957	2.73
275.336	2.78
275.715	2.48
276.093	2.68
276.472	2.87
276.851	2.66
277.229	2
277.608	3.34
277.986	2.69
278.365	2.89
278.743	3.34
279.122	2.47
279.5	3.4
279.878	2.22
280.257	3.48
280.635	3.11
281.013	3.27
281.391	3.1
281.769	2.83
282.147	3.03
282.525	2.83
282.903	3.13
283.281	3.45
283.659	2.64
284.037	2.71
284.415	3.07
284.792	2.96
285.17	3.31
285.548	3.56
285.925	3.02
286.303	2.93
286.68	2.48
287.058	2.57
287.435	2.84
287.813	2.7
288.19	2.44
288.567	3
288.945	2.82
289.322	2.99
289.699	3.16
290.076	2.98
290.453	2.43
290.83	2.45
291.207	2.88
291.584	2.53
291.961	2.69
292.338	2.61
292.715	2.99
293.092	2.66
293.469	3.09
293.845	3.19
294.222	3.61
294.599	3.69
294.975	3.37
295.352	3.45
295.728	3.22
296.105	3.49
296.481	3.44
296.858	3.49
297.234	3.44
297.61	3.37
297.986	3.31
298.363	3.46
298.739	3.5
299.115	3.52
299.491	3.56
299.867	3.8
300.243	3.28
300.619	3.6
300.995	3.76
301.371	4.04
301.746	3.81
302.122	3.43
302.498	3.75
302.874	3.71
303.249	3.65
303.625	3.88
304	4.22
304.376	4
304.751	3.95
305.127	4.4
305.502	4.43
305.878	3.97
306.253	4.33
306.628	4.13
307.003	4.24
307.378	4.6
307.754	4.74
308.129	4.47
308.504	4.61
308.879	4.66
309.254	4.65
309.629	4.8
310.003	4.95
310.378	5.2
310.753	4.79
311.128	4.43
311.502	5.08
311.877	4.12
312.252	4.89
312.626	4.78
313.001	4.73
313.375	4.93
313.75	4.93
314.124	5.65
314.498	5.13
314.873	5.07
315.247	5.38
315.621	5.44
315.995	5.65
316.369	5.66
316.743	5.22
317.117	5.79
317.491	5.75
317.865	5
318.239	6.13
318.613	5.97
318.987	5.63
319.361	5.47
319.734	5.9
320.108	6.58
320.482	5.77
320.855	5.56
321.229	6.48
321.602	6.51
321.976	5.55
322.349	6.32
322.723	6.7
323.096	6.69
323.469	6.41
323.843	5.83
324.216	6.91
324.589	5.99
324.962	6.43
325.335	6.35
325.708	6.49
326.081	6.8
326.454	6.19
326.827	7.13
327.2	6.8
327.573	7.31
327.945	7.03
328.318	6.77
328.691	7
329.063	6.61
329.436	7.02
329.809	7.25
330.181	7.49
330.553	6.87
330.926	7.06
331.298	7.28
331.671	7.5
332.043	7.21
332.415	7.15
332.787	7.42
333.159	7.83
333.532	6.97
333.904	7.14
334.276	7.16
334.648	7.06
335.02	7.41
335.391	7.95
335.763	8.2
336.135	8.12
336.507	7.68
336.879	7.38
337.25	7.76
337.622	7.74
337.993	7.5
338.365	8.39
338.736	7.9
339.108	8.29
339.479	7.96
339.851	7.41
340.222	7.53
340.593	7.72
340.964	7.45
341.336	8.39
341.707	7.74
342.078	8.45
342.449	8.47
342.82	8.29
343.191	7.81
343.562	8.31
343.933	8.52
344.303	8.29
344.674	8.68
345.045	8.4
345.416	8.71
345.786	8.53
346.157	8.39
346.527	8.37
346.898	8.6
347.268	8.46
347.639	8.41
348.009	8.43
348.38	8.7
348.75	8.61
349.12	8.76
349.49	8.76
349.861	8.95
350.231	8.98
350.601	9.25
350.971	9.06
351.341	8.88
351.711	9.32
352.081	9.03
352.45	8.71
352.82	9.14
353.19	9.69
353.56	9.1
353.929	9.27
354.299	9.47
354.669	9.32
355.038	9.43
355.408	9.37
355.777	10.1
356.147	9.59
356.516	9.83
356.885	9.5
357.254	9.54
357.624	9.38
357.993	9.71
358.362	9.59
358.731	9.6
359.1	9.8
359.469	9.77
359.838	9.69
360.207	9.64
360.576	10.15
360.945	9.67
361.314	9.95
361.682	10.28
362.051	10.09
362.42	9.94
362.788	9.79
363.157	10.08
363.525	9.88
363.894	9.97
364.262	9.8
364.631	10.11
364.999	10.29
365.367	10.71
365.735	10.31
366.104	10.6
366.472	10.76
366.84	10.64
367.208	10.87
367.576	10.71
367.944	10.36
368.312	10.52
368.68	10.67
369.048	10.77
369.416	10.62
369.783	10.54
370.151	10.99
370.519	10.85
370.886	10.91
371.254	11.22
371.621	11.01
371.989	10.78
372.356	10.71
372.724	11.28
373.091	11.23
373.458	11.32
373.826	11.17
374.193	11.23
374.56	11.47
374.927	11.3
375.294	11.3
375.661	11.28
376.028	11.64
376.395	11.51
376.762	11.75
377.129	11.67
377.496	11.6
377.863	12.02
378.229	11.57
378.596	11.5
378.963	11.86
379.329	11.5
379.696	11.66
380.062	11.51
380.429	11.69
380.795	11.96
381.161	11.96
381.528	11.78
381.894	11.69
382.26	12.23
382.626	11.96
382.993	12
383.359	11.72
383.725	12.12
384.091	12.25
384.457	11.89
384.823	11.99
385.188	12.38
385.554	12.26
385.92	12.59
386.286	12.49
386.651	12.22
387.017	12.47
387.383	12.28
387.748	12.52
388.114	12.49
388.479	12.51
388.845	12.31
389.21	12.42
389.575	12.71
389.94	12.59
390.306	12.84
390.671	13.11
391.036	12.61
391.401	13.05
391.766	12.89
392.131	12.95
392.496	12.7
392.861	12.83
393.226	13.08
393.591	13.01
393.956	12.91
394.32	12.86
394.685	13.16
395.05	13.22
395.414	13.52
395.779	13.25
396.143	13.2
396.508	13.12
396.872	13.11
397.236	13.26
397.601	13.41
397.965	13.63
398.329	13.48
398.694	13.58
399.058	13.83
399.422	13.81
399.786	13.72
400.15	13.45
400.514	13.59
400.878	13.31
401.242	14.02
401.605	13.78
401.969	13.86
402.333	13.83
402.697	13.7
403.06	13.89
403.424	14.15
403.787	14.09
404.151	14.18
404.514	14.05
404.878	14.28
405.241	14.41
405.604	14.01
405.968	14.42
406.331	14.02
406.694	14.01
407.057	14.2
407.42	14.18
407.783	14.27
408.146	14.38
408.509	14.3
408.872	14.45
409.235	14.59
409.598	14.5
409.961	14.72
410.323	14.62
410.686	14.67
411.049	14.76
411.411	14.75
411.774	14.48
412.136	14.66
412.499	14.73
412.861	14.92
413.223	14.81
413.586	14.9
413.948	14.95
414.31	14.83
414.672	15.02
415.035	15.04
415.397	15.24
415.759	15.47
416.121	15.1
416.483	15.25
416.845	15.15
417.206	15.09
417.568	15.05
417.93	15.13
418.292	15.09
418.653	15.05
419.015	15.05
419.377	15.05
419.738	15.29
420.1	14.81
420.461	15.13
420.822	14.89
421.184	15.11
421.545	15.2
421.906	15.21
422.267	15.09
422.629	15.24
422.99	15.09
423.351	15.03
423.712	15.11
424.073	15.23
424.434	15.45
424.795	15.56
425.155	15.62
425.516	15.49
425.877	15.27
426.238	15.27
426.598	15.27
426.959	15.29
427.32	15.53
427.68	15.57
428.041	15.75
428.401	15.92
428.761	16.12
429.122	16.31
429.482	16.32
429.842	16.37
430.202	16.54
430.563	16.57
430.923	16.41
431.283	16.34
431.643	16.57
432.003	16.47
432.363	16.61
432.722	16.63
433.082	16.56
433.442	16.52
433.802	16.66
434.161	16.35
434.521	16.41
434.881	16.46
435.24	16.3
435.6	16.27
435.959	16.31
436.319	16.47
436.678	16.72
437.037	16.7
437.396	16.87
437.756	17
438.115	17.06
438.474	17.14
438.833	17.06
439.192	16.86
439.551	17.02
439.91	17.08
440.269	16.9
440.628	16.86
440.987	16.99
441.345	16.98
441.704	16.89
442.063	16.88
442.421	16.91
442.78	16.93
443.138	16.92
443.497	16.94
443.855	17.18
444.214	17.2
444.572	17.53
444.93	17.46
445.288	17.65
445.647	17.74
446.005	17.52
446.363	17.31
446.721	17.4
447.079	17.14
447.437	17.31
447.795	17.13
448.153	16.96
448.51	17.08
448.868	17.12
449.226	17.18
449.584	17.31
449.941	17.44
450.299	17.62
450.656	18.07
451.014	18.13
451.371	18.04
451.729	18.16
452.086	18.05
452.443	18.32
452.801	18.33
453.158	18.38
453.515	18.41
453.872	18.17
454.229	18.12
454.586	18.18
454.943	18.23
455.3	18.45
455.657	18.39
456.014	18.33
456.371	18.44
456.727	18.58
457.084	18.48
457.441	18.51
457.797	18.56
458.154	18.71
458.51	18.59
458.867	18.79
459.223	18.74
459.58	18.68
459.936	18.74
460.292	18.78
460.648	18.64
461.005	18.63
461.361	18.47
461.717	18.14
462.073	18.2
462.429	18.19
462.785	18.57
463.141	18.66
463.496	18.95
463.852	19.12
464.208	19.09
464.564	19.29
464.919	19.07
465.275	19.23
465.631	19.53
465.986	19.59
466.342	19.41
466.697	19.32
467.052	19.25
467.408	19.47
467.763	19.51
468.118	19.53
468.473	19.32
468.829	19.22
469.184	19.3
469.539	19.36
469.894	19.41
470.249	19.58
470.603	19.37
470.958	19.69
471.313	19.75
471.668	19.76
472.023	19.67
472.377	19.79
472.732	19.91
473.086	19.93
473.441	19.9
473.795	20.06
474.15	19.93
474.504	19.87
474.859	20.13
475.213	19.86
475.567	19.77
475.921	20.17
476.275	20.23
476.63	20.14
476.984	20.23
477.338	20.39
477.692	20.33
478.045	20.4
478.399	20.45
478.753	20.36
479.107	20.22
479.461	20.36
479.814	20.4
480.168	20.48
480.521	20.23
480.875	20.56
481.228	20.46
481.582	20.44
481.935	20.73
482.289	20.51
482.642	20.58
482.995	20.47
483.348	20.6
483.701	20.56
484.055	20.34
484.408	20.34
484.761	20.23
485.114	20.12
485.466	19.58
485.819	19.21
486.172	19.26
486.525	19.61
486.878	19.95
487.23	20.41
487.583	20.53
487.936	20.7
488.288	20.73
488.641	20.61
488.993	20.29
489.345	20.04
489.698	20.01
490.05	20.12
490.402	20.24
490.754	20.47
491.107	20.63
491.459	20.99
491.811	21.18
492.163	21.32
492.515	21.42
492.866	21.23
493.218	20.87
493.57	20.41
493.922	20.38
494.274	20.7
494.625	20.95
494.977	21.28
495.328	21.6
495.68	21.78
496.031	21.76
496.383	22
496.734	22.06
497.086	21.88
497.437	22.12
497.788	21.98
498.139	22.13
498.49	21.86
498.842	21.63
499.193	21.67
499.544	21.86
499.894	21.95
500.245	21.98
500.596	22.2
500.947	22.16
501.298	22.2
501.648	22.4
501.999	22.5
502.35	22.34
502.7	22.4
503.051	22.49
503.401	22.6
503.752	22.66
504.102	22.55
504.452	22.62
504.803	22.69
505.153	22.71
505.503	22.67
505.853	22.69
506.203	22.81
506.553	22.52
506.903	22.84
507.253	22.74
507.603	22.97
507.953	23.04
508.303	22.97
508.652	22.95
509.002	22.96
509.352	22.9
509.701	23.04
510.051	22.8
510.4	22.68
510.75	22.74
511.099	22.7
511.449	22.74
511.798	23.05
512.147	23.01
512.496	23.01
512.846	23.22
513.195	23.46
513.544	23.24
513.893	23.28
514.242	23.17
514.591	23.19
514.939	23.47
515.288	23.39
515.637	23.49
515.986	23.5
516.334	23.73
516.683	23.71
517.032	23.91
517.38	23.9
517.729	24.01
518.077	23.78
518.426	23.99
518.774	24.01
519.122	23.79
519.47	23.84
519.819	23.76
520.167	23.77
520.515	23.46
520.863	23.41
521.211	23.55
521.559	23.73
521.907	23.74
522.255	24.13
522.602	24.17
522.95	24.17
523.298	24.26
523.645	24.39
523.993	24.58
524.341	24.61
524.688	24.47
525.036	24.29
525.383	24.59
525.73	24.75
526.078	24.58
526.425	24.49
526.772	24.61
527.119	24.31
527.466	24.16
527.814	24.05
528.161	24.04
528.508	24.25
528.854	24.49
529.201	24.62
529.548	24.51
529.895	24.35
530.242	23.83
530.588	23.39
530.935	23.45
531.282	23.9
531.628	24.14
531.975	24.26
532.321	24.48
532.667	24.71
533.014	24.77
533.36	24.96
533.706	24.9
534.052	25.05
534.399	24.99
534.745	24.65
535.091	24.39
535.437	24.14
535.783	24.24
536.129	24.57
536.474	25.02
536.82	25.08
537.166	25.39
537.512	25.46
537.857	25.63
538.203	25.43
538.549	25.15
538.894	24.98
539.239	25.1
539.585	25.23
539.93	25.56
540.276	25.7
540.621	25.85
540.966	25.95
541.311	26.06
541.656	26.08
542.001	26.09
542.346	25.96
542.691	25.65
543.036	25.19
543.381	24.67
543.726	24.83
544.071	25.22
544.415	25.41
544.76	25.56
545.105	25.52
545.449	25.65
545.794	25.98
546.138	26.07
546.483	26.21
546.827	26.32
547.171	26.37
547.516	26.33
547.86	26.34
548.204	26.32
548.548	26.3
548.892	26.17
549.236	26.17
549.58	26.46
549.924	26.51
550.268	26.99
550.612	26.94
550.956	27.01
551.3	27.22
551.643	27.23
551.987	27.02
552.33	27.33
552.674	26.93
553.017	27.26
553.361	27.47
553.704	27.16
554.048	27.29
554.391	27.2
554.734	27.04
555.077	26.92
555.42	27.21
555.764	27.2
556.107	27.43
556.45	27.55
556.793	27.47
557.135	27.61
557.478	27.56
557.821	27.57
558.164	27.67
558.507	28.02
558.849	27.87
559.192	27.72
559.534	27.96
559.877	27.83
560.219	28.01
560.562	27.91
560.904	28.01
561.246	28.16
561.589	28.1
561.931	28.09
562.273	28.07
562.615	28.25
562.957	28.22
563.299	28.35
563.641	28.07
563.983	28.23
564.325	28.29
564.667	28.14
565.008	28.34
565.35	28.1
565.692	28.41
566.033	28.49
566.375	28.48
566.716	28.72
567.058	28.5
567.399	28.55
567.741	28.57
568.082	28.18
568.423	28.11
568.764	28.43
569.105	28.42
569.447	28.52
569.788	28.46
570.129	28.8
570.47	28.85
570.811	28.87
571.151	29.04
571.492	28.82
571.833	28.74
572.174	29.07
572.514	29
572.855	29.18
573.195	28.88
573.536	28.8
573.876	28.79
574.217	28.73
574.557	28.89
574.898	29.01
575.238	28.93
575.578	29.3
575.918	29.21
576.258	29.37
576.598	29.26
576.938	29.07
577.278	29.27
577.618	28.96
577.958	29.32
578.298	29.27
578.638	29.26
578.977	29.67
579.317	29.7
579.657	29.8
579.996	29.75
580.336	29.69
580.675	29.88
581.014	29.71
581.354	29.87
581.693	29.96
582.032	30.08
582.372	29.92
582.711	30.15
583.05	30.11
583.389	30.21
583.728	30.09
584.067	30.18
584.406	30.19
584.745	30.16
585.083	30.42
585.422	30.42
585.761	30.56
586.1	30.54
586.438	30.36
586.777	30.38
587.115	30.47
587.454	30.28
587.792	30.44
588.13	30.61
588.469	30.4
588.807	31
589.145	30.76
589.483	30.49
589.821	30.5
590.159	30.77
590.497	30.75
590.835	30.63
591.173	30.7
591.511	30.81
591.849	30.79
592.187	30.71
592.524	30.86
592.862	30.72
593.2	31.15
593.537	30.75
593.875	30.89
594.212	31.11
594.55	31.32
594.887	31.17
595.224	31.11
595.561	31.47
595.899	31.21
596.236	31.28
596.573	31.33
596.91	31.28
597.247	31.22
597.584	31.55
597.921	31.7
598.258	31.32
598.594	31.03
598.931	30.76
599.268	30.9
599.604	31.1
599.941	31.39
600.277	31.18
600.614	31.54
600.95	31.49
601.287	31.91
601.623	31.9
601.959	31.84
602.296	31.83
602.632	31.96
602.968	32.06
603.304	31.88
603.64	31.93
603.976	31.86
604.312	31.65
604.648	32.05
604.984	31.94
605.319	31.45
605.655	31.63
605.991	31.62
606.326	31.88
606.662	31.59
606.998	31.38
607.333	31.54
607.668	31.83
608.004	32.16
608.339	32.05
608.674	32.48
609.01	32.66
609.345	32.53
609.68	32.57
610.015	32.44
610.35	32.33
610.685	32.75
611.02	32.37
611.355	31.87
611.689	32
612.024	32.21
612.359	32.03
612.694	32.35
613.028	32.69
613.363	32.56
613.697	32.48
614.032	33.16
614.366	32.51
614.7	32.69
615.035	32.97
615.369	33.18
615.703	32.89
616.037	33.11
616.371	33.44
616.705	33.19
617.039	32.98
617.373	33.37
617.707	33.12
618.041	33.2
618.375	33.27
618.709	33.74
619.042	33.22
619.376	33.26
619.71	33.11
620.043	32.79
620.377	32.88
620.71	33.28
621.043	33.43
621.377	33.29
621.71	33.69
622.043	33.43
622.376	33.82
622.709	33.45
623.043	33.33
623.376	34.08
623.709	33.55
624.041	33.53
624.374	33.41
624.707	33.85
625.04	34.08
625.373	33.24
625.705	33.57
626.038	33.64
626.37	33.88
626.703	33.71
627.035	33.48
627.368	33.79
627.7	33.77
628.032	33.62
628.365	33.99
628.697	33.59
629.029	34
629.361	33.87
629.693	33.72
630.025	34.07
630.357	34.06
630.689	34.17
631.021	33.79
631.353	33.76
631.684	34.31
632.016	34.21
632.348	34.32
632.679	34.52
633.011	34.46
633.342	34.62
633.674	34.79
634.005	34.59
634.336	34.36
634.668	34.36
634.999	34.36
635.33	34.44
635.661	34.45
635.992	34.19
636.323	34.37
636.654	34.3
636.985	34.9
637.316	34.76
637.647	34.37
637.977	34.99
638.308	34.39
638.639	34.66
638.969	35
639.3	34.49
639.63	35.08
639.961	34.48
640.291	34.64
640.622	34.87
640.952	35.04
641.282	34.6
641.612	34.89
641.943	34.67
642.273	35.34
642.603	35.37
642.933	35.01
643.263	35.04
643.592	34.9
643.922	35.07
644.252	35.39
644.582	35.47
644.911	34.89
645.241	35.27
645.571	35.47
645.9	35.1
646.23	35.12
646.559	35.09
646.888	35.3
647.218	35.59
647.547	35.23
647.876	35.25
648.205	34.79
648.534	35.64
648.863	35.7
649.192	35.33
649.521	35.53
649.85	35.56
650.179	35.53
650.508	35.23
650.837	35.69
651.165	36
651.494	35.54
651.822	35.48
652.151	35.43
652.479	35.81
652.808	35.1
653.136	35.92
653.465	36.02
653.793	35.97
654.121	36.22
654.449	35.27
654.777	35.66
655.105	36.33
655.433	35.9
655.761	36.33
656.089	35.94
656.417	36.13
656.745	36.23
657.073	36.28
657.4	36.3
657.728	36.26
658.056	35.72
658.383	36.23
658.711	35.89
659.038	36.15
659.365	36.42
659.693	35.38
660.02	36.76
660.347	36.53
660.674	36.27
661.001	35.82
661.329	35.68
661.656	36.02
661.982	36.17
662.309	36.4
662.636	36.43
662.963	37.04
663.29	36.73
663.616	36.46
663.943	36.73
664.27	36.7
664.596	36.74
664.923	36.57
665.249	36.6
665.576	36.68
665.902	36.68
666.228	36.7
666.554	36.62
666.881	37.08
667.207	36.82
667.533	36.47
667.859	36.72
668.185	36.77
668.511	36.82
668.837	36.92
669.162	36.77
669.488	37.13
669.814	37.01
670.139	37.11
670.465	37.12
670.791	36.64
671.116	36.71
671.442	36.78
671.767	36.7
672.092	37.77
672.418	37.63
672.743	37.19
673.068	36.92
673.393	37.42
673.718	37.42
674.043	37.42
674.368	37.98
674.693	36.61
675.018	37.3
675.343	37.22
675.667	37.29
675.992	37.02
676.317	37.76
676.641	37.14
676.966	38.08
677.29	37.23
677.615	37.89
677.939	37.28
678.264	37.1
678.588	37.35
678.912	37.95
679.236	37.08
679.56	37.69
679.885	37.36
680.209	38.17
680.532	36.98
680.856	38.08
681.18	38.28
681.504	37.67
681.828	37.63
682.152	37.42
682.475	38.29
682.799	37.52
683.122	37.33
683.446	38
683.769	37.7
684.093	37.64
684.416	38.37
684.739	38.17
685.062	38.58
685.386	37.75
685.709	38.36
686.032	37.93
686.355	38.03
686.678	38.06
687.001	38.03
687.324	38.29
687.646	37.92
687.969	38.37
688.292	38.85
688.614	37.75
688.937	38.32
689.26	37.35
689.582	37.52
689.904	37.92
690.227	38.31
690.549	38.37
690.871	37.57
691.194	38.43
691.516	38.02
691.838	38
692.16	38.77
692.482	38.61
692.804	38.02
693.126	37.74
693.448	38.57
693.769	38.33
694.091	38.76
694.413	40.16
694.735	38.62
695.056	38.27
695.378	38.92
695.699	38.27
696.021	38.55
696.342	38.97
696.663	37.67
696.984	38.51
697.306	38.27
697.627	37.39
697.948	38.86
698.269	38.45
698.59	39.18
698.911	38.65
699.232	39.21
699.553	39.16
699.873	39.29
700.194	39.13
700.515	38.17
700.835	38.73
701.156	38.29
701.477	38.78
701.797	38.78
702.117	38.63
702.438	39.26
702.758	38.6
703.078	38.98
703.398	39.5
703.719	39.3
704.039	40.21
704.359	39.67
704.679	38.24
704.999	39.21
705.319	39.66
705.638	39.85
705.958	39.09
706.278	40.09
706.597	39.14
706.917	39.23
707.237	38.88
707.556	39.74
707.876	38.93
708.195	39.58
708.514	39.2
708.834	38.57
709.153	40.28
709.472	39.03
709.791	38.98
710.11	40.57
710.429	40.07
710.748	39.33
711.067	39.22
711.386	40.07
711.705	39.02
712.023	39.56
712.342	39.07
712.661	40.59
712.979	40.16
713.298	40.11
713.616	39.43
713.935	39.79
714.253	40.14
714.572	39.79
714.89	39.26
715.208	39.45
715.526	40.12
715.844	40.1
716.162	39.21
716.48	39.93
716.798	39.68
717.116	40.48
717.434	39.06
717.752	40.08
718.069	39.63
718.387	39.95
718.705	39.38
719.022	40.28
719.34	40.89
719.657	39.22
719.975	40.49
720.292	40.18
720.609	40.64
720.927	40.01
721.244	39.8
721.561	40.68
721.878	40.71
722.195	40.23
722.512	40.71
722.829	39.62
723.146	40.79
723.463	39.47
723.779	39.97
724.096	40.92
724.413	40.68
724.729	41.72
725.046	40.17
725.362	41.13
725.679	39.61
725.995	40.64
726.311	39.01
726.628	38.97
726.944	38.84
727.26	39.4
727.576	38.64
727.892	39.5
728.208	40.28
728.524	41.56
728.84	40.78
729.156	40.73
729.472	40.71
729.787	41.3
730.103	41
730.419	41.3
730.734	40.21
731.05	40.15
731.365	40.1
731.681	41.4
731.996	41.02
732.311	42.24
732.626	40.52
732.942	42.58
733.257	41.31
733.572	40.51
733.887	40.13
734.202	40.69
734.517	40.27
734.832	40.93
735.146	41.64
735.461	40.74
735.776	39.96
736.091	41.14
736.405	40.55
736.72	40.82
737.034	39.32
737.349	41.79
737.663	40.87
737.977	43.24
738.292	40.86
738.606	40.25
738.92	40.53
739.234	40.8
739.548	40.8
739.862	40.3
740.176	41.66
740.49	39.71
740.804	40.59
741.117	42.09
741.431	38.27
741.745	41.83
742.058	39.59
742.372	40.41
742.685	41.52
742.999	43.25
743.312	41.34
743.626	39.39
743.939	41.37
744.252	41.29
744.565	39.72
744.878	42.38
745.191	41.95
745.505	40.84
745.817	42.31
746.13	41.4
746.443	40.85
746.756	41.57
747.069	40.69
747.381	41.96
747.694	40.58
748.007	40.51
748.319	41.49
748.632	42.71
748.944	42.56
749.256	44
749.569	41.69
749.881	42.21
750.193	41.2
750.505	40.73
750.817	41.64
751.129	42.92
751.441	42.66
751.753	42.47
752.065	44.58
752.377	42.07
752.689	42.49
753	42.89
753.312	43.23
753.624	42.57
753.935	41.57
754.247	40.48
754.558	43.87
754.869	41.97
755.181	40.95
755.492	41.69
755.803	42.11
756.114	41.86
756.425	43.79
756.736	43.44
757.047	40.73
757.358	43.34
757.669	41.5
757.98	41.09
758.291	42.35
758.601	42.99
758.912	42.76
759.223	43.32
759.533	43.26
759.844	42.56
760.154	39.78
760.464	41.08
760.775	42.33
761.085	43.84
761.395	43.15
761.705	43
762.016	41.54
762.326	42.7
762.636	42.77
762.945	42.08
763.255	42.3
763.565	43.08
763.875	42.4
764.185	41.77
764.494	41.84
764.804	41.26
765.113	42.45
765.423	40.58
765.732	42.25
766.042	42.24
766.351	41.65
766.66	43.25
766.97	42.53
767.279	43.36
767.588	42.46
767.897	43.41
768.206	43.93
768.515	42.42
768.824	44.48
769.133	41.78
769.441	44.15
769.75	44.02
770.059	45.16
770.367	43.5
770.676	44.07
770.984	41.21
771.293	43.69
771.601	44.57
771.91	43.02
772.218	43.41
772.526	44.44
772.834	41.93
773.142	43.35
773.45	44.75
773.758	42.38
774.066	41.54
774.374	41.79
774.682	42.03
774.99	43.25
775.298	42.48
775.605	43.24
775.913	42.62
776.22	42.17
776.528	42.25
776.835	42.76
777.143	40.77
777.45	44.28
777.757	43.7
778.065	43.11
778.372	43.35
778.679	46.98
778.986	44.65
779.293	41.1
779.6	42.64
779.907	41.86
780.214	48.09
780.52	43.49
780.827	45.17
781.134	44.29
781.44	42.74
781.747	42.08
782.053	44.92
782.36	45.74
782.666	45.37
782.973	44.27
783.279	44.82
783.585	42.37
783.891	41.63
784.197	44.05
784.503	40.87
784.809	43.13
785.115	41.19
785.421	47.83
785.727	45.97
786.033	46.17
786.339	45.51
786.644	44.24
786.95	40.46
787.255	45.06
787.561	40.22
787.866	42.71
788.172	45.43
788.477	45.99
788.782	47.92
789.088	46.56
789.393	45.16
789.698	47.52
790.003	42.81
790.308	44.03
790.613	45.66
790.918	44.15
791.223	43.97
791.527	42.02
791.832	45.64
792.137	41.6
792.441	43.2
792.746	44.66
793.05	45.65
793.355	45.8
793.659	47.57
793.963	46.1
794.268	45.37
794.572	42.23
794.876	47.42
795.18	47.17
795.484	43.73
795.788	43.78
796.092	45.85
796.396	46.82
796.7	44.31
797.004	44.14
797.307	42.34
797.611	40.93
797.915	42.32
798.218	45.44
798.522	47.55
798.825	45.19
799.128	44.51
799.432	44.37
799.735	46.79
800.038	43.99
800.341	46.35
800.644	46.4
800.947	42.49
801.25	45.25
801.553	46.65
801.856	43.57
802.159	46.92
802.462	44.74
802.764	43.95
803.067	48.8
803.37	44.3
803.672	45.53
803.975	42.75
804.277	45.3
804.579	47.27
804.882	46.52
805.184	51.01
805.486	46.62
805.788	48.8
806.09	46.46
806.392	44.76
806.694	44.65
806.996	44.49
807.298	43.54
807.6	45.55
807.902	47.35
808.203	44.27
808.505	45.74
808.807	44.91
809.108	47.88
809.409	42.45
809.711	43.08
810.012	45.97
810.313	42.11
810.615	49.14
810.916	42.6
811.217	45.68
811.518	48.41
811.819	49.04
812.12	43.86
812.421	42.93
812.722	43.67
813.023	41.72
813.323	49.39
813.624	47.3
813.925	47.38
814.225	50.92
814.526	47.88
814.826	48.47
815.126	45.82
815.427	40.82
815.727	49.77
816.027	40.87
816.327	45.45
816.627	48.93
816.927	50.38
817.227	44.87
817.527	42.36
817.827	49.57
818.127	43.03
818.427	47.04
818.727	45.18
819.026	46.5
819.326	47.64
819.625	51.1
819.925	40.84
820.224	45.46
820.524	48.35
820.823	47.84
821.122	43.58
821.421	46.53
821.72	47.36
822.019	40.12
822.318	48.29
822.617	45.55
822.916	47.57
823.215	44.47
823.514	42.56
823.813	45.79
824.111	49.2
824.41	46
824.709	43.61
825.007	41.82
825.306	43.21
825.604	44.3
825.902	45.12
826.201	46.12
826.499	45.09
826.797	44.88
827.095	46.56
827.393	45.26
827.691	45.4
827.989	44.64
828.287	46.09
828.585	45.49
828.882	45.2
829.18	46.32
829.478	45.92
829.775	46.01
830.073	43.07
830.37	43.45
830.668	45.06
830.965	46.38
831.263	44.41
831.56	43.98
831.857	43.64
832.154	46.78
832.451	45.84
832.748	48.46
833.045	47.17
833.342	48.99
833.639	46.7
833.936	51.1
834.232	43.13
834.529	45.72
834.826	47.98
835.122	51.47
835.419	47.06
835.715	45.49
836.012	45.33
836.308	49.28
836.604	45.43
836.901	42.42
837.197	49.34
837.493	45.47
837.789	45.25
838.085	46.74
838.381	43.54
838.677	47.78
838.972	50.2
839.268	50.51
839.564	45.13
839.86	52.73
840.155	44.67
840.451	46.05
840.746	51.67
841.042	48.52
841.337	50.36
841.632	45.85
841.928	48.19
842.223	55.26
842.518	52.74
842.813	50.44
843.108	50.57
843.403	51.9
843.698	48.2
843.993	45.18
844.287	52.88
844.582	47.38
844.877	41.55
845.171	46.49
845.466	43.54
845.761	54.21
846.055	47.62
846.349	37.82
846.644	35.86
846.938	40.06
847.232	50.47
847.526	50.38
847.82	53.39
848.114	39.57
848.408	42.92
848.702	33.86
848.996	57.97
849.29	53.3
849.584	60.47
849.877	68.85
850.171	37.18
850.465	44.01
850.758	50.15
851.052	57.33
851.345	56.8
851.638	55.12
851.932	65.1
852.225	39.66
852.518	65.99
852.811	58.42
853.104	46.86
853.397	68.39
853.69	65.15
853.983	58.91
854.276	48.5
854.569	55.45
854.861	54.93
855.154	58
855.447	49.78
855.739	44.62
856.032	47.03
856.324	59.04
856.616	44.53
856.909	48.04
857.201	38.86
857.493	60.08
857.785	55.53
858.077	51.44
858.369	64.82
858.661	73.19
858.953	54.84
859.245	71.75
859.537	61.36
859.829	55.61
860.12	43.55
860.412	57.78
860.703	31.32
860.995	39.92
861.286	31.32
861.578	48.53
861.869	50.32
862.16	62.24
862.452	27.35
862.743	91.35
863.034	64.51
863.325	57.99
863.616	67.8
863.907	66.2
864.198	54.15
864.488	29.7
864.779	53.26
865.07	29.29
865.36	54.74
865.651	66.62
865.941	50.74
866.232	36.59
866.522	47.79
866.813	58.8
867.103	72.08
867.393	47.12
867.683	48.92
867.973	43.75
868.263	47.81
868.553	36.51
868.843	48.62
869.133	35.06
869.423	54.59
869.713	54.46
870.002	76.42
870.292	29.5
870.582	26.87
870.871	34.89
871.161	32.65
871.45	79.75
871.739	60.12
872.029	35.35
872.318	54.07
872.607	35.76
872.896	26.07
873.185	48.23
873.474	72.97
873.763	19.67
874.052	70.12
874.341	46.24
874.63	78.62
874.918	56.03
875.207	63.36
875.496	50.78
875.784	68.57
876.073	39.02
876.361	49.84
876.649	39.7
876.938	50.27
877.226	60.34
877.514	60.7
877.802	46.86
878.09	54.32
878.378	41.72
878.666	71.29
878.954	35.97
879.242	71.51
879.53	84.97
879.817	53.37
880.105	71.26
880.392	30.34
880.68	48.31
880.967	48.86
881.255	48.64
881.542	90.53
881.83	69.73
882.117	41.12
882.404	36.43
882.691	62.42
882.978	55.49
883.265	60.97
883.552	65.72
883.839	41.7
884.126	85.71
884.413	47.72
884.699	52.16
884.986	45.44
885.273	43.91
885.559	43.91
885.846	43.91
