Data from 0112_crown_Reflection__2__197.txt Node

Date: Fri Sep 22 22:26:06 CDT 2023
User: ToomeyLab
Spectrometer: FLMS14357
Trigger mode: 0
Integration Time (sec): 1.000000E-2
Scans to average: 100
Electric dark correction enabled: true
Nonlinearity correction enabled: false
Boxcar width: 0
XAxis mode: Wavelengths
Number of Pixels in Spectrum: 2048
>>>>>Begin Spectral Data<<<<<
189.047	48.79
189.435	48.79
189.823	48.79
190.211	344.43
190.599	9.15
190.987	363.93
191.375	-10.48
191.763	-10.85
192.151	32.55
192.538	173.78
192.926	487.79
193.314	104.89
193.702	602.59
194.089	103.36
194.477	92.45
194.864	58.11
195.252	407.51
195.639	-419.01
196.027	11565.85
196.414	-242.89
196.801	183.28
197.189	2.89
197.576	340.54
197.963	20.29
198.351	12.68
198.738	26.02
199.125	51.78
199.512	19.04
199.899	46
200.286	3.17
200.673	26.73
201.06	12.35
201.447	47.01
201.833	-11.44
202.22	54.49
202.607	10.82
202.994	49.77
203.38	26.02
203.767	38.05
204.154	33.85
204.54	43.48
204.927	47.78
205.313	16.92
205.699	36.65
206.086	23.17
206.472	50.98
206.858	41.53
207.245	-12.34
207.631	15.92
208.017	17.3
208.403	19.59
208.789	16.83
209.175	33.08
209.561	68.41
209.947	27.88
210.333	13.02
210.719	14.44
211.105	31.42
211.491	26.58
211.876	33.44
212.262	17.06
212.648	25.29
213.034	17.59
213.419	49.86
213.805	-8.98
214.19	16.45
214.576	5.11
214.961	2.49
215.346	30.96
215.732	41.7
216.117	1.69
216.502	32.85
216.888	28.27
217.273	28.91
217.658	4.92
218.043	2.34
218.428	29.08
218.813	-31.08
219.198	-4.31
219.583	-1.47
219.968	-4.9
220.353	50.2
220.738	-5.63
221.122	21.36
221.507	-9.66
221.892	-17.31
222.276	28.3
222.661	-3.08
223.046	20.89
223.43	6.89
223.815	-6.22
224.199	2.33
224.583	6.4
224.968	9.52
225.352	1.06
225.736	5.34
226.121	12.49
226.505	5.77
226.889	9
227.273	4.18
227.657	6.04
228.041	-0.05
228.425	11.41
228.809	2.17
229.193	1.17
229.577	2.87
229.961	5.97
230.344	2.81
230.728	0.4
231.112	0.93
231.495	1.55
231.879	1.11
232.263	0.64
232.646	0.61
233.03	-0
233.413	2.25
233.797	1.7
234.18	0.65
234.563	3.26
234.946	0.91
235.33	-2.21
235.713	0.29
236.096	0.26
236.479	0.35
236.862	4.99
237.245	2.03
237.628	2.68
238.011	1.67
238.394	1.83
238.777	2.39
239.16	1.19
239.543	3.53
239.925	3.24
240.308	1.15
240.691	1.99
241.073	0.79
241.456	1.84
241.838	-0.32
242.221	0.82
242.603	1.03
242.986	0.68
243.368	0.54
243.75	1.55
244.133	1.52
244.515	1
244.897	0.7
245.279	1.29
245.661	0.88
246.043	1.45
246.425	0.76
246.807	0.31
247.189	-0.04
247.571	1.75
247.953	1.28
248.335	1.15
248.717	1.17
249.098	0.85
249.48	0.93
249.862	0.75
250.243	0.88
250.625	0.85
251.006	1.01
251.388	1.22
251.769	1.52
252.151	1.11
252.532	0.13
252.913	0.88
253.295	2.53
253.676	1.65
254.057	1.55
254.438	1.21
254.819	0.62
255.2	1.55
255.581	1.1
255.962	1.31
256.343	1.03
256.724	1.6
257.105	2.34
257.486	0.72
257.867	1.2
258.247	1
258.628	1.8
259.009	0.3
259.389	0.71
259.77	0.78
260.15	1.33
260.531	0.7
260.911	0.91
261.292	0.83
261.672	0.88
262.052	0.89
262.432	0.94
262.813	1.11
263.193	0.8
263.573	1.66
263.953	1.13
264.333	0.65
264.713	0.82
265.093	0.88
265.473	1.1
265.853	-0.12
266.233	0.82
266.612	0.35
266.992	0.89
267.372	0.87
267.752	1.48
268.131	1.01
268.511	0.81
268.89	0.96
269.27	1.3
269.649	1.77
270.029	1.26
270.408	1.01
270.787	0.28
271.167	1.56
271.546	1.14
271.925	1.46
272.304	0.56
272.683	0.79
273.062	1.28
273.441	1.27
273.82	1.84
274.199	1.49
274.578	1.29
274.957	1.01
275.336	0.67
275.715	0.79
276.093	0.95
276.472	1.16
276.851	1.12
277.229	0.71
277.608	1.08
277.986	0.65
278.365	1.48
278.743	1
279.122	1.21
279.5	1.23
279.878	0.75
280.257	1.66
280.635	0.26
281.013	0.71
281.391	-0.33
281.769	0.66
282.147	1.3
282.525	0.97
282.903	1.23
283.281	0.61
283.659	1.44
284.037	0.47
284.415	1.33
284.792	1.32
285.17	1.12
285.548	1.17
285.925	1.18
286.303	1.03
286.68	0.37
287.058	0.73
287.435	0.84
287.813	1.06
288.19	0.7
288.567	0.93
288.945	1.16
289.322	1.18
289.699	1
290.076	1.19
290.453	0.6
290.83	0.77
291.207	0.7
291.584	0.69
291.961	0.7
292.338	0.98
292.715	0.8
293.092	1.1
293.469	0.88
293.845	0.74
294.222	1.04
294.599	1.33
294.975	0.83
295.352	1.33
295.728	1.21
296.105	0.69
296.481	1.06
296.858	1.06
297.234	1.37
297.61	0.74
297.986	1.18
298.363	0.84
298.739	0.86
299.115	0.9
299.491	1.09
299.867	1.07
300.243	0.89
300.619	1.17
300.995	1.04
301.371	1.53
301.746	0.94
302.122	0.36
302.498	0.99
302.874	0.45
303.249	1
303.625	1.15
304	1.19
304.376	1.13
304.751	0.93
305.127	0.6
305.502	1.38
305.878	0.83
306.253	1.82
306.628	1.08
307.003	0.83
307.378	0.6
307.754	1.44
308.129	1.3
308.504	0.74
308.879	1.02
309.254	0.94
309.629	0.98
310.003	1.59
310.378	1.35
310.753	1.22
311.128	1.26
311.502	1.09
311.877	0.63
312.252	1.16
312.626	0.82
313.001	1.27
313.375	1.28
313.75	1.31
314.124	1.16
314.498	0.75
314.873	1.1
315.247	1.33
315.621	0.86
315.995	1.63
316.369	0.93
316.743	1.03
317.117	1.4
317.491	1.69
317.865	0.63
318.239	1.07
318.613	0.83
318.987	1.11
319.361	0.75
319.734	0.6
320.108	1.33
320.482	0.99
320.855	0.85
321.229	1.84
321.602	1.43
321.976	0.94
322.349	0.88
322.723	0.95
323.096	1.28
323.469	1.53
323.843	1.13
324.216	1.86
324.589	1.15
324.962	0.81
325.335	1.35
325.708	0.95
326.081	1.33
326.454	0.82
326.827	1.13
327.2	1.75
327.573	1.51
327.945	0.92
328.318	1.2
328.691	0.61
329.063	0.77
329.436	0.93
329.809	0.87
330.181	0.67
330.553	1.38
330.926	1.05
331.298	1.75
331.671	1.43
332.043	0.33
332.415	0.92
332.787	1.25
333.159	0.84
333.532	0.8
333.904	0.79
334.276	0.92
334.648	0.06
335.02	1.13
335.391	1.38
335.763	1.17
336.135	0.75
336.507	0.61
336.879	0.74
337.25	0.82
337.622	1.26
337.993	1.06
338.365	1.55
338.736	0.94
339.108	1.01
339.479	1.14
339.851	1.37
340.222	1.1
340.593	0.51
340.964	0.76
341.336	0.93
341.707	1.01
342.078	0.83
342.449	1.02
342.82	0.93
343.191	0.53
343.562	1.1
343.933	1.13
344.303	1.08
344.674	1.16
345.045	0.95
345.416	1.02
345.786	1.06
346.157	0.92
346.527	0.82
346.898	0.86
347.268	0.87
347.639	0.82
348.009	0.65
348.38	1.2
348.75	1.44
349.12	0.95
349.49	1.46
349.861	1.07
350.231	0.82
350.601	1.57
350.971	1.39
351.341	1.03
351.711	1.11
352.081	0.69
352.45	0.72
352.82	1.15
353.19	1.1
353.56	1
353.929	0.98
354.299	0.89
354.669	1.08
355.038	1.12
355.408	1.18
355.777	1.32
356.147	0.92
356.516	1.3
356.885	0.74
357.254	1.38
357.624	0.47
357.993	1.14
358.362	1.2
358.731	1.07
359.1	0.81
359.469	0.89
359.838	0.7
360.207	0.81
360.576	1.17
360.945	0.95
361.314	1.15
361.682	1.34
362.051	0.99
362.42	1.03
362.788	0.64
363.157	1
363.525	0.83
363.894	0.84
364.262	0.96
364.631	0.87
364.999	0.74
365.367	1.22
365.735	1.11
366.104	0.89
366.472	0.99
366.84	0.9
367.208	1.48
367.576	1.11
367.944	0.87
368.312	1.1
368.68	0.74
369.048	0.99
369.416	0.89
369.783	0.75
370.151	1.04
370.519	1.06
370.886	1.18
371.254	1.38
371.621	0.93
371.989	1.39
372.356	0.84
372.724	1.37
373.091	1.25
373.458	1.06
373.826	1.12
374.193	1.37
374.56	1.2
374.927	0.91
375.294	1.21
375.661	0.83
376.028	1.19
376.395	1.56
376.762	0.99
377.129	1.15
377.496	1.31
377.863	1.01
378.229	1.35
378.596	0.86
378.963	1.29
379.329	1.07
379.696	1.29
380.062	1.09
380.429	1.05
380.795	0.89
381.161	0.93
381.528	0.99
381.894	0.54
382.26	0.91
382.626	1.08
382.993	1
383.359	0.85
383.725	0.89
384.091	1.25
384.457	1.2
384.823	1.09
385.188	1.11
385.554	1.04
385.92	1.44
386.286	0.97
386.651	0.95
387.017	1.07
387.383	1.09
387.748	0.95
388.114	1.01
388.479	1.01
388.845	0.84
389.21	1.02
389.575	1.42
389.94	0.81
390.306	1.19
390.671	1.28
391.036	0.66
391.401	0.97
391.766	1.07
392.131	0.87
392.496	1.1
392.861	0.89
393.226	1.29
393.591	1.2
393.956	0.94
394.32	1.01
394.685	0.97
395.05	1.29
395.414	1.12
395.779	1.13
396.143	0.93
396.508	1.18
396.872	0.88
397.236	1.13
397.601	0.91
397.965	1.29
398.329	1.04
398.694	1.1
399.058	1.22
399.422	0.95
399.786	1.02
400.15	1.08
400.514	1.22
400.878	0.91
401.242	1.23
401.605	1.14
401.969	0.8
402.333	1.19
402.697	1.16
403.06	0.99
403.424	1.09
403.787	1.09
404.151	1.3
404.514	1.33
404.878	1.08
405.241	1.27
405.604	1.13
405.968	1.03
406.331	1.16
406.694	1.16
407.057	0.99
407.42	1.14
407.783	1.1
408.146	1.2
408.509	1.14
408.872	0.95
409.235	1.12
409.598	0.94
409.961	1.34
410.323	1.09
410.686	1.35
411.049	1.22
411.411	1.15
411.774	1.05
412.136	0.97
412.499	0.99
412.861	1.1
413.223	1.13
413.586	1.07
413.948	1.12
414.31	0.88
414.672	1.18
415.035	1.04
415.397	1.28
415.759	1.23
416.121	1.21
416.483	1.02
416.845	1.07
417.206	1.09
417.568	1.16
417.93	0.89
418.292	1.25
418.653	0.73
419.015	1.18
419.377	0.93
419.738	0.94
420.1	1.07
420.461	1.07
420.822	0.99
421.184	1.05
421.545	0.96
421.906	1.05
422.267	0.94
422.629	1.14
422.99	0.98
423.351	0.92
423.712	0.95
424.073	1
424.434	1.16
424.795	1.04
425.155	1.06
425.516	1.07
425.877	1
426.238	0.94
426.598	0.89
426.959	0.94
427.32	1.1
427.68	1.01
428.041	0.96
428.401	1.11
428.761	1.15
429.122	1.06
429.482	1.06
429.842	1.02
430.202	0.95
430.563	0.95
430.923	1.15
431.283	1.15
431.643	1.07
432.003	1.15
432.363	1.07
432.722	1.18
433.082	1.21
433.442	1.15
433.802	1.16
434.161	1.06
434.521	0.97
434.881	1.13
435.24	1.01
435.6	0.86
435.959	1
436.319	1.13
436.678	1.11
437.037	1.14
437.396	0.98
437.756	1.21
438.115	1.16
438.474	1.1
438.833	1.24
439.192	1.09
439.551	1.03
439.91	1.24
440.269	0.99
440.628	0.93
440.987	0.97
441.345	1.12
441.704	1.1
442.063	0.99
442.421	0.98
442.78	1.15
443.138	1.04
443.497	1.07
443.855	1.12
444.214	0.9
444.572	1.19
444.93	1.12
445.288	1.2
445.647	1.19
446.005	1.05
446.363	0.97
446.721	1.11
447.079	0.91
447.437	1.06
447.795	1.09
448.153	0.97
448.51	1
448.868	1.06
449.226	1.01
449.584	1
449.941	0.99
450.299	1.02
450.656	1.11
451.014	1.13
451.371	1.03
451.729	1.05
452.086	1.1
452.443	1.09
452.801	1.03
453.158	1.06
453.515	1.17
453.872	1.01
454.229	1.05
454.586	1.1
454.943	0.99
455.3	1.14
455.657	1
456.014	1.06
456.371	1.2
456.727	1.19
457.084	1.03
457.441	0.94
457.797	1.07
458.154	1.07
458.51	0.93
458.867	1.1
459.223	1.14
459.58	1.11
459.936	1.21
460.292	1.12
460.648	1.17
461.005	1.05
461.361	1.16
461.717	0.85
462.073	1.07
462.429	1.03
462.785	1
463.141	1.09
463.496	1.09
463.852	1.19
464.208	1.09
464.564	1.01
464.919	0.99
465.275	1.14
465.631	1.16
465.986	1.27
466.342	1.22
466.697	1
467.052	0.95
467.408	1.12
467.763	1.19
468.118	1.26
468.473	1.04
468.829	1.11
469.184	1.15
469.539	1.11
469.894	1.14
470.249	1.04
470.603	1.02
470.958	1.21
471.313	1.06
471.668	1.29
472.023	1.17
472.377	1.14
472.732	1.01
473.086	1.12
473.441	0.91
473.795	1.28
474.15	0.99
474.504	1.1
474.859	1.26
475.213	0.97
475.567	1.03
475.921	1.14
476.275	1.03
476.63	1.14
476.984	0.97
477.338	1.08
477.692	1.06
478.045	1.11
478.399	1.12
478.753	1.11
479.107	1.13
479.461	1.1
479.814	1.22
480.168	1.23
480.521	1.23
480.875	1.2
481.228	1.11
481.582	0.95
481.935	0.97
482.289	1.14
482.642	1.03
482.995	1.22
483.348	1.16
483.701	1.05
484.055	1.06
484.408	1.12
484.761	1.18
485.114	0.98
485.466	1.04
485.819	0.97
486.172	1
486.525	0.98
486.878	0.99
487.23	1.03
487.583	1.1
487.936	1.08
488.288	1.1
488.641	1.09
488.993	1
489.345	1.03
489.698	1
490.05	1.04
490.402	1.06
490.754	0.96
491.107	0.99
491.459	1.05
491.811	1.06
492.163	1.05
492.515	1.09
492.866	1.07
493.218	1.05
493.57	1.11
493.922	1.05
494.274	0.96
494.625	1.06
494.977	1.11
495.328	1.12
495.68	1.1
496.031	1.06
496.383	1.11
496.734	1.08
497.086	1.05
497.437	1.14
497.788	1.13
498.139	1.18
498.49	1.27
498.842	1.07
499.193	1.07
499.544	1.14
499.894	1.12
500.245	1.17
500.596	1.02
500.947	1.11
501.298	1.25
501.648	1.12
501.999	1.19
502.35	1.15
502.7	1.15
503.051	1.07
503.401	1.21
503.752	1.2
504.102	1.09
504.452	1.13
504.803	1.05
505.153	1.15
505.503	1.09
505.853	1.23
506.203	1.02
506.553	1.27
506.903	1.2
507.253	1.08
507.603	1.16
507.953	1.18
508.303	1.11
508.652	1.13
509.002	1.22
509.352	1.08
509.701	1.22
510.051	1.07
510.4	1.19
510.75	1.1
511.099	1.03
511.449	1.25
511.798	1.19
512.147	1.21
512.496	1.11
512.846	1.19
513.195	1.1
513.544	1.11
513.893	1.28
514.242	1.11
514.591	1.15
514.939	1.24
515.288	1.12
515.637	1.17
515.986	1.14
516.334	1.21
516.683	1.12
517.032	1.24
517.38	1.12
517.729	1.15
518.077	1.19
518.426	1.24
518.774	1.27
519.122	1.15
519.47	1.1
519.819	1.15
520.167	1.27
520.515	1.12
520.863	1.1
521.211	1.14
521.559	1.18
521.907	1.16
522.255	1.22
522.602	1.18
522.95	1.12
523.298	1.26
523.645	1.19
523.993	1.13
524.341	1.2
524.688	1.12
525.036	1.16
525.383	1.21
525.73	1.21
526.078	1.28
526.425	1.17
526.772	1.24
527.119	1.15
527.466	1.18
527.814	1.08
528.161	1.08
528.508	1.17
528.854	1.11
529.201	1.2
529.548	1.13
529.895	1.12
530.242	1.12
530.588	1.07
530.935	1.04
531.282	1.03
531.628	1.14
531.975	1.07
532.321	1.02
532.667	1.12
533.014	1.09
533.36	1.18
533.706	1.14
534.052	1.23
534.399	1.13
534.745	1.17
535.091	1.12
535.437	1.06
535.783	1.01
536.129	1.13
536.474	1.15
536.82	1.07
537.166	1.22
537.512	1.1
537.857	1.16
538.203	1.27
538.549	1.16
538.894	1.05
539.239	1.13
539.585	1.13
539.93	1.27
540.276	1.23
540.621	1.15
540.966	1.16
541.311	1.18
541.656	1.11
542.001	1.17
542.346	1.22
542.691	1.24
543.036	1.19
543.381	1.07
543.726	1.11
544.071	1.09
544.415	1.06
544.76	1.11
545.105	1.08
545.449	1.09
545.794	1.19
546.138	1.18
546.483	1.18
546.827	1.12
547.171	1.07
547.516	1.21
547.86	1.26
548.204	1.11
548.548	1.16
548.892	1.19
549.236	1.11
549.58	1.15
549.924	1.22
550.268	1.34
550.612	1.11
550.956	1.19
551.3	1.31
551.643	1.29
551.987	1.26
552.33	1.33
552.674	0.98
553.017	1.24
553.361	1.1
553.704	1.35
554.048	1.39
554.391	1.33
554.734	1.26
555.077	1.07
555.42	1.04
555.764	1.14
556.107	1.36
556.45	1.08
556.793	1.1
557.135	1.24
557.478	1.17
557.821	1.21
558.164	1.43
558.507	1.29
558.849	1.17
559.192	1.28
559.534	1.38
559.877	1.25
560.219	1.3
560.562	1.2
560.904	1.41
561.246	1.47
561.589	1.36
561.931	1.14
562.273	1.02
562.615	1.35
562.957	1.25
563.299	1.34
563.641	1.34
563.983	1.4
564.325	1.39
564.667	1.31
565.008	1.19
565.35	1.35
565.692	1.24
566.033	1.28
566.375	1.41
566.716	1.26
567.058	1.17
567.399	1.34
567.741	1.41
568.082	1.28
568.423	1.34
568.764	1.44
569.105	1.07
569.447	1.17
569.788	1.08
570.129	1.32
570.47	1.34
570.811	1.28
571.151	1.36
571.492	1.34
571.833	1.14
572.174	1.35
572.514	1.36
572.855	1.21
573.195	1.18
573.536	1.3
573.876	1.15
574.217	1.26
574.557	1.13
574.898	1.47
575.238	1.27
575.578	1.33
575.918	1.38
576.258	1.14
576.598	1.22
576.938	1.31
577.278	1.45
577.618	1.07
577.958	1.38
578.298	1.36
578.638	1.31
578.977	1.41
579.317	1.26
579.657	1.27
579.996	1.42
580.336	1.39
580.675	1.29
581.014	1.28
581.354	1.27
581.693	1.57
582.032	1.31
582.372	1.4
582.711	1.24
583.05	1.21
583.389	1.3
583.728	1.31
584.067	1.64
584.406	1.41
584.745	1.4
585.083	1.76
585.422	1.58
585.761	1.28
586.1	1.33
586.438	1.33
586.777	1.31
587.115	1.58
587.454	1.13
587.792	1.34
588.13	1.42
588.469	1.39
588.807	1.33
589.145	1.55
589.483	1.32
589.821	1.32
590.159	1.34
590.497	1.43
590.835	1.36
591.173	1.38
591.511	1.28
591.849	1.49
592.187	1.27
592.524	1.48
592.862	1.48
593.2	1.36
593.537	1.38
593.875	1.17
594.212	1.52
594.55	1.67
594.887	1.37
595.224	1.5
595.561	1.46
595.899	1.43
596.236	1.68
596.573	1.67
596.91	1.36
597.247	1.35
597.584	1.53
597.921	1.36
598.258	1.59
598.594	1.46
598.931	1.27
599.268	1.44
599.604	1.59
599.941	1.52
600.277	1.26
600.614	1.33
600.95	1.42
601.287	1.21
601.623	1.36
601.959	1.6
602.296	1.27
602.632	1.2
602.968	1.38
603.304	1.72
603.64	1.18
603.976	1.33
604.312	1.44
604.648	1.16
604.984	1.38
605.319	1.29
605.655	1.35
605.991	1.35
606.326	1.58
606.662	1.3
606.998	1.23
607.333	1.56
607.668	1.31
608.004	1.4
608.339	1.26
608.674	1.42
609.01	1.5
609.345	1.48
609.68	1.69
610.015	1.38
610.35	1.53
610.685	1.56
611.02	1.32
611.355	1.44
611.689	1.28
612.024	1.55
612.359	1.25
612.694	1.22
613.028	1.3
613.363	1.39
613.697	1.44
614.032	1.52
614.366	1.32
614.7	1.21
615.035	1.41
615.369	1.4
615.703	1.22
616.037	1.28
616.371	1.64
616.705	1.67
617.039	1.63
617.373	1.67
617.707	1.44
618.041	1.55
618.375	1.59
618.709	1.5
619.042	1.65
619.376	1.6
619.71	1.36
620.043	1.23
620.377	1.13
620.71	1.37
621.043	1.47
621.377	1.17
621.71	1.59
622.043	1.36
622.376	1.7
622.709	1.7
623.043	1.69
623.376	1.38
623.709	1.7
624.041	1.62
624.374	1.74
624.707	1.71
625.04	1.66
625.373	1.18
625.705	1.35
626.038	1.32
626.37	1.36
626.703	1.62
627.035	1.47
627.368	1.44
627.7	1.74
628.032	1.62
628.365	1.34
628.697	1.47
629.029	1.27
629.361	1.26
629.693	1.62
630.025	1.46
630.357	1.29
630.689	1.62
631.021	1.48
631.353	1.46
631.684	1.51
632.016	1.95
632.348	1.74
632.679	1.21
633.011	1.38
633.342	1.59
633.674	1.74
634.005	1.18
634.336	1.62
634.668	1.55
634.999	1.58
635.33	1.78
635.661	1.54
635.992	1.64
636.323	1.46
636.654	1.5
636.985	1.35
637.316	1.29
637.647	1.34
637.977	0.88
638.308	2.07
638.639	1.67
638.969	1.45
639.3	1.15
639.63	2.05
639.961	1.33
640.291	1.38
640.622	1.8
640.952	1.13
641.282	1.5
641.612	1.18
641.943	1.69
642.273	1.44
642.603	1.01
642.933	1.56
643.263	1.07
643.592	1.73
643.922	1.53
644.252	1.13
644.582	2.19
644.911	1.33
645.241	1.77
645.571	1.62
645.9	1.61
646.23	1.93
646.559	1.79
646.888	2.07
647.218	1.5
647.547	1.45
647.876	1.49
648.205	1.32
648.534	1.99
648.863	1.51
649.192	1.51
649.521	1.83
649.85	1.76
650.179	1.37
650.508	1.45
650.837	2
651.165	2.1
651.494	2.13
651.822	1.45
652.151	1.15
652.479	1.31
652.808	1.2
653.136	1.88
653.465	1.57
653.793	1.1
654.121	1.86
654.449	1.5
654.777	1.58
655.105	1.69
655.433	1.74
655.761	1.97
656.089	1.73
656.417	1.31
656.745	1.81
657.073	1.69
657.4	2.12
657.728	2.06
658.056	1.34
658.383	2.11
658.711	1.41
659.038	1.21
659.365	1.68
659.693	1.21
660.02	2.38
660.347	1.93
660.674	1.57
661.001	1.06
661.329	1.53
661.656	1.87
661.982	1.31
662.309	2.03
662.636	1.47
662.963	1.75
663.29	1.84
663.616	1.8
663.943	2.11
664.27	2.15
664.596	1.42
664.923	1.51
665.249	1.5
665.576	1.15
665.902	1.83
666.228	1.43
666.554	0.89
666.881	1.75
667.207	1.87
667.533	1.48
667.859	1.67
668.185	1.87
668.511	1.9
668.837	1.63
669.162	1.75
669.488	1.81
669.814	1.62
670.139	1.64
670.465	2.14
670.791	1.82
671.116	1.48
671.442	2.69
671.767	1.81
672.092	2.14
672.418	2.03
672.743	1.44
673.068	1.65
673.393	1.33
673.718	1.85
674.043	1.7
674.368	1.39
674.693	1.81
675.018	1.88
675.343	1.77
675.667	1.87
675.992	1.34
676.317	2.31
676.641	1.91
676.966	2.13
677.29	1.49
677.615	1.45
677.939	1.98
678.264	1.88
678.588	1.92
678.912	1.81
679.236	1.8
679.56	2.02
679.885	1.53
680.209	2.27
680.532	1.35
680.856	1.15
681.18	1.79
681.504	1.82
681.828	1.84
682.152	1.81
682.475	2.36
682.799	1.84
683.122	2.06
683.446	1.86
683.769	1.87
684.093	1.6
684.416	1.89
684.739	1.98
685.062	2.57
685.386	1.59
685.709	1.36
686.032	1.78
686.355	1.79
686.678	1.82
687.001	2.12
687.324	2.99
687.646	2.35
687.969	2.14
688.292	1.49
688.614	2.55
688.937	2.04
689.26	1
689.582	2.03
689.904	1.48
690.227	2.14
690.549	2.32
690.871	1.58
691.194	1.83
691.516	2.06
691.838	2.31
692.16	1.51
692.482	2.29
692.804	1.54
693.126	1.67
693.448	2.26
693.769	2.02
694.091	2.08
694.413	2.22
694.735	1.54
695.056	2.05
695.378	2.39
695.699	1.69
696.021	1.18
696.342	3.21
696.663	2.05
696.984	1.86
697.306	1.81
697.627	1.46
697.948	1.55
698.269	2.16
698.59	2.33
698.911	2.28
699.232	2.45
699.553	1.96
699.873	2.39
700.194	1.42
700.515	1.5
700.835	2.47
701.156	2.29
701.477	2.09
701.797	1.63
702.117	2.02
702.438	1.99
702.758	1.51
703.078	1.79
703.398	2.95
703.719	1.04
704.039	2.69
704.359	2.25
704.679	0.84
704.999	2.26
705.319	2.07
705.638	1.43
705.958	2.69
706.278	3.17
706.597	2.01
706.917	2.24
707.237	1.46
707.556	1.7
707.876	0.5
708.195	3.7
708.514	2.69
708.834	0.75
709.153	2.36
709.472	2
709.791	1.75
710.11	2.74
710.429	3.3
710.748	3.18
711.067	2.23
711.386	2.01
711.705	2.16
712.023	2
712.342	1.99
712.661	2.07
712.979	2.26
713.298	3.5
713.616	2.31
713.935	2.44
714.253	2.69
714.572	2.4
714.89	2.54
715.208	2.81
715.526	2.81
715.844	2.64
716.162	1.83
716.48	1.73
716.798	1.55
717.116	2.73
717.434	2.46
717.752	1.47
718.069	1.99
718.387	2.37
718.705	1.89
719.022	2.36
719.34	3.05
719.657	0.77
719.975	2.98
720.292	3.03
720.609	2.45
720.927	2.96
721.244	2.34
721.561	2.48
721.878	1.58
722.195	2.38
722.512	2.64
722.829	3.27
723.146	2.16
723.463	1.75
723.779	2.81
724.096	2.61
724.413	2.99
724.729	2.06
725.046	3.58
725.362	3.27
725.679	2.55
725.995	3.13
726.311	2.08
726.628	1.46
726.944	1.2
727.26	1.82
727.576	1.01
727.892	1.46
728.208	2.78
728.524	3.67
728.84	1.23
729.156	1.19
729.472	3.55
729.787	1.75
730.103	1.53
730.419	2.59
730.734	2.25
731.05	1.35
731.365	2
731.681	3.15
731.996	2.17
732.311	2.02
732.626	1.61
732.942	1.8
733.257	1.89
733.572	1.84
733.887	1.58
734.202	3.51
734.517	2.59
734.832	2.56
735.146	2.78
735.461	2.56
735.776	1.88
736.091	2.77
736.405	1.55
736.72	2.21
737.034	2.48
737.349	0.99
737.663	1.85
737.977	3.11
738.292	2.74
738.606	1.69
738.92	2.47
739.234	1.65
739.548	3.9
739.862	3.02
740.176	2.94
740.49	1.74
740.804	2.43
741.117	2.81
741.431	3.17
741.745	2.55
742.058	2.96
742.372	2.12
742.685	2.92
742.999	3.47
743.312	3.53
743.626	2.53
743.939	1.2
744.252	2.99
744.565	1.89
744.878	2.13
745.191	3.32
745.505	2.96
745.817	3.84
746.13	5.47
746.443	3.79
746.756	3.09
747.069	1.88
747.381	0.84
747.694	3.81
748.007	3.28
748.319	3.96
748.632	4.23
748.944	3.76
749.256	3.48
749.569	1.63
749.881	1.57
750.193	2.02
750.505	4.41
750.817	3.42
751.129	3.09
751.441	3.26
751.753	2.25
752.065	5.75
752.377	3.68
752.689	2.55
753	3.59
753.312	3.46
753.624	3.42
753.935	4.47
754.247	2.01
754.558	2.3
754.869	2.83
755.181	2.78
755.492	2.3
755.803	4.35
756.114	2.37
756.425	4.65
756.736	2.68
757.047	3.16
757.358	2.87
757.669	2.26
757.98	3.03
758.291	2.53
758.601	2.89
758.912	1.91
759.223	4.4
759.533	2.24
759.844	4.09
760.154	2.37
760.464	3.43
760.775	3.48
761.085	3.72
761.395	3.27
761.705	2.78
762.016	2.6
762.326	2.1
762.636	2.29
762.945	2.24
763.255	3.18
763.565	3.92
763.875	4.05
764.185	4.13
764.494	5.48
764.804	0.8
765.113	1.92
765.423	3.48
765.732	2.74
766.042	3.78
766.351	3.12
766.66	2.78
766.97	2.51
767.279	2.59
767.588	2.74
767.897	3.07
768.206	2.68
768.515	2.95
768.824	2.84
769.133	3.03
769.441	3.3
769.75	4.69
770.059	5.71
770.367	1.56
770.676	3.5
770.984	2.1
771.293	2.49
771.601	3.86
771.91	5.89
772.218	2.59
772.526	3.68
772.834	2.97
773.142	3.05
773.45	4.93
773.758	4.1
774.066	4.37
774.374	4.48
774.682	5.41
774.99	2.54
775.298	5.28
775.605	4.05
775.913	8.72
776.22	5.31
776.528	6.79
776.835	2.76
777.143	4.23
777.45	5.28
777.757	1.24
778.065	6.79
778.372	5.14
778.679	5.97
778.986	5.11
779.293	0.45
779.6	3.17
779.907	1.42
780.214	8.48
780.52	2.57
780.827	3.74
781.134	8.42
781.44	2.92
781.747	0.9
782.053	5.1
782.36	5.04
782.666	6.27
782.973	2.46
783.279	3.97
783.585	3.78
783.891	2.87
784.197	3.39
784.503	0.8
784.809	4.84
785.115	2.35
785.421	5.68
785.727	6.3
786.033	4.28
786.339	4.52
786.644	8.49
786.95	4.33
787.255	2.43
787.561	7.07
787.866	1.9
788.172	4.42
788.477	2.99
788.782	1.44
789.088	3.3
789.393	4.1
789.698	4.54
790.003	4.1
790.308	6.18
790.613	4.84
790.918	6.77
791.223	2.01
791.527	0.29
791.832	4.81
792.137	3.25
792.441	8.17
792.746	5.5
793.05	4.19
793.355	5.71
793.659	6.09
793.963	3.53
794.268	4.07
794.572	7.09
794.876	2.11
795.18	2.46
795.484	5.59
795.788	0.1
796.092	4.05
796.396	8.27
796.7	3.32
797.004	6.68
797.307	-1.52
797.611	1.37
797.915	2.09
798.218	7.4
798.522	5.57
798.825	4.16
799.128	7.15
799.432	0.89
799.735	3.54
800.038	4.66
800.341	5.51
800.644	7.06
800.947	3.39
801.25	4.66
801.553	8.67
801.856	14.31
802.159	5.45
802.462	-0.3
802.764	6.78
803.067	5.16
803.37	6.21
803.672	2.93
803.975	0.5
804.277	8.72
804.579	8.73
804.882	7.27
805.184	5.7
805.486	2.26
805.788	11.06
806.09	10.28
806.392	6.47
806.694	4.83
806.996	6.06
807.298	6.67
807.6	10.71
807.902	3.76
808.203	4.84
808.505	6.68
808.807	6.98
809.108	7.18
809.409	9.09
809.711	3.8
810.012	3.53
810.313	4.59
810.615	7.42
810.916	0.97
811.217	5.96
811.518	6.86
811.819	8.69
812.12	8.27
812.421	7.82
812.722	6.88
813.023	7.06
813.323	1.2
813.624	6.36
813.925	6.62
814.225	5.43
814.526	7.74
814.826	2.7
815.126	6.67
815.427	4.37
815.727	4.78
816.027	7.55
816.327	6.09
816.627	8.67
816.927	9.39
817.227	9.81
817.527	3.96
817.827	1.54
818.127	4.5
818.427	13.47
818.727	2.25
819.026	9.49
819.326	2.65
819.625	2.16
819.925	3.9
820.224	11.41
820.524	4.26
820.823	5.94
821.122	-1.54
821.421	10.2
821.72	7.26
822.019	4.59
822.318	1.7
822.617	5.72
822.916	7.53
823.215	9.61
823.514	5.65
823.813	6.18
824.111	6.86
824.41	3.43
824.709	3.5
825.007	4.27
825.306	2.63
825.604	3.82
825.902	4.89
826.201	3.86
826.499	3.88
826.797	3.4
827.095	5.54
827.393	5.16
827.691	4.45
827.989	3.3
828.287	3.79
828.585	6.61
828.882	2.61
829.18	5.08
829.478	3.89
829.775	4.81
830.073	5.15
830.37	2.55
830.668	2.59
830.965	6.29
831.263	4.45
831.56	2.64
831.857	5.47
832.154	7.02
832.451	4.86
832.748	4.6
833.045	5.04
833.342	6.08
833.639	4.14
833.936	4.13
834.232	6.74
834.529	5.11
834.826	6.07
835.122	6.42
835.419	2.93
835.715	6.64
836.012	10.86
836.308	6.91
836.604	8.46
836.901	3.55
837.197	10.89
837.493	3.19
837.789	4.94
838.085	2.19
838.381	3.91
838.677	5.42
838.972	4.98
839.268	9.25
839.564	6.94
839.86	11.2
840.155	3.36
840.451	-1.48
840.746	10.46
841.042	4.6
841.337	8.7
841.632	8.09
841.928	18.85
842.223	5.43
842.518	8.52
842.813	12.4
843.108	9.59
843.403	10.59
843.698	10.98
843.993	5.44
844.287	13.67
844.582	-0.06
844.877	0.11
845.171	9.07
845.466	12.21
845.761	5.71
846.055	10.72
846.349	-3
846.644	2.11
846.938	1.62
847.232	3
847.526	9.54
847.82	-5
848.114	8.52
848.408	-3.88
848.702	12.36
848.996	0.03
849.29	14.49
849.584	2.45
849.877	11.18
850.171	15.66
850.465	10.88
850.758	-0.57
851.052	-7.27
851.345	17.89
851.638	7.58
851.932	16.8
852.225	26.28
852.518	20.29
852.811	29.83
853.104	18.08
853.397	12.22
853.69	16.69
853.983	27.34
854.276	-7.83
854.569	9.87
854.861	-8.74
855.154	-9
855.447	27.02
855.739	-15.61
856.032	6.23
856.324	8.9
856.616	10.02
856.909	10.68
857.201	14.8
857.493	16.01
857.785	25.04
858.077	25.17
858.369	10.79
858.661	33.99
858.953	15.89
859.245	15.97
859.537	9.3
859.829	14.49
860.12	5.54
860.412	22.1
860.703	-7.73
860.995	2.2
861.286	2.3
861.578	18.09
861.869	24.16
862.16	-16.86
862.452	-5.99
862.743	33.2
863.034	31.68
863.325	11.87
863.616	-6.26
863.907	0.37
864.198	-1.66
864.488	-1.32
864.779	7.28
865.07	8.3
865.36	-12.19
865.651	56.87
865.941	-30.28
866.232	31.61
866.522	-2.25
866.813	42.08
867.103	10.25
867.393	16.12
867.683	-4.91
867.973	-3.21
868.263	25.38
868.553	1.13
868.843	12.87
869.133	5.76
869.423	16.7
869.713	-6.81
870.002	30.82
870.292	16.13
870.582	14.91
870.871	7.56
871.161	9.37
871.45	9.91
871.739	1.36
872.029	9.55
872.318	0.49
872.607	-3.38
872.896	-0.2
873.185	27.74
873.474	9.92
873.763	-1.79
874.052	6.6
874.341	31.01
874.63	36.16
874.918	2.08
875.207	4.69
875.496	-6.5
875.784	-12.45
876.073	-15.41
876.361	1.01
876.649	-13.07
876.938	27.52
877.226	4.27
877.514	26.01
877.802	-5.39
878.09	9.14
878.378	28.83
878.666	26.91
878.954	5.61
879.242	28.03
879.53	3.75
879.817	7.95
880.105	-14.55
880.392	9.37
880.68	1.13
880.967	3.4
881.255	19.43
881.542	22.68
881.83	70.09
882.117	-2.96
882.404	11.6
882.691	-12.22
882.978	9.22
883.265	4.25
883.552	11.51
883.839	-7.65
884.126	32.35
884.413	6.84
884.699	14.38
884.986	13.1
885.273	8.46
885.559	8.46
885.846	8.46
