Data from 0112_forehead_Reflection__3__203.txt Node

Date: Fri Sep 22 22:27:26 CDT 2023
User: ToomeyLab
Spectrometer: FLMS14357
Trigger mode: 0
Integration Time (sec): 1.000000E-2
Scans to average: 100
Electric dark correction enabled: true
Nonlinearity correction enabled: false
Boxcar width: 0
XAxis mode: Wavelengths
Number of Pixels in Spectrum: 2048
>>>>>Begin Spectral Data<<<<<
189.047	-442.09
189.435	-442.09
189.823	-442.09
190.211	811.01
190.599	-186.66
190.987	195.63
191.375	-6.29
191.763	8.45
192.151	47.57
192.538	-478.22
192.926	197.25
193.314	-78.5
193.702	229.82
194.089	93.46
194.477	72.16
194.864	109.68
195.252	232.49
195.639	-238.95
196.027	7673.17
196.414	-199.66
196.801	1180.06
197.189	-35.75
197.576	1023.59
197.963	-71.38
198.351	98.68
198.738	5.01
199.125	104.86
199.512	18.9
199.899	39.78
200.286	44.39
200.673	57.87
201.06	4.72
201.447	43.39
201.833	-16.21
202.22	80.45
202.607	40.45
202.994	39.01
203.38	41.17
203.767	17.79
204.154	39.05
204.54	9.83
204.927	63.32
205.313	75.41
205.699	33.91
206.086	67.25
206.472	43.54
206.858	26.56
207.245	39.89
207.631	44.2
208.017	33.1
208.403	27.65
208.789	25.91
209.175	50.59
209.561	59.27
209.947	38.52
210.333	35.92
210.719	-4.16
211.105	80.29
211.491	19.54
211.876	51.16
212.262	6.13
212.648	41.71
213.034	34
213.419	14.79
213.805	18.99
214.19	12.57
214.576	49.69
214.961	35.94
215.346	25.41
215.732	30.1
216.117	24.19
216.502	39.43
216.888	29.1
217.273	32.07
217.658	10.79
218.043	9.01
218.428	22.15
218.813	11.07
219.198	21.67
219.583	4.25
219.968	7.58
220.353	42.62
220.738	40
221.122	23.25
221.507	-9.25
221.892	8.98
222.276	6.47
222.661	-11.24
223.046	29.25
223.43	33.02
223.815	7.2
224.199	1.13
224.583	19.67
224.968	12.61
225.352	3.5
225.736	19.2
226.121	16.92
226.505	-0.82
226.889	11.32
227.273	9.85
227.657	8.44
228.041	8.27
228.425	8.66
228.809	1.77
229.193	6.93
229.577	4.9
229.961	5.56
230.344	4.91
230.728	1.14
231.112	3.09
231.495	2.51
231.879	2.31
232.263	1.15
232.646	3.56
233.03	2.57
233.413	2.05
233.797	4.07
234.18	3.88
234.563	4.89
234.946	6.08
235.33	1.66
235.713	0.87
236.096	1.75
236.479	2.48
236.862	4.02
237.245	2.36
237.628	2.95
238.011	3.3
238.394	3.73
238.777	6.61
239.16	4.14
239.543	4.14
239.925	3.97
240.308	4.78
240.691	4.16
241.073	2.48
241.456	2.07
241.838	1.95
242.221	1.68
242.603	2.85
242.986	2.77
243.368	3.13
243.75	2.62
244.133	2.74
244.515	2.62
244.897	2.16
245.279	2.57
245.661	1.89
246.043	2.93
246.425	1.89
246.807	3.89
247.189	2.7
247.571	3.54
247.953	3.7
248.335	2.83
248.717	2.7
249.098	2.41
249.48	2.42
249.862	2.34
250.243	2.47
250.625	2.74
251.006	2.28
251.388	2.64
251.769	2.44
252.151	1.44
252.532	2.37
252.913	3.36
253.295	3.37
253.676	2.57
254.057	3.52
254.438	3.25
254.819	2.41
255.2	2.68
255.581	2.54
255.962	2.86
256.343	3.04
256.724	2.75
257.105	3.54
257.486	3.38
257.867	2.73
258.247	3.93
258.628	3.34
259.009	3.09
259.389	2.6
259.77	2.76
260.15	3.01
260.531	2.48
260.911	2.35
261.292	2.22
261.672	2.39
262.052	2.36
262.432	2.39
262.813	2.48
263.193	2.19
263.573	3.07
263.953	2.53
264.333	2.28
264.713	2.62
265.093	2.3
265.473	3.14
265.853	1.57
266.233	3.08
266.612	2.36
266.992	3.83
267.372	2.84
267.752	3.12
268.131	2.59
268.511	2.13
268.89	2.97
269.27	2.26
269.649	2.75
270.029	2.63
270.408	2.39
270.787	2.91
271.167	2.57
271.546	2.19
271.925	2.78
272.304	1.35
272.683	2.23
273.062	3.07
273.441	2.32
273.82	2.56
274.199	2.22
274.578	2.98
274.957	2.26
275.336	2.51
275.715	2.06
276.093	2.16
276.472	2.7
276.851	2.6
277.229	1.88
277.608	2.49
277.986	2.37
278.365	2.92
278.743	2.39
279.122	2.53
279.5	2.84
279.878	2.36
280.257	2.42
280.635	2.45
281.013	3.07
281.391	2.49
281.769	2.68
282.147	2.93
282.525	2.29
282.903	2.64
283.281	2.77
283.659	2.58
284.037	2.17
284.415	2.67
284.792	2.47
285.17	2.4
285.548	3.47
285.925	2.81
286.303	2.52
286.68	1.81
287.058	2.18
287.435	2.65
287.813	2.5
288.19	1.77
288.567	2.62
288.945	2.58
289.322	2.65
289.699	2.24
290.076	2.69
290.453	2.28
290.83	2.3
291.207	2.16
291.584	2.24
291.961	2.01
292.338	2.56
292.715	2.09
293.092	2.66
293.469	2.67
293.845	2.6
294.222	2.67
294.599	2.64
294.975	2.89
295.352	3.03
295.728	2.71
296.105	3.37
296.481	2.46
296.858	2.89
297.234	2.94
297.61	2.52
297.986	2.91
298.363	2.64
298.739	2.38
299.115	2.76
299.491	2.99
299.867	2.85
300.243	2.74
300.619	2.87
300.995	2.73
301.371	3.07
301.746	3.13
302.122	3.24
302.498	3
302.874	2.68
303.249	3.04
303.625	2.72
304	3.41
304.376	3.51
304.751	2.93
305.127	2.73
305.502	3.46
305.878	3.21
306.253	3.56
306.628	2.96
307.003	3.44
307.378	3.33
307.754	3.05
308.129	3.25
308.504	2.88
308.879	3
309.254	3.36
309.629	3.43
310.003	3.91
310.378	3.8
310.753	3.58
311.128	3.59
311.502	3.35
311.877	2.99
312.252	3.43
312.626	3.36
313.001	3.62
313.375	3.64
313.75	3.74
314.124	3.65
314.498	3.27
314.873	3.42
315.247	3.88
315.621	3.71
315.995	3.56
316.369	3.97
316.743	3.49
317.117	3.97
317.491	4.08
317.865	3.2
318.239	4.07
318.613	3.84
318.987	3.8
319.361	3.68
319.734	3.56
320.108	3.98
320.482	3.77
320.855	4.01
321.229	3.96
321.602	4.51
321.976	3.48
322.349	4.9
322.723	3.95
323.096	4.49
323.469	3.99
323.843	4.08
324.216	4.34
324.589	3.96
324.962	4.08
325.335	4.13
325.708	4.2
326.081	4.52
326.454	3.92
326.827	4.37
327.2	4.59
327.573	4.52
327.945	4.48
328.318	4.57
328.691	4.33
329.063	4.45
329.436	4.71
329.809	4.16
330.181	4.84
330.553	4.49
330.926	4.43
331.298	4.94
331.671	4.41
332.043	4.33
332.415	4.5
332.787	4.88
333.159	4.73
333.532	4.28
333.904	4.87
334.276	4.21
334.648	4.13
335.02	4.79
335.391	4.92
335.763	4.94
336.135	4.63
336.507	4.6
336.879	4.6
337.25	4.95
337.622	4.61
337.993	4.58
338.365	5.38
338.736	4.91
339.108	5.28
339.479	4.77
339.851	4.36
340.222	4.48
340.593	5.18
340.964	4.56
341.336	4.83
341.707	5.09
342.078	5.13
342.449	4.88
342.82	4.49
343.191	5.05
343.562	5.1
343.933	4.72
344.303	5.21
344.674	5.47
345.045	5.26
345.416	5.66
345.786	5.04
346.157	4.62
346.527	5.03
346.898	5.12
347.268	4.82
347.639	5.47
348.009	5.14
348.38	5.22
348.75	5.42
349.12	5.44
349.49	5.6
349.861	5.19
350.231	5.28
350.601	5.36
350.971	5.68
351.341	5.45
351.711	5.1
352.081	5.41
352.45	4.88
352.82	5.82
353.19	5.46
353.56	5.59
353.929	5.61
354.299	5.48
354.669	5.48
355.038	5.45
355.408	5.5
355.777	5.91
356.147	5.47
356.516	5.69
356.885	5.41
357.254	5.85
357.624	5.63
357.993	5.74
358.362	5.68
358.731	5.65
359.1	5.44
359.469	5.66
359.838	5.42
360.207	5.67
360.576	5.66
360.945	5.86
361.314	5.63
361.682	6.09
362.051	5.98
362.42	5.95
362.788	5.74
363.157	6.02
363.525	6.04
363.894	5.98
364.262	5.92
364.631	5.89
364.999	5.93
365.367	6.2
365.735	6.18
366.104	6.14
366.472	6.49
366.84	6.09
367.208	6.3
367.576	6.43
367.944	6.04
368.312	6.55
368.68	6.49
369.048	6.66
369.416	6.42
369.783	6.22
370.151	6.45
370.519	6.61
370.886	6.27
371.254	6.75
371.621	6.24
371.989	6.34
372.356	5.83
372.724	6.64
373.091	6.78
373.458	6.55
373.826	6.97
374.193	6.62
374.56	6.72
374.927	6.59
375.294	6.92
375.661	6.59
376.028	6.83
376.395	7.17
376.762	6.73
377.129	6.71
377.496	7.11
377.863	7.06
378.229	7.19
378.596	6.91
378.963	7.17
379.329	6.94
379.696	7.08
380.062	6.82
380.429	6.89
380.795	6.99
381.161	7.18
381.528	7.08
381.894	7.02
382.26	7.12
382.626	7.25
382.993	7.4
383.359	7.2
383.725	7.29
384.091	7.35
384.457	7.4
384.823	7.34
385.188	7.6
385.554	7.01
385.92	7.81
386.286	7.54
386.651	7.44
387.017	7.65
387.383	7.45
387.748	7.26
388.114	7.55
388.479	7.57
388.845	7.49
389.21	7.48
389.575	7.67
389.94	7.32
390.306	7.57
390.671	7.99
391.036	7.43
391.401	7.9
391.766	7.88
392.131	7.85
392.496	7.94
392.861	7.77
393.226	8.36
393.591	8.06
393.956	7.92
394.32	7.97
394.685	8.07
395.05	8.09
395.414	8.04
395.779	8.19
396.143	7.98
396.508	8.13
396.872	8.19
397.236	8.31
397.601	8.18
397.965	8.36
398.329	8.16
398.694	8.17
399.058	8.45
399.422	8.25
399.786	8.61
400.15	8.47
400.514	8.51
400.878	8.37
401.242	8.58
401.605	8.49
401.969	8.54
402.333	8.68
402.697	8.46
403.06	8.41
403.424	8.35
403.787	8.82
404.151	8.54
404.514	8.75
404.878	8.8
405.241	8.91
405.604	8.73
405.968	9.01
406.331	8.79
406.694	8.78
407.057	8.64
407.42	8.81
407.783	8.8
408.146	8.82
408.509	8.84
408.872	8.69
409.235	9.17
409.598	8.84
409.961	9.46
410.323	9.15
410.686	9.17
411.049	9.37
411.411	9.23
411.774	9.28
412.136	9.09
412.499	9.35
412.861	9.43
413.223	9.16
413.586	9.43
413.948	9.46
414.31	9.39
414.672	9.89
415.035	9.45
415.397	9.6
415.759	9.79
416.121	9.51
416.483	9.6
416.845	9.34
417.206	9.54
417.568	9.65
417.93	9.5
418.292	9.46
418.653	9.29
419.015	9.7
419.377	9.36
419.738	9.75
420.1	9.42
420.461	9.69
420.822	9.58
421.184	9.54
421.545	9.58
421.906	9.59
422.267	9.54
422.629	9.69
422.99	9.66
423.351	9.5
423.712	9.63
424.073	9.61
424.434	9.74
424.795	9.74
425.155	9.86
425.516	9.79
425.877	9.7
426.238	9.8
426.598	9.68
426.959	9.82
427.32	9.86
427.68	9.98
428.041	10
428.401	10.06
428.761	10.17
429.122	10.28
429.482	10.24
429.842	10.26
430.202	10.36
430.563	10.54
430.923	10.51
431.283	10.57
431.643	10.66
432.003	10.49
432.363	10.71
432.722	10.61
433.082	10.88
433.442	10.76
433.802	10.81
434.161	10.65
434.521	10.88
434.881	10.78
435.24	10.67
435.6	10.64
435.959	10.66
436.319	10.77
436.678	11.1
437.037	10.91
437.396	10.94
437.756	11
438.115	11.08
438.474	11.01
438.833	11.22
439.192	11.08
439.551	11.13
439.91	11.22
440.269	11.1
440.628	11.12
440.987	11.12
441.345	11.27
441.704	11.17
442.063	11.11
442.421	11.08
442.78	11.2
443.138	11.12
443.497	10.99
443.855	11.32
444.214	11.19
444.572	11.35
444.93	11.51
445.288	11.58
445.647	11.74
446.005	11.61
446.363	11.4
446.721	11.47
447.079	11.37
447.437	11.45
447.795	11.58
448.153	11.34
448.51	11.41
448.868	11.43
449.226	11.38
449.584	11.54
449.941	11.46
450.299	11.74
450.656	11.91
451.014	11.94
451.371	11.87
451.729	11.79
452.086	12.06
452.443	12.01
452.801	12.12
453.158	12.2
453.515	12.27
453.872	12.16
454.229	12.06
454.586	12.3
454.943	12.13
455.3	12.08
455.657	12.24
456.014	12.35
456.371	12.34
456.727	12.45
457.084	12.44
457.441	12.19
457.797	12.45
458.154	12.45
458.51	12.55
458.867	12.5
459.223	12.7
459.58	12.82
459.936	12.76
460.292	12.63
460.648	12.82
461.005	12.75
461.361	12.61
461.717	12.37
462.073	12.34
462.429	12.23
462.785	12.45
463.141	12.62
463.496	12.82
463.852	12.92
464.208	12.82
464.564	13.01
464.919	13.03
465.275	13.33
465.631	13.23
465.986	13.38
466.342	13.19
466.697	13.26
467.052	13.15
467.408	13.25
467.763	13.26
468.118	13.61
468.473	13.43
468.829	13.34
469.184	13.29
469.539	13.43
469.894	13.47
470.249	13.42
470.603	13.46
470.958	13.61
471.313	13.67
471.668	13.64
472.023	13.77
472.377	13.73
472.732	13.81
473.086	13.77
473.441	13.61
473.795	14
474.15	13.79
474.504	14.06
474.859	14.03
475.213	13.74
475.567	13.77
475.921	14.11
476.275	14.11
476.63	14.14
476.984	14.18
477.338	14.28
477.692	14.28
478.045	14.33
478.399	14.27
478.753	14.26
479.107	14.06
479.461	14.27
479.814	14.46
480.168	14.34
480.521	14.31
480.875	14.4
481.228	14.5
481.582	14.33
481.935	14.29
482.289	14.32
482.642	14.48
482.995	14.56
483.348	14.47
483.701	14.41
484.055	14.42
484.408	14.5
484.761	14.37
485.114	14.17
485.466	14.01
485.819	13.71
486.172	13.51
486.525	13.55
486.878	13.7
487.23	13.96
487.583	14.14
487.936	14.3
488.288	14.4
488.641	14.42
488.993	14.23
489.345	14.19
489.698	13.99
490.05	14.1
490.402	14.22
490.754	14.25
491.107	14.38
491.459	14.68
491.811	14.79
492.163	14.81
492.515	15
492.866	15.01
493.218	14.97
493.57	14.66
493.922	14.52
494.274	14.57
494.625	14.81
494.977	14.95
495.328	15.21
495.68	15.35
496.031	15.41
496.383	15.73
496.734	15.64
497.086	15.64
497.437	15.87
497.788	15.74
498.139	15.88
498.49	15.81
498.842	15.51
499.193	15.63
499.544	15.64
499.894	15.76
500.245	15.95
500.596	15.82
500.947	15.97
501.298	15.92
501.648	16.1
501.999	16.08
502.35	16.07
502.7	16.44
503.051	16.31
503.401	16.4
503.752	16.4
504.102	16.44
504.452	16.49
504.803	16.5
505.153	16.49
505.503	16.47
505.853	16.64
506.203	16.48
506.553	16.51
506.903	16.54
507.253	16.6
507.603	16.72
507.953	16.76
508.303	16.81
508.652	16.87
509.002	16.92
509.352	16.87
509.701	16.76
510.051	16.76
510.4	16.83
510.75	16.63
511.099	16.53
511.449	16.86
511.798	16.77
512.147	16.75
512.496	16.78
512.846	16.93
513.195	16.91
513.544	17.03
513.893	17.04
514.242	17.04
514.591	17.11
514.939	17.24
515.288	17.09
515.637	17.1
515.986	17.14
516.334	17.32
516.683	17.31
517.032	17.47
517.38	17.48
517.729	17.39
518.077	17.61
518.426	17.6
518.774	17.33
519.122	17.49
519.47	17.54
519.819	17.47
520.167	17.48
520.515	17.41
520.863	17.09
521.211	17.24
521.559	17.41
521.907	17.46
522.255	17.68
522.602	17.56
522.95	17.64
523.298	17.89
523.645	18.03
523.993	18.01
524.341	18.09
524.688	18.2
525.036	18.15
525.383	18.15
525.73	18.2
526.078	18.19
526.425	18.15
526.772	18.24
527.119	18.1
527.466	17.81
527.814	17.8
528.161	17.77
528.508	17.88
528.854	17.92
529.201	18
529.548	17.98
529.895	17.88
530.242	17.64
530.588	17.42
530.935	17.21
531.282	17.27
531.628	17.53
531.975	17.68
532.321	17.88
532.667	18.06
533.014	18.19
533.36	18.41
533.706	18.35
534.052	18.42
534.399	18.51
534.745	18.47
535.091	18.2
535.437	18.02
535.783	17.86
536.129	18.13
536.474	18.4
536.82	18.44
537.166	18.74
537.512	18.74
537.857	18.78
538.203	18.99
538.549	18.78
538.894	18.73
539.239	18.62
539.585	18.73
539.93	19
540.276	19.15
540.621	19.12
540.966	19.29
541.311	19.57
541.656	19.45
542.001	19.5
542.346	19.53
542.691	19.46
543.036	19.12
543.381	18.84
543.726	18.49
544.071	18.65
544.415	18.87
544.76	18.96
545.105	19.15
545.449	19.12
545.794	19.24
546.138	19.39
546.483	19.49
546.827	19.63
547.171	19.67
547.516	19.89
547.86	19.88
548.204	19.75
548.548	19.82
548.892	19.77
549.236	19.7
549.58	19.78
549.924	19.89
550.268	20.33
550.612	20.32
550.956	20.5
551.3	20.45
551.643	20.46
551.987	20.59
552.33	20.73
552.674	20.66
553.017	20.65
553.361	20.58
553.704	20.87
554.048	20.92
554.391	20.88
554.734	20.84
555.077	20.65
555.42	20.77
555.764	20.72
556.107	20.94
556.45	20.94
556.793	20.89
557.135	21.12
557.478	21.03
557.821	21.18
558.164	21.19
558.507	21.36
558.849	21.24
559.192	21.37
559.534	21.44
559.877	21.28
560.219	21.26
560.562	21.46
560.904	21.42
561.246	21.57
561.589	21.5
561.931	21.48
562.273	21.57
562.615	21.53
562.957	21.59
563.299	21.61
563.641	21.73
563.983	21.6
564.325	21.81
564.667	21.74
565.008	21.74
565.35	21.86
565.692	21.87
566.033	21.84
566.375	21.99
566.716	22.02
567.058	21.89
567.399	21.9
567.741	21.87
568.082	21.87
568.423	21.81
568.764	21.96
569.105	21.69
569.447	21.97
569.788	22.03
570.129	22.07
570.47	22.36
570.811	22.28
571.151	22.58
571.492	22.2
571.833	22.24
572.174	22.25
572.514	22.46
572.855	22.59
573.195	22.36
573.536	22.22
573.876	22.2
574.217	22.27
574.557	22.18
574.898	22.36
575.238	22.4
575.578	22.6
575.918	22.46
576.258	22.54
576.598	22.8
576.938	22.78
577.278	22.76
577.618	22.35
577.958	22.79
578.298	22.68
578.638	22.7
578.977	22.94
579.317	22.86
579.657	22.87
579.996	22.99
580.336	23.34
580.675	23.46
581.014	23.27
581.354	23.11
581.693	23.51
582.032	23.48
582.372	23.45
582.711	23.31
583.05	23.69
583.389	23.61
583.728	23.53
584.067	23.45
584.406	23.56
584.745	23.53
585.083	23.77
585.422	23.86
585.761	23.65
586.1	23.51
586.438	23.77
586.777	23.85
587.115	23.91
587.454	23.97
587.792	24.12
588.13	23.99
588.469	23.84
588.807	24.03
589.145	24.28
589.483	24.23
589.821	23.99
590.159	24.15
590.497	24.11
590.835	24.15
591.173	23.94
591.511	23.97
591.849	24.28
592.187	24.06
592.524	24.18
592.862	24.24
593.2	24.31
593.537	24.31
593.875	24.24
594.212	24.49
594.55	24.57
594.887	24.19
595.224	24.27
595.561	24.52
595.899	24.41
596.236	24.69
596.573	24.62
596.91	24.5
597.247	24.7
597.584	24.8
597.921	24.83
598.258	24.68
598.594	24.67
598.931	24.48
599.268	24.54
599.604	24.63
599.941	24.49
600.277	24.46
600.614	24.78
600.95	24.76
601.287	24.52
601.623	24.98
601.959	25.04
602.296	25.15
602.632	25.05
602.968	25.13
603.304	25.47
603.64	25.13
603.976	25.14
604.312	25.29
604.648	25.32
604.984	25.2
605.319	25.03
605.655	24.8
605.991	24.99
606.326	25.03
606.662	25.08
606.998	25.01
607.333	24.88
607.668	25.13
608.004	25.27
608.339	25.17
608.674	25.37
609.01	25.87
609.345	25.54
609.68	25.69
610.015	25.68
610.35	25.65
610.685	25.8
611.02	25.72
611.355	25.5
611.689	25.5
612.024	25.52
612.359	25.71
612.694	25.46
613.028	25.68
613.363	25.66
613.697	25.55
614.032	25.69
614.366	26.09
614.7	25.84
615.035	26.11
615.369	26.36
615.703	26.13
616.037	26.32
616.371	26.35
616.705	26.45
617.039	26.41
617.373	26.22
617.707	26.1
618.041	26.65
618.375	26.55
618.709	26.41
619.042	26.93
619.376	26.87
619.71	26.58
620.043	26.08
620.377	26.85
620.71	26.73
621.043	26.43
621.377	26.65
621.71	26.33
622.043	26.54
622.376	26.9
622.709	26.72
623.043	26.89
623.376	26.62
623.709	26.89
624.041	27.04
624.374	26.91
624.707	27.03
625.04	27.32
625.373	26.63
625.705	26.95
626.038	26.89
626.37	26.67
626.703	26.92
627.035	27.36
627.368	27.35
627.7	27.26
628.032	27.52
628.365	27.2
628.697	27.07
629.029	27.1
629.361	26.72
629.693	27.22
630.025	27.08
630.357	26.86
630.689	27.28
631.021	27.48
631.353	27.27
631.684	27.37
632.016	27.67
632.348	27.85
632.679	27.34
633.011	27.82
633.342	27.45
633.674	28.38
634.005	27.54
634.336	27.9
634.668	27.74
634.999	27.44
635.33	28.14
635.661	27.57
635.992	27.86
636.323	27.91
636.654	27.91
636.985	27.28
637.316	27.93
637.647	27.66
637.977	27.28
638.308	28.29
638.639	28.24
638.969	27.62
639.3	27.87
639.63	28.31
639.961	27.91
640.291	28.44
640.622	28.71
640.952	28.47
641.282	28.1
641.612	27.95
641.943	28.76
642.273	28.35
642.603	28.44
642.933	28.51
643.263	28.37
643.592	28.57
643.922	29.01
644.252	28.33
644.582	28.77
644.911	28.85
645.241	28.64
645.571	28.9
645.9	28.41
646.23	29.02
646.559	28.75
646.888	28.78
647.218	28.84
647.547	28.91
647.876	29.05
648.205	29.09
648.534	29.34
648.863	29.01
649.192	28.78
649.521	29.16
649.85	29.33
650.179	29.02
650.508	29.19
650.837	29.26
651.165	29.25
651.494	28.76
651.822	29.03
652.151	29.14
652.479	29.14
652.808	29.09
653.136	29.33
653.465	29.42
653.793	28.9
654.121	29.36
654.449	29.13
654.777	29.33
655.105	29.4
655.433	29.65
655.761	29.65
656.089	29.67
656.417	29.78
656.745	29.19
657.073	29.57
657.4	29.98
657.728	29.86
658.056	29.51
658.383	29.27
658.711	29.59
659.038	30.17
659.365	29.58
659.693	29.16
660.02	29.64
660.347	29.82
660.674	29.33
661.001	29.15
661.329	29.38
661.656	29.69
661.982	29.42
662.309	29.64
662.636	29.37
662.963	29.99
663.29	29.92
663.616	29.6
663.943	30.2
664.27	30.19
664.596	30.35
664.923	29.92
665.249	30.45
665.576	29.81
665.902	30.44
666.228	30.91
666.554	30.25
666.881	30.2
667.207	30.29
667.533	29.95
667.859	30.5
668.185	30.6
668.511	30.69
668.837	30.1
669.162	30.41
669.488	29.81
669.814	30.12
670.139	30.12
670.465	31.43
670.791	30.33
671.116	30.72
671.442	30.77
671.767	30.27
672.092	30.74
672.418	31.06
672.743	30.48
673.068	31.18
673.393	30.48
673.718	31.4
674.043	30.97
674.368	30.92
674.693	31
675.018	30.69
675.343	30.97
675.667	31.32
675.992	30.89
676.317	31.06
676.641	31.14
676.966	31.27
677.29	30.73
677.615	31
677.939	31.84
678.264	31.21
678.588	31.43
678.912	31.94
679.236	30.46
679.56	31.48
679.885	31
680.209	32.25
680.532	31.45
680.856	31.42
681.18	32.2
681.504	31.72
681.828	30.91
682.152	31.05
682.475	31.44
682.799	31.33
683.122	30.55
683.446	31.61
683.769	31.47
684.093	31.15
684.416	31.36
684.739	31.94
685.062	31.98
685.386	31.45
685.709	31.44
686.032	31.39
686.355	31.46
686.678	31.82
687.001	31.72
687.324	31.88
687.646	32.47
687.969	31.79
688.292	31.37
688.614	31.93
688.937	32.23
689.26	32.08
689.582	31.91
689.904	32.01
690.227	32.16
690.549	32.9
690.871	31.98
691.194	31.45
691.516	33.11
691.838	32.13
692.16	31.35
692.482	31.41
692.804	32.01
693.126	32.39
693.448	32.4
693.769	31.58
694.091	32.5
694.413	32.51
694.735	31.89
695.056	32.07
695.378	32.4
695.699	32.9
696.021	32.17
696.342	33.09
696.663	32.82
696.984	32.63
697.306	32.19
697.627	32.3
697.948	32.27
698.269	33.38
698.59	32.59
698.911	32.8
699.232	33.14
699.553	32.46
699.873	32.21
700.194	32.61
700.515	32.22
700.835	32.67
701.156	32.36
701.477	32.55
701.797	32.47
702.117	33.08
702.438	33.1
702.758	32.83
703.078	33.21
703.398	33.76
703.719	32.81
704.039	33.18
704.359	32.54
704.679	31.68
704.999	33.41
705.319	33.87
705.638	32.71
705.958	33.43
706.278	33.69
706.597	33.41
706.917	33.03
707.237	32.67
707.556	33.11
707.876	33.5
708.195	34.65
708.514	33.07
708.834	32.38
709.153	33.11
709.472	33.72
709.791	33.27
710.11	33.22
710.429	33.6
710.748	34.04
711.067	33.76
711.386	33.68
711.705	32.93
712.023	34.11
712.342	33.55
712.661	33.76
712.979	34.06
713.298	34.19
713.616	34.2
713.935	33.97
714.253	34.28
714.572	34.18
714.89	34.32
715.208	33.63
715.526	33.3
715.844	33.66
716.162	34.24
716.48	33.86
716.798	33.2
717.116	33.6
717.434	35.05
717.752	33.94
718.069	33.71
718.387	33.84
718.705	33.87
719.022	34.14
719.34	34.76
719.657	33.66
719.975	34.42
720.292	34.7
720.609	34.53
720.927	35.54
721.244	34.79
721.561	34.84
721.878	35.23
722.195	34.13
722.512	34.04
722.829	34.8
723.146	34.92
723.463	34.89
723.779	34.94
724.096	34.3
724.413	34.62
724.729	35.12
725.046	34.83
725.362	34.55
725.679	35.39
725.995	34.37
726.311	33.2
726.628	33.3
726.944	34.47
727.26	33.48
727.576	34.69
727.892	33.83
728.208	33.89
728.524	35.76
728.84	34.71
729.156	33.4
729.472	35.82
729.787	35
730.103	35.64
730.419	35.94
730.734	36.07
731.05	34.58
731.365	35.56
731.681	34.79
731.996	36.91
732.311	35.55
732.626	33.61
732.942	35.79
733.257	35.75
733.572	34.79
733.887	34.15
734.202	35.11
734.517	36.54
734.832	36.53
735.146	35.75
735.461	35.87
735.776	33.89
736.091	35.76
736.405	35.11
736.72	35.69
737.034	33.56
737.349	34.02
737.663	34.83
737.977	34.71
738.292	36.5
738.606	37.74
738.92	35.64
739.234	33.78
739.548	34.78
739.862	33.77
740.176	36.27
740.49	33.89
740.804	34.91
741.117	36.11
741.431	35.77
741.745	35.64
742.058	36.38
742.372	34.64
742.685	36.05
742.999	36.2
743.312	35.05
743.626	36.51
743.939	35.98
744.252	35.83
744.565	34.69
744.878	35.52
745.191	36.17
745.505	34.84
745.817	36.32
746.13	37.16
746.443	36.6
746.756	35.89
747.069	35.1
747.381	34.75
747.694	37.72
748.007	35.78
748.319	35.11
748.632	34.94
748.944	37.27
749.256	38.23
749.569	35.42
749.881	37.13
750.193	35.7
750.505	38.84
750.817	37.59
751.129	37.56
751.441	36.86
751.753	37.03
752.065	38.15
752.377	36.87
752.689	36.91
753	36.46
753.312	35.85
753.624	37.67
753.935	38.21
754.247	37.07
754.558	37.23
754.869	36.46
755.181	37.76
755.492	37.11
755.803	38.63
756.114	38.65
756.425	39.3
756.736	35.26
757.047	38.17
757.358	34.32
757.669	37.19
757.98	37.61
758.291	38.04
758.601	38.22
758.912	36.21
759.223	39.24
759.533	37.95
759.844	38.27
760.154	37.03
760.464	36.49
760.775	37.96
761.085	38.45
761.395	38.98
761.705	36.57
762.016	34.74
762.326	36.28
762.636	38.45
762.945	37.81
763.255	37.18
763.565	36.07
763.875	36.94
764.185	38.04
764.494	39.74
764.804	36.95
765.113	37.45
765.423	37.84
765.732	37.99
766.042	36.05
766.351	37.03
766.66	37.36
766.97	37.45
767.279	37.58
767.588	38.07
767.897	37.7
768.206	37.39
768.515	37.63
768.824	38.02
769.133	38.6
769.441	37.53
769.75	39.57
770.059	39.74
770.367	36.14
770.676	40.8
770.984	35.77
771.293	37.12
771.601	39.46
771.91	38.66
772.218	38.17
772.526	35.77
772.834	38.47
773.142	39.04
773.45	39.61
773.758	36.4
774.066	37.89
774.374	35.11
774.682	38.2
774.99	39.5
775.298	38.43
775.605	38.39
775.913	42
776.22	39.12
776.528	37.02
776.835	37.19
777.143	40.29
777.45	43.72
777.757	37.58
778.065	37.65
778.372	41.56
778.679	40.17
778.986	36.87
779.293	36.44
779.6	38.79
779.907	35.88
780.214	42.85
780.52	38.82
780.827	38.21
781.134	38.5
781.44	38.33
781.747	39.87
782.053	38.58
782.36	37.82
782.666	36.22
782.973	42.12
783.279	37.89
783.585	38.98
783.891	41.96
784.197	39.17
784.503	36.93
784.809	39.31
785.115	37.14
785.421	40.46
785.727	36.19
786.033	39.33
786.339	38.71
786.644	41.23
786.95	37.03
787.255	44.4
787.561	40.9
787.866	39.8
788.172	40.03
788.477	39.31
788.782	39.98
789.088	36.59
789.393	36.86
789.698	40.33
790.003	40.99
790.308	36.25
790.613	37.84
790.918	41.57
791.223	37.27
791.527	36.3
791.832	39.38
792.137	35.87
792.441	40.28
792.746	38.43
793.05	38.73
793.355	41.59
793.659	37.62
793.963	41.73
794.268	41.31
794.572	39.94
794.876	43.22
795.18	40.19
795.484	40.39
795.788	38.8
796.092	37.48
796.396	39.95
796.7	36.95
797.004	36.03
797.307	36.24
797.611	35.45
797.915	37.04
798.218	38.58
798.522	40.62
798.825	38.77
799.128	45.35
799.432	37.85
799.735	38.09
800.038	42.02
800.341	42.48
800.644	41.26
800.947	38.18
801.25	42.87
801.553	39.75
801.856	41.35
802.159	39.21
802.462	38.38
802.764	35.15
803.067	45.09
803.37	45.67
803.672	41.19
803.975	40.29
804.277	39.08
804.579	45.53
804.882	40.81
805.184	41.52
805.486	37.67
805.788	45.15
806.09	42.61
806.392	39.99
806.694	42.11
806.996	42.68
807.298	39.99
807.6	40.26
807.902	40
808.203	42.33
808.505	43.9
808.807	40.42
809.108	45.55
809.409	46.65
809.711	46.56
810.012	43.76
810.313	39.09
810.615	42.59
810.916	37.5
811.217	42
811.518	39.12
811.819	39.59
812.12	41.03
812.421	44.99
812.722	39.75
813.023	39.29
813.323	38.18
813.624	39.9
813.925	40.24
814.225	43.14
814.526	38.97
814.826	39.05
815.126	44.18
815.427	43.3
815.727	37.38
816.027	42.91
816.327	43.47
816.627	41.68
816.927	40.68
817.227	35.29
817.527	38.3
817.827	35.83
818.127	41.56
818.427	40.06
818.727	41.99
819.026	47.19
819.326	39.04
819.625	41.96
819.925	41.27
820.224	40.85
820.524	43.62
820.823	38.71
821.122	38.33
821.421	41.55
821.72	45.15
822.019	46.27
822.318	43.61
822.617	40.03
822.916	44.3
823.215	44.65
823.514	39.95
823.813	43.82
824.111	45.51
824.41	40.3
824.709	40.76
825.007	41.12
825.306	40.11
825.604	40.41
825.902	41.43
826.201	41.52
826.499	41.87
826.797	41.31
827.095	43.4
827.393	41.13
827.691	42.87
827.989	41.61
828.287	39.55
828.585	41.78
828.882	40.98
829.18	42.15
829.478	43.13
829.775	41.79
830.073	38.62
830.37	41.59
830.668	41.79
830.965	42.76
831.263	41.09
831.56	41.99
831.857	42.2
832.154	41.08
832.451	41.42
832.748	42.73
833.045	42.05
833.342	44.47
833.639	47.42
833.936	44.45
834.232	38.16
834.529	42.99
834.826	39.12
835.122	43.06
835.419	40.64
835.715	46.99
836.012	41.8
836.308	47.04
836.604	43.29
836.901	39.52
837.197	42.1
837.493	44.44
837.789	42.5
838.085	40.24
838.381	45.49
838.677	41.65
838.972	42.92
839.268	41.95
839.564	44.14
839.86	46.37
840.155	40.92
840.451	43.35
840.746	41.89
841.042	46.03
841.337	43.14
841.632	46.6
841.928	46.3
842.223	42.04
842.518	56.42
842.813	46.4
843.108	45.77
843.403	47.1
843.698	43.44
843.993	47.35
844.287	45.4
844.582	38.13
844.877	41.07
845.171	40.37
845.466	42.08
845.761	41.78
846.055	38.62
846.349	42.27
846.644	45.24
846.938	40.99
847.232	43.44
847.526	48.18
847.82	46.25
848.114	50.72
848.408	44.01
848.702	57.09
848.996	27.86
849.29	42.45
849.584	45.68
849.877	49.57
850.171	59.66
850.465	31.44
850.758	49.2
851.052	35.31
851.345	48.49
851.638	35.47
851.932	73.75
852.225	42.92
852.518	35.23
852.811	36.39
853.104	54.08
853.397	58.83
853.69	31.48
853.983	42.22
854.276	48.1
854.569	57.13
854.861	28.83
855.154	38.82
855.447	56.03
855.739	55
856.032	68.99
856.324	32.68
856.616	50.86
856.909	45.72
857.201	40.27
857.493	54.54
857.785	49.82
858.077	43.96
858.369	33.63
858.661	47.61
858.953	58.62
859.245	56
859.537	34.5
859.829	40.5
860.12	53.13
860.412	43.6
860.703	20.8
860.995	31.52
861.286	59.58
861.578	35.43
861.869	42.08
862.16	54.83
862.452	16.54
862.743	43.49
863.034	68.67
863.325	49.67
863.616	58.11
863.907	58.78
864.198	37.97
864.488	32.6
864.779	41.62
865.07	27.1
865.36	47.93
865.651	77.74
865.941	40.57
866.232	46.26
866.522	80.92
866.813	39.39
867.103	66.34
867.393	47.28
867.683	31.55
867.973	44.59
868.263	36.44
868.553	37.29
868.843	55.95
869.133	54.54
869.423	53.9
869.713	46.75
870.002	47.62
870.292	57.97
870.582	30.35
870.871	25.33
871.161	40.65
871.45	19.62
871.739	37.03
872.029	47.58
872.318	42.6
872.607	62.38
872.896	57.94
873.185	66.04
873.474	46.72
873.763	40.82
874.052	27.28
874.341	59.28
874.63	61.26
874.918	27.9
875.207	64.25
875.496	57.17
875.784	25.8
876.073	40.18
876.361	51.15
876.649	46.93
876.938	64.48
877.226	44.23
877.514	48.68
877.802	25.51
878.09	45.71
878.378	44.11
878.666	50.39
878.954	46.54
879.242	48.13
879.53	40.33
879.817	44.84
880.105	35.76
880.392	51.94
880.68	37.75
880.967	44.94
881.255	71.67
881.542	45.98
881.83	73.2
882.117	26.39
882.404	36.82
882.691	61.5
882.978	49.77
883.265	42.61
883.552	68.86
883.839	13.95
884.126	25.45
884.413	46.22
884.699	54.92
884.986	56.28
885.273	45.48
885.559	45.48
885.846	45.48
