Data from 0023_forehead_Reflection__2__58.txt Node

Date: Thu Oct 20 20:46:39 CDT 2022
User: ToomeyLab
Spectrometer: FLMS14357
Trigger mode: 0
Integration Time (sec): 1.000000E-2
Scans to average: 100
Electric dark correction enabled: true
Nonlinearity correction enabled: false
Boxcar width: 0
XAxis mode: Wavelengths
Number of Pixels in Spectrum: 2048
>>>>>Begin Spectral Data<<<<<
189.047	600.64
189.435	600.64
189.823	600.64
190.211	-41.41
190.599	368.58
190.987	28.59
191.375	-1960.94
191.763	105.24
192.151	-51.19
192.538	-276.7
192.926	-85.71
193.314	155.26
193.702	83.02
194.089	-136.74
194.477	70.34
194.864	129.71
195.252	-19.23
195.639	46.85
196.027	118.33
196.414	-43.57
196.801	-59.28
197.189	216.19
197.576	-22.19
197.963	1214.37
198.351	14.21
198.738	-1.02
199.125	-10.6
199.512	2.01
199.899	26.7
200.286	-28.61
200.673	40.98
201.06	37.52
201.447	-11.75
201.833	18.75
202.22	8.46
202.607	25.78
202.994	30.27
203.38	-15.49
203.767	2.41
204.154	24.05
204.54	-6.17
204.927	7.86
205.313	18.41
205.699	6.31
206.086	2.25
206.472	22.91
206.858	10.5
207.245	31.18
207.631	-34.37
208.017	31.85
208.403	66.47
208.789	2.22
209.175	37.3
209.561	18.1
209.947	23.54
210.333	13
210.719	7.84
211.105	-34.23
211.491	3.47
211.876	15.91
212.262	-10.45
212.648	0.24
213.034	1.77
213.419	-14.53
213.805	14.78
214.19	9.97
214.576	-16.31
214.961	-18.05
215.346	-5.15
215.732	7.38
216.117	15.82
216.502	7.47
216.888	24.2
217.273	22.68
217.658	11.02
218.043	-22.67
218.428	-17.63
218.813	-13.71
219.198	23.81
219.583	23.56
219.968	5.38
220.353	-2.64
220.738	7.88
221.122	3.82
221.507	-12.39
221.892	6.85
222.276	2.05
222.661	-1.39
223.046	1.8
223.43	4.19
223.815	-7.02
224.199	4.99
224.583	4.05
224.968	9.7
225.352	2.54
225.736	-0.01
226.121	4.09
226.505	3.47
226.889	2.75
227.273	5.69
227.657	5.15
228.041	3.85
228.425	2.68
228.809	1.72
229.193	1.66
229.577	1.49
229.961	1.22
230.344	1.41
230.728	2.47
231.112	0.7
231.495	2.42
231.879	1.23
232.263	1.31
232.646	1.08
233.03	0.77
233.413	0.79
233.797	1.22
234.18	1.42
234.563	-0.37
234.946	1.45
235.33	0.96
235.713	2.93
236.096	1.85
236.479	-1.23
236.862	1.91
237.245	2.32
237.628	0.28
238.011	1.59
238.394	1.02
238.777	2.04
239.16	2.23
239.543	1.71
239.925	2.36
240.308	2.95
240.691	1.94
241.073	2.16
241.456	1.49
241.838	1.34
242.221	2.46
242.603	2.07
242.986	1.44
243.368	1.23
243.75	1.13
244.133	1.71
244.515	1.54
244.897	1.78
245.279	1.74
245.661	2.16
246.043	1.51
246.425	0.98
246.807	2.43
247.189	1.57
247.571	1.33
247.953	1.57
248.335	1.52
248.717	1.53
249.098	1.51
249.48	1.52
249.862	1.31
250.243	1.15
250.625	1.69
251.006	2.4
251.388	2.3
251.769	2.27
252.151	2.47
252.532	1.16
252.913	1.74
253.295	1.31
253.676	1.72
254.057	1.67
254.438	1.68
254.819	2.48
255.2	1.97
255.581	1.61
255.962	1.43
256.343	2.08
256.724	1.1
257.105	1.32
257.486	0.95
257.867	1.17
258.247	1.12
258.628	0.96
259.009	1.23
259.389	0.98
259.77	1.5
260.15	1.38
260.531	1.36
260.911	1.32
261.292	1.31
261.672	1.57
262.052	1.61
262.432	1.66
262.813	1.95
263.193	0.86
263.573	1.85
263.953	1.38
264.333	1.78
264.713	1.32
265.093	1.45
265.473	2.73
265.853	1.37
266.233	1.45
266.612	1.26
266.992	2.58
267.372	1.58
267.752	1.54
268.131	1.03
268.511	1.44
268.89	1.57
269.27	1.58
269.649	1.8
270.029	1.59
270.408	1.31
270.787	1.66
271.167	2.15
271.546	1.74
271.925	1.39
272.304	1.1
272.683	1.73
273.062	1.43
273.441	1.7
273.82	1.25
274.199	1.76
274.578	1.67
274.957	1.71
275.336	1.5
275.715	1.84
276.093	1.56
276.472	1.94
276.851	1.95
277.229	1.34
277.608	1.01
277.986	0.78
278.365	1.29
278.743	1.58
279.122	1.86
279.5	1.08
279.878	1.7
280.257	1.23
280.635	1.65
281.013	2
281.391	1.88
281.769	1.67
282.147	1.54
282.525	1.34
282.903	1.65
283.281	1.82
283.659	1.45
284.037	1.5
284.415	1.92
284.792	1.78
285.17	1.23
285.548	1.05
285.925	1.44
286.303	1.54
286.68	1.52
287.058	1.48
287.435	1.41
287.813	1.12
288.19	1.87
288.567	1.07
288.945	1.96
289.322	1.22
289.699	2.15
290.076	1.96
290.453	1.59
290.83	1.49
291.207	2.03
291.584	1.31
291.961	1.43
292.338	1.77
292.715	1.21
293.092	1.99
293.469	1.71
293.845	1.64
294.222	1.22
294.599	2.11
294.975	1.58
295.352	1.87
295.728	1.77
296.105	1.63
296.481	1.93
296.858	1.68
297.234	1.65
297.61	1.59
297.986	1.76
298.363	1.75
298.739	2.1
299.115	1.9
299.491	2.04
299.867	1.84
300.243	2.11
300.619	2.02
300.995	1.78
301.371	1.8
301.746	2.06
302.122	1.64
302.498	2.2
302.874	2.18
303.249	2
303.625	1.91
304	2.26
304.376	2.13
304.751	2.17
305.127	1.76
305.502	1.81
305.878	2.32
306.253	2.2
306.628	1.84
307.003	2.07
307.378	2.29
307.754	2.4
308.129	1.61
308.504	1.92
308.879	2.58
309.254	2.42
309.629	2.29
310.003	2.47
310.378	2.83
310.753	2.36
311.128	2.26
311.502	2.15
311.877	2.44
312.252	2.17
312.626	2.08
313.001	2.2
313.375	2.6
313.75	2.31
314.124	2.5
314.498	2.19
314.873	2.52
315.247	2.38
315.621	2.16
315.995	2.57
316.369	2.44
316.743	2.94
317.117	2.65
317.491	1.86
317.865	3.07
318.239	2.47
318.613	2.54
318.987	2.79
319.361	2.72
319.734	2.91
320.108	2.66
320.482	2.59
320.855	3.1
321.229	2.98
321.602	2.88
321.976	2.7
322.349	2.83
322.723	2.91
323.096	2.01
323.469	2.95
323.843	2.94
324.216	2.95
324.589	2.95
324.962	3.05
325.335	2.64
325.708	3.23
326.081	2.75
326.454	3.06
326.827	2.83
327.2	3.25
327.573	3.23
327.945	2.81
328.318	2.85
328.691	2.76
329.063	2.75
329.436	2.42
329.809	3.09
330.181	2.93
330.553	2.62
330.926	2.79
331.298	2.9
331.671	3.18
332.043	3.11
332.415	3.03
332.787	3.1
333.159	2.66
333.532	3.42
333.904	2.7
334.276	3.18
334.648	2.86
335.02	2.85
335.391	3.23
335.763	3.07
336.135	2.76
336.507	3.08
336.879	3.13
337.25	2.79
337.622	3.09
337.993	3.32
338.365	2.92
338.736	3.27
339.108	3.1
339.479	3.15
339.851	3.99
340.222	2.92
340.593	3.02
340.964	3.48
341.336	3.38
341.707	3.49
342.078	3.25
342.449	3.07
342.82	3.1
343.191	3.41
343.562	3.47
343.933	3.13
344.303	3.54
344.674	2.77
345.045	3.39
345.416	2.97
345.786	3.13
346.157	3.12
346.527	3.18
346.898	3.55
347.268	3.64
347.639	3.52
348.009	3.22
348.38	3.73
348.75	3.16
349.12	3.05
349.49	3.62
349.861	3.92
350.231	3.37
350.601	3.41
350.971	3.45
351.341	3.65
351.711	3.66
352.081	4
352.45	3.47
352.82	3.2
353.19	3.58
353.56	3.31
353.929	3.56
354.299	3.53
354.669	3.79
355.038	3.17
355.408	3.35
355.777	3.37
356.147	3.12
356.516	3.62
356.885	3.98
357.254	3.97
357.624	3.36
357.993	3.49
358.362	3.63
358.731	3.8
359.1	3.75
359.469	3.82
359.838	3.66
360.207	3.94
360.576	3.53
360.945	3.42
361.314	3.89
361.682	3.51
362.051	3.81
362.42	3.54
362.788	3.72
363.157	3.78
363.525	3.84
363.894	4.17
364.262	3.63
364.631	4.06
364.999	3.56
365.367	3.81
365.735	3.65
366.104	3.89
366.472	3.93
366.84	3.85
367.208	4.19
367.576	3.72
367.944	4.54
368.312	4.31
368.68	4.17
369.048	4
369.416	4.16
369.783	4.3
370.151	4.36
370.519	4.26
370.886	4.11
371.254	4.63
371.621	4.01
371.989	4.23
372.356	4.22
372.724	4.46
373.091	4.35
373.458	4.24
373.826	4.45
374.193	4.37
374.56	4.44
374.927	4.44
375.294	4.35
375.661	4.23
376.028	4.03
376.395	4.03
376.762	4.01
377.129	4.41
377.496	4.31
377.863	4.36
378.229	4.54
378.596	4.24
378.963	4.31
379.329	4.19
379.696	4.6
380.062	4.43
380.429	4.58
380.795	4.35
381.161	4.46
381.528	4.5
381.894	4.15
382.26	4.2
382.626	4.5
382.993	4.52
383.359	4.41
383.725	4.59
384.091	4.4
384.457	4.29
384.823	4.33
385.188	4.62
385.554	4.59
385.92	4.62
386.286	4.48
386.651	4.43
387.017	4.38
387.383	4.68
387.748	4.7
388.114	4.66
388.479	4.87
388.845	4.82
389.21	4.62
389.575	4.66
389.94	4.92
390.306	4.64
390.671	4.67
391.036	4.88
391.401	4.7
391.766	4.76
392.131	4.59
392.496	4.71
392.861	4.83
393.226	4.72
393.591	4.63
393.956	4.82
394.32	4.99
394.685	5.08
395.05	4.77
395.414	4.89
395.779	4.79
396.143	4.99
396.508	4.87
396.872	4.78
397.236	5.26
397.601	5.25
397.965	4.88
398.329	4.95
398.694	5.13
399.058	5.16
399.422	4.89
399.786	5.06
400.15	4.92
400.514	4.76
400.878	5.12
401.242	5.33
401.605	5.22
401.969	5.23
402.333	5.05
402.697	5.08
403.06	5.01
403.424	5.11
403.787	4.96
404.151	5.12
404.514	5.07
404.878	5.12
405.241	4.9
405.604	5.21
405.968	5.14
406.331	5.15
406.694	5.1
407.057	4.97
407.42	5.13
407.783	5.14
408.146	5.4
408.509	5.38
408.872	5.44
409.235	5.36
409.598	5.25
409.961	5.11
410.323	5.34
410.686	5.49
411.049	5.17
411.411	5.42
411.774	5.15
412.136	5.29
412.499	5.54
412.861	5.3
413.223	5.64
413.586	5.72
413.948	5.44
414.31	5.57
414.672	5.32
415.035	5.76
415.397	5.49
415.759	5.4
416.121	5.3
416.483	5.71
416.845	5.56
417.206	5.37
417.568	5.54
417.93	5.18
418.292	5.5
418.653	5.44
419.015	5.35
419.377	5.47
419.738	5.53
420.1	5.37
420.461	5.61
420.822	5.64
421.184	5.55
421.545	5.48
421.906	5.49
422.267	5.46
422.629	5.49
422.99	5.59
423.351	5.65
423.712	5.58
424.073	5.58
424.434	5.72
424.795	5.56
425.155	5.59
425.516	5.54
425.877	5.57
426.238	5.77
426.598	5.64
426.959	5.78
427.32	5.91
427.68	5.87
428.041	5.94
428.401	6.05
428.761	6.13
429.122	5.97
429.482	6.09
429.842	6.13
430.202	6.1
430.563	6.06
430.923	6.01
431.283	6.08
431.643	6.1
432.003	6.31
432.363	6.33
432.722	6.16
433.082	6.23
433.442	6.23
433.802	6.15
434.161	5.94
434.521	6.12
434.881	6.04
435.24	6.15
435.6	6.17
435.959	6.27
436.319	6.34
436.678	6.35
437.037	6.49
437.396	6.32
437.756	6.27
438.115	6.32
438.474	6.41
438.833	6.21
439.192	6.28
439.551	6.24
439.91	6.33
440.269	6.26
440.628	6.31
440.987	6.28
441.345	6.26
441.704	6.39
442.063	6.29
442.421	6.32
442.78	6.44
443.138	6.58
443.497	6.5
443.855	6.64
444.214	6.48
444.572	6.67
444.93	6.47
445.288	6.66
445.647	6.54
446.005	6.59
446.363	6.52
446.721	6.6
447.079	6.47
447.437	6.38
447.795	6.48
448.153	6.55
448.51	6.6
448.868	6.64
449.226	6.7
449.584	6.87
449.941	6.89
450.299	6.92
450.656	7
451.014	6.89
451.371	6.9
451.729	7.01
452.086	6.92
452.443	7.01
452.801	6.98
453.158	6.93
453.515	6.88
453.872	6.91
454.229	6.92
454.586	7.08
454.943	7.16
455.3	7.03
455.657	7.13
456.014	7.26
456.371	7.17
456.727	7.26
457.084	7.21
457.441	7.16
457.797	7.32
458.154	7.25
458.51	7.28
458.867	7.32
459.223	7.08
459.58	7.12
459.936	7.2
460.292	7.07
460.648	7.14
461.005	6.85
461.361	6.88
461.717	7.08
462.073	7.3
462.429	7.59
462.785	7.48
463.141	7.62
463.496	7.55
463.852	7.79
464.208	7.59
464.564	7.71
464.919	7.58
465.275	7.48
465.631	7.58
465.986	7.56
466.342	7.5
466.697	7.6
467.052	7.73
467.408	7.72
467.763	7.72
468.118	7.68
468.473	7.63
468.829	7.71
469.184	7.74
469.539	7.9
469.894	7.79
470.249	7.7
470.603	7.88
470.958	7.87
471.313	7.86
471.668	7.77
472.023	7.8
472.377	8.01
472.732	7.91
473.086	7.97
473.441	7.89
473.795	7.99
474.15	7.82
474.504	8
474.859	7.93
475.213	8.08
475.567	8.15
475.921	8.08
476.275	8.14
476.63	8.11
476.984	8.15
477.338	8.01
477.692	8.03
478.045	8.15
478.399	8.1
478.753	8.07
479.107	7.98
479.461	8.06
479.814	7.94
480.168	8.08
480.521	8.07
480.875	8.2
481.228	8.28
481.582	8.17
481.935	8.1
482.289	8.31
482.642	8.07
482.995	8.03
483.348	8.01
483.701	8.08
484.055	7.92
484.408	7.65
484.761	7.41
485.114	7.2
485.466	7.39
485.819	7.8
486.172	8.16
486.525	8.43
486.878	8.49
487.23	8.45
487.583	8.29
487.936	8.15
488.288	7.89
488.641	7.83
488.993	7.84
489.345	7.93
489.698	8.09
490.05	8.34
490.402	8.47
490.754	8.64
491.107	8.62
491.459	8.64
491.811	8.62
492.163	8.46
492.515	8.03
492.866	7.89
493.218	8.01
493.57	8.4
493.922	8.73
494.274	8.91
494.625	8.95
494.977	9.11
495.328	9.17
495.68	9.05
496.031	9.11
496.383	9.06
496.734	8.91
497.086	9.09
497.437	8.92
497.788	8.75
498.139	8.7
498.49	8.85
498.842	9.03
499.193	8.96
499.544	9.05
499.894	9.05
500.245	8.97
500.596	9.17
500.947	9.32
501.298	9.2
501.648	9.38
501.999	9.38
502.35	9.37
502.7	9.29
503.051	9.43
503.401	9.46
503.752	9.26
504.102	9.36
504.452	9.44
504.803	9.59
505.153	9.35
505.503	9.44
505.853	9.33
506.203	9.4
506.553	9.53
506.903	9.54
507.253	9.57
507.603	9.6
507.953	9.64
508.303	9.66
508.652	9.6
509.002	9.47
509.352	9.58
509.701	9.44
510.051	9.45
510.4	9.46
510.75	9.45
511.099	9.61
511.449	9.6
511.798	9.69
512.147	9.52
512.496	9.69
512.846	9.69
513.195	9.7
513.544	9.65
513.893	9.68
514.242	9.74
514.591	9.85
514.939	9.96
515.288	9.97
515.637	10
515.986	10.14
516.334	10
516.683	9.91
517.032	10.08
517.38	10.1
517.729	10.02
518.077	9.98
518.426	9.96
518.774	9.86
519.122	9.79
519.47	9.71
519.819	9.71
520.167	9.75
520.515	9.96
520.863	10.05
521.211	10.23
521.559	10.23
521.907	10.16
522.255	10.21
522.602	10.25
522.95	10.26
523.298	10.33
523.645	10.33
523.993	10.49
524.341	10.42
524.688	10.32
525.036	10.45
525.383	10.44
525.73	10.24
526.078	10.25
526.425	10.14
526.772	9.87
527.119	10
527.466	10.14
527.814	10.21
528.161	10.37
528.508	10.34
528.854	10.26
529.201	9.9
529.548	9.59
529.895	9.32
530.242	9.54
530.588	9.95
530.935	10.36
531.282	10.55
531.628	10.62
531.975	10.74
532.321	10.76
532.667	10.66
533.014	10.64
533.36	10.59
533.706	10.59
534.052	10.25
534.399	10.02
534.745	9.98
535.091	10.24
535.437	10.62
535.783	10.89
536.129	10.99
536.474	11.14
536.82	11.04
537.166	10.98
537.512	10.68
537.857	10.59
538.203	10.58
538.549	10.8
538.894	11.06
539.239	11.26
539.585	11.17
539.93	11.36
540.276	11.4
540.621	11.15
540.966	11.07
541.311	11.03
541.656	10.95
542.001	10.65
542.346	10.38
542.691	10.22
543.036	10.38
543.381	10.81
543.726	11.08
544.071	11.24
544.415	11.14
544.76	11.21
545.105	11.31
545.449	11.36
545.794	11.55
546.138	11.56
546.483	11.5
546.827	11.4
547.171	11.32
547.516	11.38
547.86	11.46
548.204	11.26
548.548	11.35
548.892	11.7
549.236	11.76
549.58	11.92
549.924	11.94
550.268	11.91
550.612	12.18
550.956	11.96
551.3	12.13
551.643	12.05
551.987	12.04
552.33	12.04
552.674	12.16
553.017	11.97
553.361	12.16
553.704	11.94
554.048	11.75
554.391	12.01
554.734	12.03
555.077	12.29
555.42	12.22
555.764	12.39
556.107	12.41
556.45	12.46
556.793	12.35
557.135	12.32
557.478	12.54
557.821	12.29
558.164	12.27
558.507	12.38
558.849	12.55
559.192	12.6
559.534	12.66
559.877	12.7
560.219	12.63
560.562	12.78
560.904	12.73
561.246	12.44
561.589	12.84
561.931	12.45
562.273	12.5
562.615	12.56
562.957	12.73
563.299	12.67
563.641	12.92
563.983	12.79
564.325	12.75
564.667	12.8
565.008	13.01
565.35	12.85
565.692	12.8
566.033	12.91
566.375	12.69
566.716	12.44
567.058	12.49
567.399	12.79
567.741	12.57
568.082	12.6
568.423	12.82
568.764	13.07
569.105	13.16
569.447	13.35
569.788	13.15
570.129	13.21
570.47	13.09
570.811	13.02
571.151	13.03
571.492	13.17
571.833	13.32
572.174	13.18
572.514	12.95
572.855	13
573.195	12.84
573.536	12.83
573.876	13.02
574.217	13
574.557	13.3
574.898	13.37
575.238	13.55
575.578	13.42
575.918	13.27
576.258	13.33
576.598	13.2
576.938	13.34
577.278	13.49
577.618	13.38
577.958	13.69
578.298	13.63
578.638	13.58
578.977	13.72
579.317	13.45
579.657	13.77
579.996	14.01
580.336	13.71
580.675	13.77
581.014	14.04
581.354	14.08
581.693	13.88
582.032	13.94
582.372	14.07
582.711	14.05
583.05	14.18
583.389	14.11
583.728	13.95
584.067	13.95
584.406	14.11
584.745	14.11
585.083	14.23
585.422	14.23
585.761	14.24
586.1	13.99
586.438	14.02
586.777	14.19
587.115	14.13
587.454	14.24
587.792	14.17
588.13	13.95
588.469	14.07
588.807	14
589.145	14.44
589.483	14.36
589.821	13.97
590.159	14.28
590.497	14.24
590.835	14.24
591.173	14.41
591.511	14.16
591.849	14.45
592.187	14.35
592.524	14.6
592.862	14.56
593.2	14.69
593.537	14.77
593.875	14.5
594.212	14.79
594.55	14.68
594.887	14.95
595.224	14.43
595.561	14.71
595.899	14.54
596.236	14.81
596.573	14.83
596.91	14.69
597.247	14.69
597.584	14.48
597.921	14.57
598.258	14.39
598.594	14.18
598.931	14.65
599.268	14.7
599.604	14.98
599.941	15.01
600.277	15.11
600.614	14.72
600.95	15.24
601.287	14.95
601.623	15.12
601.959	14.99
602.296	14.82
602.632	15.13
602.968	15.2
603.304	15.02
603.64	14.98
603.976	15.06
604.312	15.3
604.648	14.84
604.984	14.83
605.319	14.97
605.655	14.98
605.991	14.66
606.326	14.76
606.662	14.91
606.998	15.2
607.333	15.24
607.668	15.45
608.004	15.49
608.339	15.42
608.674	15.53
609.01	15.46
609.345	15.46
609.68	15.51
610.015	15.5
610.35	15.32
610.685	15.11
611.02	15.07
611.355	15.37
611.689	15.5
612.024	15.77
612.359	15.94
612.694	15.91
613.028	15.81
613.363	15.75
613.697	15.93
614.032	16.16
614.366	15.92
614.7	15.87
615.035	16
615.369	16.2
615.703	15.63
616.037	16
616.371	16.13
616.705	16.26
617.039	16.32
617.373	16.61
617.707	16.22
618.041	16.25
618.375	15.93
618.709	16.43
619.042	16.01
619.376	16.05
619.71	16.06
620.043	16.39
620.377	16.52
620.71	16.2
621.043	16.61
621.377	16.18
621.71	16.31
622.043	16.42
622.376	16.75
622.709	16.32
623.043	16.94
623.376	16.76
623.709	16.31
624.041	16.36
624.374	16.7
624.707	16.31
625.04	16.5
625.373	16.74
625.705	16.37
626.038	16.53
626.37	16.61
626.703	16.92
627.035	16.8
627.368	16.54
627.7	16.59
628.032	16.52
628.365	16.74
628.697	16.32
629.029	16.47
629.361	16.96
629.693	16.69
630.025	16.9
630.357	16.7
630.689	17.07
631.021	16.64
631.353	17.08
631.684	17.15
632.016	17.05
632.348	17.53
632.679	17.05
633.011	16.94
633.342	16.99
633.674	16.99
634.005	17.11
634.336	17.16
634.668	17.13
634.999	16.97
635.33	17
635.661	16.79
635.992	17.15
636.323	17.68
636.654	17.59
636.985	17.37
637.316	17.32
637.647	17.05
637.977	17.18
638.308	17.01
638.639	17.21
638.969	17.11
639.3	17.63
639.63	17.7
639.961	17.44
640.291	17.76
640.622	17.49
640.952	17.86
641.282	17.75
641.612	17.74
641.943	17.66
642.273	17.78
642.603	17.76
642.933	17.57
643.263	17.46
643.592	17.61
643.922	17.91
644.252	17.77
644.582	17.57
644.911	17.91
645.241	18.46
645.571	17.94
645.9	17.93
646.23	17.75
646.559	18.32
646.888	18.05
647.218	18.52
647.547	18.27
647.876	18.01
648.205	17.85
648.534	18.16
648.863	17.79
649.192	17.81
649.521	18.38
649.85	18.45
650.179	17.91
650.508	18.12
650.837	18.01
651.165	18.07
651.494	18.5
651.822	18.2
652.151	17.69
652.479	18.23
652.808	18.43
653.136	18.8
653.465	17.93
653.793	18.23
654.121	18.6
654.449	18.25
654.777	18.19
655.105	18.37
655.433	18.29
655.761	18.89
656.089	18.75
656.417	18.71
656.745	18.48
657.073	18.67
657.4	18.3
657.728	19.11
658.056	18.88
658.383	18.66
658.711	18.92
659.038	18.73
659.365	18.45
659.693	18.63
660.02	18.24
660.347	18.54
660.674	18.33
661.001	18.3
661.329	18.4
661.656	18.65
661.982	18.84
662.309	19.01
662.636	18.83
662.963	18.87
663.29	18.78
663.616	19.2
663.943	18.95
664.27	19.17
664.596	18.77
664.923	18.79
665.249	18.88
665.576	19.4
665.902	19.31
666.228	19.6
666.554	19.25
666.881	19.02
667.207	19.25
667.533	19.91
667.859	19.73
668.185	19.77
668.511	18.76
668.837	19.61
669.162	19.14
669.488	19.89
669.814	19.61
670.139	18.82
670.465	19.14
670.791	19.62
671.116	19.85
671.442	19.3
671.767	19.56
672.092	19.53
672.418	18.93
672.743	19.74
673.068	19.24
673.393	19.51
673.718	20.1
674.043	19.48
674.368	19.92
674.693	19.91
675.018	19.61
675.343	19.47
675.667	19.68
675.992	19.86
676.317	19.58
676.641	18.61
676.966	20.18
677.29	20.48
677.615	19.3
677.939	20.38
678.264	19.62
678.588	20.28
678.912	19.53
679.236	19.87
679.56	19.71
679.885	19.4
680.209	20.7
680.532	19.45
680.856	19.35
681.18	19.77
681.504	19.65
681.828	19.71
682.152	20.07
682.475	19.92
682.799	20.06
683.122	19.95
683.446	20.8
683.769	20
684.093	20.23
684.416	20.67
684.739	20.4
685.062	21.18
685.386	20.51
685.709	20.6
686.032	20.79
686.355	20.53
686.678	20.39
687.001	20.52
687.324	20.77
687.646	20.62
687.969	20.39
688.292	19.99
688.614	21.19
688.937	20.24
689.26	20.52
689.582	20.16
689.904	20.8
690.227	20.77
690.549	21.19
690.871	20.66
691.194	20.96
691.516	21.29
691.838	21.16
692.16	20.96
692.482	20.99
692.804	21.2
693.126	21.36
693.448	21.92
693.769	21.81
694.091	21.89
694.413	21.53
694.735	22.07
695.056	21.52
695.378	21.39
695.699	20.28
696.021	20.76
696.342	20.93
696.663	21.02
696.984	21.67
697.306	21.7
697.627	21.07
697.948	21.25
698.269	20.69
698.59	20.36
698.911	20.94
699.232	21.14
699.553	20.95
699.873	20.54
700.194	20.48
700.515	20.7
700.835	21.17
701.156	21.05
701.477	21.53
701.797	21.37
702.117	21.61
702.438	21.45
702.758	21.41
703.078	21.61
703.398	21.27
703.719	22
704.039	21.12
704.359	22.05
704.679	21.83
704.999	21.19
705.319	21.8
705.638	23
705.958	20.65
706.278	22.16
706.597	21.3
706.917	21.86
707.237	20.87
707.556	21.26
707.876	22.23
708.195	21.62
708.514	21.12
708.834	21.43
709.153	21.26
709.472	22.21
709.791	21.3
710.11	22.05
710.429	22.23
710.748	21.79
711.067	22.37
711.386	21.92
711.705	21.37
712.023	23.3
712.342	21.85
712.661	22.07
712.979	22.25
713.298	22.15
713.616	22.28
713.935	21.98
714.253	21.32
714.572	22.97
714.89	22.94
715.208	21.55
715.526	22.39
715.844	22.64
716.162	22.37
716.48	22.5
716.798	21.54
717.116	22.08
717.434	21.81
717.752	21.59
718.069	22.42
718.387	22.47
718.705	22.24
719.022	23.03
719.34	23.18
719.657	23.79
719.975	23.48
720.292	23.16
720.609	21.97
720.927	23.43
721.244	22.49
721.561	23.13
721.878	22.14
722.195	22.25
722.512	22.2
722.829	23.21
723.146	22.84
723.463	22.81
723.779	23.29
724.096	23.19
724.413	23.1
724.729	22.59
725.046	21.59
725.362	24.54
725.679	24.42
725.995	23.13
726.311	24.05
726.628	23.08
726.944	23.37
727.26	23.27
727.576	23.97
727.892	22
728.208	22.96
728.524	23.11
728.84	23.1
729.156	24.32
729.472	24.44
729.787	24.04
730.103	23.18
730.419	23.99
730.734	23.56
731.05	23.16
731.365	23.13
731.681	23.33
731.996	23.41
732.311	23.08
732.626	23.94
732.942	23.45
733.257	22.19
733.572	23.98
733.887	23.99
734.202	23.95
734.517	23.23
734.832	24.82
735.146	24.07
735.461	22.69
735.776	23
736.091	24.24
736.405	25.33
736.72	23.76
737.034	24.59
737.349	22.61
737.663	24.68
737.977	23.14
738.292	23.42
738.606	24.06
738.92	22.74
739.234	23.99
739.548	23.1
739.862	22.37
740.176	22.87
740.49	24.36
740.804	23.67
741.117	22.31
741.431	23.46
741.745	23.56
742.058	23.67
742.372	25.15
742.685	23.51
742.999	23.23
743.312	24.07
743.626	22.34
743.939	24.86
744.252	24.84
744.565	23.2
744.878	23.27
745.191	24.45
745.505	24.12
745.817	22.89
746.13	23.35
746.443	24.38
746.756	25.44
747.069	23.35
747.381	23.71
747.694	24.9
748.007	22.75
748.319	24.42
748.632	23.78
748.944	24.53
749.256	23.58
749.569	23.77
749.881	24.8
750.193	25.19
750.505	24.35
750.817	23.9
751.129	24.69
751.441	24.74
751.753	24.43
752.065	25.15
752.377	22.84
752.689	23.81
753	24.18
753.312	24.49
753.624	24.87
753.935	24.77
754.247	25.18
754.558	23.03
754.869	25.28
755.181	25.05
755.492	25.06
755.803	24.8
756.114	23.87
756.425	25.54
756.736	24.02
757.047	26.5
757.358	26.07
757.669	25.23
757.98	25.51
758.291	25.77
758.601	23.98
758.912	24.6
759.223	25.82
759.533	26.23
759.844	27.04
760.154	25.32
760.464	25.11
760.775	25.9
761.085	25.05
761.395	24.09
761.705	24.34
762.016	25.35
762.326	24.33
762.636	25.49
762.945	26.26
763.255	25.49
763.565	25.68
763.875	25.75
764.185	24.64
764.494	26.37
764.804	25.55
765.113	26.03
765.423	25.6
765.732	25.63
766.042	26.37
766.351	24.76
766.66	25.49
766.97	26.31
767.279	27.5
767.588	26.81
767.897	26.07
768.206	26.34
768.515	25.61
768.824	26.91
769.133	26.02
769.441	24.37
769.75	27.31
770.059	28.33
770.367	27.29
770.676	26.51
770.984	27.61
771.293	27.93
771.601	25.79
771.91	26.07
772.218	25.52
772.526	26.43
772.834	24.29
773.142	26.3
773.45	25.97
773.758	27.2
774.066	23.87
774.374	25.87
774.682	26.82
774.99	27.86
775.298	27.16
775.605	23.92
775.913	25.91
776.22	26.12
776.528	24.41
776.835	24.55
777.143	31.44
777.45	26.24
777.757	27.12
778.065	23.02
778.372	27.87
778.679	24.98
778.986	26.3
779.293	25.2
779.6	27.17
779.907	28.55
780.214	29.52
780.52	25.09
780.827	27.7
781.134	24.95
781.44	22.99
781.747	26.11
782.053	26.41
782.36	29.04
782.666	24.36
782.973	26.83
783.279	30.35
783.585	26.76
783.891	26.2
784.197	28.64
784.503	26.83
784.809	28.78
785.115	28.74
785.421	27.01
785.727	24.13
786.033	24.88
786.339	29.23
786.644	26.47
786.95	27.94
787.255	26.05
787.561	27.79
787.866	27.14
788.172	23.57
788.477	25.22
788.782	27.61
789.088	25.8
789.393	26.94
789.698	30.28
790.003	28.84
790.308	27.15
790.613	29.6
790.918	29.12
791.223	28.37
791.527	25.39
791.832	25.97
792.137	28.69
792.441	30.15
792.746	27.42
793.05	25.3
793.355	29.43
793.659	30.38
793.963	26.65
794.268	25.09
794.572	25.44
794.876	27.63
795.18	28.25
795.484	27.37
795.788	26.25
796.092	26.95
796.396	29.93
796.7	29.15
797.004	24.08
797.307	24.38
797.611	30.64
797.915	31.05
798.218	27.34
798.522	28.27
798.825	26.72
799.128	29.13
799.432	31.91
799.735	30.75
800.038	30.03
800.341	28.89
800.644	25.56
800.947	30.6
801.25	33.68
801.553	31.75
801.856	30.03
802.159	23.48
802.462	28.46
802.764	27.46
803.067	23.31
803.37	30.72
803.672	27.17
803.975	30.9
804.277	27.33
804.579	23.15
804.882	26.28
805.184	26.35
805.486	29.79
805.788	27.57
806.09	30.32
806.392	28.4
806.694	30.92
806.996	33.57
807.298	28.95
807.6	23.81
807.902	29.95
808.203	26.6
808.505	28.3
808.807	29.05
809.108	30.61
809.409	23.61
809.711	27.01
810.012	29.16
810.313	26.93
810.615	29.2
810.916	31.94
811.217	25.85
811.518	30.08
811.819	29.16
812.12	28.09
812.421	27.95
812.722	28.57
813.023	27.88
813.323	27.14
813.624	25.88
813.925	31.24
814.225	24.46
814.526	27.61
814.826	34.07
815.126	31.51
815.427	26.18
815.727	32.97
816.027	29.37
816.327	30.19
816.627	30.83
816.927	26.26
817.227	26.27
817.527	27.32
817.827	24.86
818.127	29.33
818.427	27.96
818.727	31.25
819.026	27.34
819.326	29.11
819.625	30.19
819.925	31.42
820.224	35.83
820.524	28.27
820.823	29.83
821.122	25.62
821.421	25.43
821.72	28.41
822.019	28.63
822.318	24.07
822.617	29.44
822.916	27.84
823.215	28.66
823.514	26.59
823.813	29.86
824.111	29.65
824.41	28.53
824.709	29.49
825.007	30.41
825.306	29.74
825.604	31.34
825.902	31.15
826.201	31.68
826.499	30.32
826.797	32.01
827.095	32.43
827.393	32.15
827.691	33.14
827.989	31.73
828.287	31.82
828.585	30.14
828.882	30.94
829.18	30.09
829.478	31.32
829.775	30.83
830.073	29.77
830.37	32.21
830.668	30.63
830.965	33.73
831.263	34.16
831.56	32.29
831.857	31.78
832.154	30.44
832.451	33.93
832.748	31.22
833.045	32.8
833.342	32.72
833.639	32.55
833.936	29.42
834.232	30.41
834.529	31.49
834.826	33
835.122	31.55
835.419	27.84
835.715	30.69
836.012	29.57
836.308	27.9
836.604	30.45
836.901	33.21
837.197	30.12
837.493	30.92
837.789	31.36
838.085	30.12
838.381	33.23
838.677	34.35
838.972	31.94
839.268	30.87
839.564	34.82
839.86	30.32
840.155	35.51
840.451	25.02
840.746	33.08
841.042	24.63
841.337	28.92
841.632	19.9
841.928	27.82
842.223	27.42
842.518	35.61
842.813	37.78
843.108	33.02
843.403	33.09
843.698	30.24
843.993	31.76
844.287	40.05
844.582	33.84
844.877	29.59
845.171	34.03
845.466	35.18
845.761	26.13
846.055	31.54
846.349	30.1
846.644	45.73
846.938	19.72
847.232	51.53
847.526	38.38
847.82	39.99
848.114	37.02
848.408	33.46
848.702	27.38
848.996	38.83
849.29	33.54
849.584	29.03
849.877	31.08
850.171	32.69
850.465	37.36
850.758	40.94
851.052	41.86
851.345	56.62
851.638	25.59
851.932	39.8
852.225	24.16
852.518	36.22
852.811	33.59
853.104	42.73
853.397	28.44
853.69	23.77
853.983	43.86
854.276	21.91
854.569	11.66
854.861	39.19
855.154	45.34
855.447	41.4
855.739	44.04
856.032	44.51
856.324	40.49
856.616	46.54
856.909	16.8
857.201	43.42
857.493	47.83
857.785	41.97
858.077	36.19
858.369	40.45
858.661	19.44
858.953	22.62
859.245	49.04
859.537	40.3
859.829	41.59
860.12	17.09
860.412	42.11
860.703	20.26
860.995	33.06
861.286	29.67
861.578	33.33
861.869	38.05
862.16	57.95
862.452	28.11
862.743	34.87
863.034	25.11
863.325	16.07
863.616	31.6
863.907	39.42
864.198	40.08
864.488	32.79
864.779	26.81
865.07	44.89
865.36	46.85
865.651	35.27
865.941	25.37
866.232	32.62
866.522	44.92
866.813	42.53
867.103	39.8
867.393	28.87
867.683	23.42
867.973	45.77
868.263	26.41
868.553	31.49
868.843	37.18
869.133	36.74
869.423	18.28
869.713	50.08
870.002	44.12
870.292	44.09
870.582	47.27
870.871	13.5
871.161	50.33
871.45	32.92
871.739	25.54
872.029	38.05
872.318	51.1
872.607	46.54
872.896	40.54
873.185	38.5
873.474	21.83
873.763	23.31
874.052	44.71
874.341	30.51
874.63	30.34
874.918	55.85
875.207	47.62
875.496	40.74
875.784	52.37
876.073	28.86
876.361	29.59
876.649	46.6
876.938	26.07
877.226	37.51
877.514	31.68
877.802	30.43
878.09	9.9
878.378	28.32
878.666	14.55
878.954	19.17
879.242	20.37
879.53	29.57
879.817	37.99
880.105	34.08
880.392	32.34
880.68	14.56
880.967	32.76
881.255	65.75
881.542	16.64
881.83	29.26
882.117	28.27
882.404	38.96
882.691	31.95
882.978	34.02
883.265	33.05
883.552	29.15
883.839	30.73
884.126	28.58
884.413	30.19
884.699	34.14
884.986	33.22
885.273	40.19
885.559	40.19
885.846	40.19
