Data from 815656_chest_Reflection__1__95.txt Node

Date: Fri Sep 16 15:26:18 CDT 2022
User: ToomeyLab
Spectrometer: FLMS14357
Trigger mode: 0
Integration Time (sec): 1.000000E-2
Scans to average: 100
Electric dark correction enabled: true
Nonlinearity correction enabled: false
Boxcar width: 0
XAxis mode: Wavelengths
Number of Pixels in Spectrum: 2048
>>>>>Begin Spectral Data<<<<<
189.047	-214.34
189.435	-214.34
189.823	-214.34
190.211	41.24
190.599	-243.39
190.987	126.21
191.375	84.68
191.763	-6.38
192.151	133.14
192.538	37.06
192.926	-324.42
193.314	84.75
193.702	15.01
194.089	279.55
194.477	65.32
194.864	167.65
195.252	120.26
195.639	238.9
196.027	-22.77
196.414	-800
196.801	-57.96
197.189	32.9
197.576	-89.32
197.963	-712.48
198.351	16.2
198.738	-41.16
199.125	29.01
199.512	539.21
199.899	9.77
200.286	-31.64
200.673	-12.2
201.06	18.51
201.447	-1.93
201.833	1.35
202.22	12.47
202.607	-14.55
202.994	32.29
203.38	-38.05
203.767	6.18
204.154	28.98
204.54	54.46
204.927	-24.2
205.313	17.55
205.699	35.22
206.086	47.19
206.472	16.37
206.858	11.86
207.245	40.57
207.631	14.37
208.017	37.06
208.403	-0.19
208.789	2.25
209.175	-2.05
209.561	12.71
209.947	-19.94
210.333	-2.07
210.719	27.7
211.105	27.97
211.491	-22.54
211.876	46.04
212.262	-10.82
212.648	-14.04
213.034	14
213.419	-14.55
213.805	44.16
214.19	38.67
214.576	-4.7
214.961	-13.5
215.346	16.03
215.732	-65.01
216.117	13.65
216.502	-25.45
216.888	-4.14
217.273	-18.05
217.658	5.78
218.043	-67.51
218.428	7.7
218.813	-0.54
219.198	6.91
219.583	-3.69
219.968	12.16
220.353	0.6
220.738	5.94
221.122	-29.48
221.507	3.11
221.892	5.11
222.276	28.79
222.661	3.93
223.046	14.6
223.43	16.78
223.815	-1.95
224.199	12.2
224.583	2.12
224.968	1.85
225.352	-0.05
225.736	15.68
226.121	6.09
226.505	4.92
226.889	8.52
227.273	4.64
227.657	5.17
228.041	-0.19
228.425	-6.04
228.809	7.64
229.193	3.11
229.577	3.89
229.961	1.49
230.344	3.61
230.728	3.02
231.112	2.96
231.495	3.29
231.879	2.78
232.263	1.78
232.646	2.17
233.03	2.72
233.413	4.13
233.797	2.25
234.18	5.05
234.563	1.25
234.946	2.29
235.33	4.03
235.713	2.97
236.096	2.88
236.479	2.21
236.862	2.01
237.245	2.22
237.628	4.13
238.011	3.14
238.394	4.61
238.777	2.91
239.16	2.44
239.543	4.68
239.925	3.8
240.308	1.64
240.691	3.29
241.073	1.78
241.456	1.54
241.838	1.59
242.221	2.88
242.603	3.25
242.986	2.36
243.368	2.46
243.75	2.11
244.133	2.68
244.515	2.72
244.897	3.39
245.279	3.05
245.661	2.39
246.043	2.23
246.425	3.02
246.807	3.18
247.189	3.22
247.571	2.53
247.953	2.99
248.335	2.6
248.717	2.97
249.098	2.72
249.48	2.73
249.862	2.61
250.243	3.14
250.625	3.3
251.006	3.45
251.388	3.16
251.769	2.79
252.151	3.25
252.532	2.5
252.913	3.16
253.295	2.51
253.676	3.42
254.057	2.53
254.438	2.69
254.819	2.11
255.2	2.28
255.581	2.21
255.962	2.64
256.343	3.49
256.724	2.7
257.105	2.31
257.486	2.39
257.867	2.53
258.247	3.45
258.628	2.66
259.009	2.58
259.389	3.2
259.77	1.96
260.15	2.76
260.531	2.53
260.911	2.35
261.292	2.49
261.672	2.54
262.052	2.42
262.432	2.63
262.813	3.25
263.193	2.8
263.573	2.29
263.953	2.7
264.333	3.13
264.713	2.42
265.093	2.28
265.473	2.03
265.853	2.8
266.233	2.64
266.612	3.3
266.992	1.93
267.372	2.87
267.752	2.42
268.131	2.67
268.511	3.28
268.89	3.28
269.27	2.28
269.649	2.16
270.029	2.88
270.408	2.83
270.787	2.56
271.167	2.39
271.546	3.19
271.925	2.55
272.304	2.19
272.683	2.45
273.062	2.42
273.441	2.23
273.82	2.38
274.199	2.73
274.578	2.85
274.957	2.57
275.336	2.33
275.715	3.41
276.093	2.84
276.472	2.53
276.851	2.08
277.229	2.77
277.608	3.22
277.986	2.66
278.365	2.04
278.743	2.69
279.122	2.57
279.5	2.16
279.878	2.73
280.257	2.72
280.635	2.91
281.013	2.41
281.391	3.12
281.769	2.82
282.147	2.49
282.525	2.19
282.903	2.65
283.281	2.52
283.659	2.69
284.037	2.61
284.415	2.64
284.792	2.9
285.17	2.95
285.548	2.4
285.925	2.78
286.303	2.98
286.68	2.44
287.058	2.52
287.435	2.51
287.813	2.9
288.19	2.12
288.567	2.13
288.945	2.13
289.322	3
289.699	2.65
290.076	2.4
290.453	2.8
290.83	2.97
291.207	2.97
291.584	2.48
291.961	2.65
292.338	2.82
292.715	2.23
293.092	2.78
293.469	2.84
293.845	3.19
294.222	2.9
294.599	2.74
294.975	2.81
295.352	2.61
295.728	2.63
296.105	3.22
296.481	2.37
296.858	2.61
297.234	2.47
297.61	2.96
297.986	2.71
298.363	2.46
298.739	2.66
299.115	2.95
299.491	2.86
299.867	2.71
300.243	2.52
300.619	2.97
300.995	3.19
301.371	2.86
301.746	2.51
302.122	3.1
302.498	2.6
302.874	2.45
303.249	3.07
303.625	2.81
304	2.89
304.376	2.27
304.751	2.7
305.127	2.49
305.502	2.73
305.878	2.36
306.253	2.95
306.628	2.54
307.003	2.97
307.378	3.5
307.754	3.14
308.129	3.3
308.504	3.4
308.879	3.43
309.254	3.19
309.629	2.9
310.003	2.8
310.378	3.04
310.753	2.68
311.128	3.13
311.502	2.63
311.877	3.02
312.252	3.02
312.626	2.74
313.001	2.88
313.375	3.25
313.75	2.75
314.124	2.73
314.498	2.81
314.873	3.68
315.247	2.93
315.621	2.92
315.995	2.59
316.369	3.09
316.743	3.2
317.117	2.69
317.491	2.58
317.865	3.74
318.239	3.07
318.613	2.75
318.987	2.3
319.361	3.04
319.734	2.81
320.108	2.89
320.482	3.04
320.855	2.42
321.229	2.77
321.602	3.34
321.976	3.04
322.349	3.16
322.723	3.35
323.096	3.25
323.469	3.41
323.843	3.95
324.216	3.14
324.589	3.39
324.962	2.69
325.335	3.56
325.708	3.24
326.081	3.19
326.454	3.22
326.827	2.7
327.2	3.25
327.573	3.3
327.945	3.22
328.318	3.17
328.691	3.02
329.063	2.75
329.436	2.61
329.809	2.85
330.181	3.24
330.553	3.3
330.926	2.73
331.298	3.18
331.671	2.57
332.043	2.89
332.415	2.84
332.787	2.79
333.159	2.96
333.532	3.45
333.904	3.36
334.276	3.13
334.648	2.93
335.02	3.01
335.391	3.5
335.763	3.09
336.135	2.41
336.507	3.36
336.879	3.51
337.25	2.12
337.622	3
337.993	3.1
338.365	2.93
338.736	3.63
339.108	3.2
339.479	3.64
339.851	3.33
340.222	2.74
340.593	3.3
340.964	3.04
341.336	2.73
341.707	2.84
342.078	3.15
342.449	3.24
342.82	3.28
343.191	3
343.562	3.75
343.933	3.24
344.303	3.3
344.674	2.59
345.045	3.35
345.416	2.83
345.786	2.91
346.157	3.08
346.527	3.23
346.898	3.1
347.268	3.48
347.639	2.91
348.009	3.36
348.38	3.37
348.75	2.72
349.12	3.35
349.49	3.5
349.861	3.08
350.231	2.98
350.601	3.16
350.971	3.22
351.341	3.32
351.711	3.29
352.081	2.76
352.45	3.69
352.82	3.57
353.19	3.19
353.56	3.17
353.929	3.36
354.299	3.04
354.669	2.88
355.038	3.1
355.408	3.4
355.777	3.01
356.147	3.05
356.516	3.5
356.885	3.15
357.254	3.31
357.624	3.35
357.993	3.26
358.362	3.04
358.731	3.29
359.1	3.16
359.469	3.2
359.838	2.84
360.207	3.44
360.576	3.42
360.945	3.26
361.314	3.32
361.682	2.91
362.051	3.3
362.42	3.52
362.788	3.18
363.157	3.2
363.525	3.21
363.894	3.18
364.262	3.29
364.631	3.38
364.999	3.3
365.367	3.08
365.735	3.53
366.104	3.15
366.472	3.49
366.84	3.15
367.208	3.6
367.576	3.2
367.944	3.14
368.312	3.36
368.68	3.42
369.048	3.6
369.416	3.04
369.783	3.22
370.151	3.37
370.519	3.43
370.886	3.3
371.254	3.11
371.621	3.48
371.989	3.26
372.356	3.36
372.724	3.6
373.091	3.26
373.458	3
373.826	3.29
374.193	3.7
374.56	3.09
374.927	3.15
375.294	3.11
375.661	3.28
376.028	3.61
376.395	3.37
376.762	3.91
377.129	3.16
377.496	3.55
377.863	3.29
378.229	3.34
378.596	3.15
378.963	3.51
379.329	3.32
379.696	3.62
380.062	3.29
380.429	3.1
380.795	3.22
381.161	3.52
381.528	3.78
381.894	3.46
382.26	3.53
382.626	3.68
382.993	3.29
383.359	3.14
383.725	3.49
384.091	3.79
384.457	3.14
384.823	3.16
385.188	3.58
385.554	3.21
385.92	3.37
386.286	3.51
386.651	3.61
387.017	3.4
387.383	3
387.748	2.96
388.114	3.16
388.479	3.38
388.845	3.44
389.21	3.77
389.575	3.61
389.94	3.52
390.306	3.38
390.671	3.67
391.036	3.22
391.401	3.41
391.766	3.46
392.131	3.63
392.496	3.32
392.861	3.32
393.226	3.53
393.591	3.45
393.956	3.5
394.32	3.6
394.685	3.35
395.05	3.53
395.414	3.18
395.779	3.43
396.143	3.63
396.508	3.3
396.872	3.39
397.236	3.43
397.601	3.44
397.965	3.33
398.329	3.44
398.694	3.56
399.058	3.62
399.422	3.42
399.786	3.45
400.15	3.62
400.514	3.21
400.878	3.61
401.242	3.56
401.605	3.45
401.969	3.38
402.333	3.41
402.697	3.52
403.06	3.72
403.424	3.56
403.787	3.25
404.151	3.37
404.514	3.42
404.878	3.43
405.241	3.34
405.604	3.73
405.968	3.49
406.331	3.44
406.694	3.48
407.057	3.38
407.42	3.31
407.783	3.56
408.146	3.77
408.509	3.59
408.872	3.59
409.235	3.61
409.598	3.44
409.961	3.61
410.323	3.77
410.686	3.83
411.049	3.42
411.411	3.39
411.774	3.46
412.136	3.58
412.499	3.62
412.861	3.55
413.223	3.6
413.586	3.75
413.948	3.55
414.31	3.64
414.672	3.4
415.035	3.73
415.397	3.41
415.759	3.67
416.121	3.59
416.483	3.61
416.845	3.68
417.206	3.47
417.568	3.75
417.93	3.82
418.292	3.56
418.653	3.51
419.015	3.55
419.377	3.59
419.738	3.45
420.1	3.65
420.461	3.55
420.822	3.57
421.184	3.63
421.545	3.46
421.906	3.56
422.267	3.5
422.629	3.5
422.99	3.48
423.351	3.56
423.712	3.56
424.073	3.61
424.434	3.63
424.795	3.61
425.155	3.63
425.516	3.61
425.877	3.54
426.238	3.49
426.598	3.56
426.959	3.61
427.32	3.48
427.68	3.68
428.041	3.51
428.401	3.63
428.761	3.74
429.122	3.61
429.482	3.61
429.842	3.65
430.202	3.87
430.563	3.93
430.923	3.73
431.283	3.89
431.643	3.82
432.003	3.92
432.363	3.69
432.722	3.75
433.082	3.73
433.442	3.61
433.802	3.7
434.161	3.71
434.521	3.73
434.881	3.71
435.24	3.72
435.6	3.78
435.959	3.89
436.319	3.69
436.678	3.91
437.037	3.71
437.396	3.8
437.756	3.8
438.115	3.79
438.474	3.78
438.833	3.68
439.192	3.76
439.551	3.8
439.91	3.81
440.269	3.98
440.628	3.67
440.987	3.86
441.345	3.76
441.704	3.79
442.063	3.82
442.421	3.65
442.78	3.71
443.138	3.88
443.497	3.82
443.855	3.78
444.214	3.71
444.572	3.9
444.93	3.92
445.288	3.73
445.647	3.76
446.005	3.74
446.363	3.75
446.721	3.9
447.079	3.68
447.437	3.76
447.795	3.75
448.153	3.85
448.51	3.77
448.868	3.83
449.226	3.8
449.584	3.91
449.941	3.77
450.299	3.83
450.656	3.78
451.014	3.91
451.371	3.9
451.729	3.86
452.086	3.92
452.443	3.84
452.801	4.04
453.158	3.91
453.515	3.82
453.872	3.67
454.229	3.81
454.586	3.84
454.943	3.8
455.3	3.95
455.657	3.81
456.014	4.11
456.371	3.94
456.727	4.02
457.084	4.04
457.441	4.04
457.797	3.89
458.154	3.97
458.51	3.91
458.867	4
459.223	4.17
459.58	4.07
459.936	3.93
460.292	3.98
460.648	3.9
461.005	3.92
461.361	3.84
461.717	3.95
462.073	3.95
462.429	4.05
462.785	4.04
463.141	4.03
463.496	4.08
463.852	4.03
464.208	4.15
464.564	4.14
464.919	4.06
465.275	4.07
465.631	4.1
465.986	4.07
466.342	4.1
466.697	4.23
467.052	3.99
467.408	4.02
467.763	4.07
468.118	4.07
468.473	4.14
468.829	4.1
469.184	4.01
469.539	4.12
469.894	4.3
470.249	4.22
470.603	4.21
470.958	3.96
471.313	4.37
471.668	4.15
472.023	4.08
472.377	4.05
472.732	4.08
473.086	4.03
473.441	3.95
473.795	4.31
474.15	4.1
474.504	4.29
474.859	4.21
475.213	4.25
475.567	3.96
475.921	4.3
476.275	4.19
476.63	4.17
476.984	4.25
477.338	4.37
477.692	4.32
478.045	4.22
478.399	4.1
478.753	4.12
479.107	4.11
479.461	4.25
479.814	4.21
480.168	4.17
480.521	4.35
480.875	4.24
481.228	4.29
481.582	4.13
481.935	4.2
482.289	4.24
482.642	4.17
482.995	4.14
483.348	4.21
483.701	4.16
484.055	4.15
484.408	4.23
484.761	4.09
485.114	3.94
485.466	3.94
485.819	3.96
486.172	4.06
486.525	4.08
486.878	4.12
487.23	4.19
487.583	4.19
487.936	4.2
488.288	4.2
488.641	4.12
488.993	4.07
489.345	4.11
489.698	4.07
490.05	4.19
490.402	4.15
490.754	4.27
491.107	4.21
491.459	4.34
491.811	4.25
492.163	4.28
492.515	4.23
492.866	4.15
493.218	4.11
493.57	4.1
493.922	4.19
494.274	4.38
494.625	4.33
494.977	4.39
495.328	4.35
495.68	4.43
496.031	4.41
496.383	4.63
496.734	4.42
497.086	4.46
497.437	4.48
497.788	4.5
498.139	4.37
498.49	4.49
498.842	4.44
499.193	4.47
499.544	4.46
499.894	4.52
500.245	4.47
500.596	4.55
500.947	4.59
501.298	4.52
501.648	4.5
501.999	4.41
502.35	4.57
502.7	4.69
503.051	4.72
503.401	4.56
503.752	4.63
504.102	4.59
504.452	4.64
504.803	4.75
505.153	4.74
505.503	4.69
505.853	4.57
506.203	4.74
506.553	4.48
506.903	4.66
507.253	4.62
507.603	4.79
507.953	4.77
508.303	4.73
508.652	4.56
509.002	4.81
509.352	4.7
509.701	4.74
510.051	4.73
510.4	4.68
510.75	4.72
511.099	4.76
511.449	4.73
511.798	4.67
512.147	4.72
512.496	4.78
512.846	4.73
513.195	4.81
513.544	4.82
513.893	4.78
514.242	4.75
514.591	4.84
514.939	4.87
515.288	4.9
515.637	4.95
515.986	4.93
516.334	4.81
516.683	5.05
517.032	4.89
517.38	5.07
517.729	5.02
518.077	4.9
518.426	4.98
518.774	5.01
519.122	4.97
519.47	4.99
519.819	4.82
520.167	4.86
520.515	4.87
520.863	4.92
521.211	4.95
521.559	4.99
521.907	5.02
522.255	4.99
522.602	5.06
522.95	5.14
523.298	5
523.645	5.22
523.993	5.13
524.341	5.11
524.688	5.17
525.036	5.18
525.383	5.17
525.73	5.15
526.078	5.21
526.425	5.11
526.772	5.07
527.119	5.04
527.466	5.15
527.814	5.09
528.161	5.16
528.508	5.12
528.854	5.19
529.201	5.04
529.548	5.1
529.895	5.05
530.242	4.98
530.588	5.01
530.935	5.09
531.282	5.13
531.628	5.2
531.975	5.19
532.321	5.24
532.667	5.33
533.014	5.42
533.36	5.37
533.706	5.43
534.052	5.41
534.399	5.37
534.745	5.21
535.091	5.26
535.437	5.3
535.783	5.35
536.129	5.48
536.474	5.46
536.82	5.41
537.166	5.51
537.512	5.56
537.857	5.55
538.203	5.38
538.549	5.5
538.894	5.47
539.239	5.55
539.585	5.61
539.93	5.62
540.276	5.79
540.621	5.84
540.966	5.73
541.311	5.78
541.656	5.87
542.001	5.56
542.346	5.61
542.691	5.58
543.036	5.49
543.381	5.49
543.726	5.65
544.071	5.73
544.415	5.77
544.76	5.8
545.105	5.84
545.449	5.86
545.794	5.86
546.138	5.84
546.483	5.89
546.827	6.02
547.171	5.98
547.516	5.89
547.86	5.99
548.204	6.01
548.548	5.92
548.892	5.94
549.236	5.98
549.58	6.15
549.924	6.19
550.268	6.31
550.612	6.34
550.956	6.24
551.3	6.2
551.643	6.38
551.987	6.47
552.33	6.41
552.674	6.34
553.017	6.48
553.361	6.42
553.704	6.4
554.048	6.38
554.391	6.5
554.734	6.6
555.077	6.49
555.42	6.6
555.764	6.68
556.107	6.62
556.45	6.63
556.793	6.66
557.135	6.56
557.478	6.72
557.821	6.49
558.164	6.85
558.507	6.79
558.849	6.53
559.192	6.74
559.534	6.69
559.877	6.62
560.219	6.87
560.562	6.85
560.904	6.91
561.246	6.81
561.589	6.91
561.931	7.02
562.273	7.02
562.615	6.98
562.957	7.07
563.299	6.9
563.641	6.93
563.983	7.22
564.325	7.04
564.667	6.99
565.008	7.19
565.35	7.25
565.692	7.08
566.033	7.06
566.375	7.1
566.716	7.28
567.058	7.21
567.399	7.43
567.741	7.12
568.082	7.33
568.423	7.08
568.764	7.29
569.105	7.41
569.447	7.47
569.788	7.52
570.129	7.62
570.47	7.67
570.811	7.67
571.151	7.57
571.492	7.45
571.833	7.62
572.174	7.66
572.514	7.5
572.855	7.6
573.195	7.68
573.536	7.68
573.876	7.75
574.217	7.77
574.557	7.8
574.898	7.84
575.238	7.88
575.578	7.89
575.918	7.89
576.258	8.03
576.598	7.86
576.938	7.99
577.278	7.95
577.618	8.01
577.958	8.2
578.298	8.03
578.638	8.05
578.977	7.99
579.317	8.09
579.657	8.17
579.996	8.1
580.336	8.32
580.675	8.33
581.014	8.43
581.354	8.42
581.693	8.23
582.032	8.55
582.372	8.43
582.711	8.57
583.05	8.54
583.389	8.58
583.728	8.77
584.067	8.58
584.406	8.91
584.745	8.72
585.083	8.79
585.422	8.94
585.761	8.89
586.1	8.6
586.438	9.07
586.777	8.54
587.115	9.15
587.454	8.9
587.792	9.01
588.13	9.16
588.469	8.98
588.807	8.88
589.145	9.13
589.483	9.17
589.821	9.18
590.159	9.28
590.497	9
590.835	9.16
591.173	9.46
591.511	9.34
591.849	9.33
592.187	9.31
592.524	9.19
592.862	9.67
593.2	9.13
593.537	9.5
593.875	9.57
594.212	9.52
594.55	9.31
594.887	9.72
595.224	9.51
595.561	9.68
595.899	9.55
596.236	9.75
596.573	9.7
596.91	9.65
597.247	9.93
597.584	9.89
597.921	9.85
598.258	9.87
598.594	9.61
598.931	9.83
599.268	9.97
599.604	9.9
599.941	9.92
600.277	10.06
600.614	10.2
600.95	10.07
601.287	10.17
601.623	10.19
601.959	10.22
602.296	10.37
602.632	10.3
602.968	10.28
603.304	10.32
603.64	10.23
603.976	10.43
604.312	10.56
604.648	10.43
604.984	10.5
605.319	10.55
605.655	10.79
605.991	10.55
606.326	10.45
606.662	10.52
606.998	10.58
607.333	10.52
607.668	10.97
608.004	10.71
608.339	10.84
608.674	10.82
609.01	10.69
609.345	11.17
609.68	10.85
610.015	10.99
610.35	11.23
610.685	11.22
611.02	11.19
611.355	11.27
611.689	11.04
612.024	11.16
612.359	11.27
612.694	11.44
613.028	11.03
613.363	11.35
613.697	11.44
614.032	11.17
614.366	11.17
614.7	11.68
615.035	11.66
615.369	11.35
615.703	11.61
616.037	11.77
616.371	11.63
616.705	11.52
617.039	11.66
617.373	11.82
617.707	11.9
618.041	11.85
618.375	11.83
618.709	11.99
619.042	11.74
619.376	11.9
619.71	12.26
620.043	11.99
620.377	12.24
620.71	12.24
621.043	12.32
621.377	12.11
621.71	12.26
622.043	12.38
622.376	12.2
622.709	12.41
623.043	12.22
623.376	12.4
623.709	12.12
624.041	12.92
624.374	12.85
624.707	12.8
625.04	12.92
625.373	12.67
625.705	12.57
626.038	12.98
626.37	12.83
626.703	12.62
627.035	12.86
627.368	13.04
627.7	12.87
628.032	12.6
628.365	12.78
628.697	13.07
629.029	13.13
629.361	12.73
629.693	13.14
630.025	13.15
630.357	13.09
630.689	13.25
631.021	13.39
631.353	13.52
631.684	13.23
632.016	13.33
632.348	13.6
632.679	13.55
633.011	13.46
633.342	13.09
633.674	13.54
634.005	13.59
634.336	13.65
634.668	13.36
634.999	13.27
635.33	13.7
635.661	13.59
635.992	13.62
636.323	13.68
636.654	14.02
636.985	14.06
637.316	13.98
637.647	13.92
637.977	13.72
638.308	13.92
638.639	14.12
638.969	14.03
639.3	14.07
639.63	13.72
639.961	14.07
640.291	13.94
640.622	14.54
640.952	14.59
641.282	14.68
641.612	14.45
641.943	14.34
642.273	14.42
642.603	14.82
642.933	14.53
643.263	14.93
643.592	14.07
643.922	14.41
644.252	14.67
644.582	14.38
644.911	14.71
645.241	14.99
645.571	14.66
645.9	14.9
646.23	14.69
646.559	14.45
646.888	14.54
647.218	15.15
647.547	15.23
647.876	15.5
648.205	15.24
648.534	14.5
648.863	14.77
649.192	15.33
649.521	15.22
649.85	15.5
650.179	15.21
650.508	15.35
650.837	15.52
651.165	14.95
651.494	15.58
651.822	15.41
652.151	15.68
652.479	15.65
652.808	15.78
653.136	15.32
653.465	15.67
653.793	15.56
654.121	15.99
654.449	15.8
654.777	15.92
655.105	15.85
655.433	15.62
655.761	16.2
656.089	15.38
656.417	15.74
656.745	15.62
657.073	16.17
657.4	15.92
657.728	16.35
658.056	15.72
658.383	15.9
658.711	16.11
659.038	16.21
659.365	16.45
659.693	15.71
660.02	16.82
660.347	16.43
660.674	16.24
661.001	16.49
661.329	16.32
661.656	16.39
661.982	16.42
662.309	16.67
662.636	16.61
662.963	16.83
663.29	16.76
663.616	16.84
663.943	17.17
664.27	16.54
664.596	17.22
664.923	16.84
665.249	17.02
665.576	16.81
665.902	17.35
666.228	16.42
666.554	17.5
666.881	17.21
667.207	16.91
667.533	17.29
667.859	17.22
668.185	17.86
668.511	17.52
668.837	17.42
669.162	17.92
669.488	17.94
669.814	18.01
670.139	17.53
670.465	17.74
670.791	17.64
671.116	17.91
671.442	17.48
671.767	17.86
672.092	17.51
672.418	17.5
672.743	17.93
673.068	18.48
673.393	17.68
673.718	18.16
674.043	17.75
674.368	17.93
674.693	18.49
675.018	18.06
675.343	18.51
675.667	18.07
675.992	18.18
676.317	18.57
676.641	17.54
676.966	18.43
677.29	18.38
677.615	18
677.939	18.72
678.264	18.72
678.588	18.25
678.912	18.26
679.236	18.32
679.56	18.6
679.885	18.88
680.209	18.41
680.532	19.31
680.856	18.43
681.18	18.93
681.504	18.78
681.828	18.53
682.152	18.66
682.475	18.83
682.799	18.55
683.122	18.93
683.446	19.14
683.769	18.95
684.093	19.34
684.416	19.06
684.739	19.22
685.062	19.93
685.386	19.32
685.709	19.62
686.032	19.53
686.355	19.62
686.678	19.74
687.001	19.62
687.324	19.65
687.646	19.77
687.969	20.55
688.292	19.29
688.614	19.32
688.937	20.02
689.26	19.96
689.582	19.8
689.904	19.97
690.227	19.9
690.549	20.1
690.871	19.68
691.194	19.71
691.516	19.85
691.838	20.08
692.16	20.18
692.482	19.59
692.804	20.32
693.126	20.95
693.448	19.33
693.769	20.56
694.091	20.36
694.413	20.85
694.735	21.08
695.056	20.51
695.378	21.02
695.699	20.82
696.021	20.11
696.342	20.53
696.663	20.9
696.984	20.26
697.306	19.69
697.627	21.4
697.948	21.21
698.269	21.76
698.59	20.54
698.911	21.49
699.232	20.95
699.553	21.13
699.873	21.43
700.194	20.83
700.515	20.83
700.835	21.44
701.156	20.62
701.477	21.42
701.797	21.25
702.117	20.9
702.438	20.65
702.758	21.11
703.078	21.2
703.398	21.7
703.719	22.08
704.039	21.1
704.359	21.88
704.679	21.56
704.999	22.1
705.319	21.15
705.638	21.05
705.958	21.38
706.278	21.47
706.597	21.86
706.917	22.29
707.237	21.85
707.556	22.18
707.876	21.82
708.195	22.11
708.514	22.09
708.834	21.62
709.153	22.06
709.472	21.8
709.791	21.88
710.11	22.93
710.429	22.73
710.748	21.96
711.067	23.11
711.386	21.99
711.705	22.39
712.023	23.03
712.342	22.41
712.661	23.93
712.979	22.32
713.298	23.27
713.616	21.89
713.935	23.94
714.253	23.39
714.572	22.65
714.89	23.28
715.208	23.23
715.526	23.18
715.844	22.16
716.162	23.25
716.48	22.15
716.798	22.64
717.116	23.63
717.434	22.72
717.752	23.36
718.069	23.06
718.387	23.7
718.705	23.23
719.022	23.11
719.34	23.25
719.657	23.47
719.975	24.06
720.292	23.58
720.609	23.57
720.927	22.21
721.244	23.25
721.561	24.4
721.878	22.53
722.195	23.58
722.512	23.94
722.829	24.34
723.146	22.83
723.463	25
723.779	22.96
724.096	24.64
724.413	23.33
724.729	21.75
725.046	23.1
725.362	24.52
725.679	23.55
725.995	23.74
726.311	23.62
726.628	24.11
726.944	26
727.26	23.75
727.576	24.86
727.892	24.53
728.208	24.07
728.524	24.85
728.84	24.31
729.156	25.08
729.472	25.31
729.787	24.48
730.103	25.02
730.419	23.81
730.734	24.84
731.05	24.68
731.365	24.9
731.681	24.2
731.996	25.99
732.311	25.34
732.626	24.51
732.942	26.31
733.257	24.73
733.572	24.33
733.887	23.8
734.202	25
734.517	26.05
734.832	24.14
735.146	26.01
735.461	26.64
735.776	24.8
736.091	24.98
736.405	24.99
736.72	26.25
737.034	26.49
737.349	25.83
737.663	25.5
737.977	25.61
738.292	26.4
738.606	26.26
738.92	25
739.234	26.54
739.548	24.28
739.862	25.07
740.176	25.56
740.49	25.57
740.804	25.37
741.117	24.11
741.431	25.95
741.745	27.64
742.058	26.51
742.372	26.63
742.685	25.95
742.999	26.87
743.312	27.95
743.626	25.57
743.939	25.79
744.252	27.2
744.565	26.86
744.878	26.81
745.191	26.85
745.505	24.47
745.817	24.86
746.13	26.33
746.443	26.14
746.756	26.74
747.069	25.77
747.381	26.78
747.694	25.81
748.007	27.71
748.319	26.61
748.632	27.96
748.944	27.13
749.256	27.22
749.569	25.75
749.881	28.12
750.193	28.32
750.505	27.36
750.817	26.69
751.129	28.47
751.441	28.42
751.753	27.71
752.065	26.81
752.377	27.2
752.689	27.06
753	26.53
753.312	28.33
753.624	26.46
753.935	27
754.247	26.22
754.558	28.89
754.869	27.55
755.181	27.51
755.492	28.86
755.803	27.82
756.114	27.13
756.425	27.86
756.736	27.96
757.047	28.36
757.358	26.27
757.669	28.74
757.98	29.99
758.291	27.88
758.601	27.93
758.912	29.04
759.223	28.93
759.533	29.33
759.844	27.91
760.154	27.27
760.464	29.37
760.775	27.75
761.085	29.74
761.395	27.83
761.705	27.87
762.016	28.72
762.326	29.03
762.636	29.37
762.945	26.69
763.255	28.27
763.565	28.56
763.875	28.51
764.185	29.19
764.494	28.83
764.804	29.92
765.113	29.68
765.423	28.54
765.732	28.58
766.042	29.66
766.351	28.94
766.66	28.66
766.97	29.18
767.279	30.21
767.588	29.67
767.897	29.31
768.206	28.81
768.515	29.2
768.824	30.32
769.133	28.79
769.441	28.89
769.75	31.18
770.059	30.23
770.367	33.33
770.676	30.72
770.984	29.19
771.293	30.5
771.601	28.01
771.91	31.9
772.218	31.54
772.526	29.14
772.834	29.26
773.142	30.81
773.45	27.76
773.758	28.24
774.066	30.11
774.374	29.45
774.682	32.23
774.99	29.49
775.298	30.15
775.605	28.97
775.913	30.25
776.22	31.97
776.528	31.25
776.835	35.22
777.143	27.2
777.45	31.92
777.757	28.38
778.065	32.87
778.372	29.75
778.679	31.78
778.986	31.68
779.293	32.86
779.6	32.64
779.907	29.96
780.214	33.83
780.52	31.47
780.827	32.84
781.134	32.47
781.44	35.09
781.747	32.86
782.053	31.5
782.36	34.07
782.666	30.35
782.973	30.72
783.279	32.81
783.585	31.75
783.891	27.06
784.197	32.68
784.503	32.2
784.809	35.2
785.115	31.38
785.421	28.53
785.727	32.07
786.033	28.32
786.339	32.39
786.644	29.12
786.95	33.34
787.255	31.81
787.561	31.24
787.866	33.53
788.172	29.94
788.477	30.24
788.782	32.77
789.088	29.71
789.393	29.69
789.698	29.54
790.003	30.12
790.308	30.66
790.613	34
790.918	33.17
791.223	30.76
791.527	37.16
791.832	31.96
792.137	31.83
792.441	33.82
792.746	28.34
793.05	30.33
793.355	32.29
793.659	32.69
793.963	30.79
794.268	30.69
794.572	30.18
794.876	29.56
795.18	32.71
795.484	32.33
795.788	30.25
796.092	32.61
796.396	31.04
796.7	36.88
797.004	30.38
797.307	31.53
797.611	29.24
797.915	30.54
798.218	33.53
798.522	33.45
798.825	32.31
799.128	27.73
799.432	35.49
799.735	34.42
800.038	30.6
800.341	34.77
800.644	36.73
800.947	37.7
801.25	28.28
801.553	40.56
801.856	32.68
802.159	33.37
802.462	33.99
802.764	31.98
803.067	34.34
803.37	34.4
803.672	36.08
803.975	32.05
804.277	30.73
804.579	32.66
804.882	33.27
805.184	34.48
805.486	35.69
805.788	32.96
806.09	27.44
806.392	35.6
806.694	31.02
806.996	37.51
807.298	30.28
807.6	33.5
807.902	35.83
808.203	36.33
808.505	32.07
808.807	33.52
809.108	36.31
809.409	31.53
809.711	34.1
810.012	32.34
810.313	37.2
810.615	37.7
810.916	35.86
811.217	39.35
811.518	36.13
811.819	34.54
812.12	33.55
812.421	34.66
812.722	33.44
813.023	37.53
813.323	32.83
813.624	36.26
813.925	30.44
814.225	35.4
814.526	33.15
814.826	40.91
815.126	34.02
815.427	36.08
815.727	33.17
816.027	35.57
816.327	32.85
816.627	32.99
816.927	35.64
817.227	31.73
817.527	34.36
817.827	32.93
818.127	41.98
818.427	33.78
818.727	37.16
819.026	41.88
819.326	31.71
819.625	34.5
819.925	29.7
820.224	39.4
820.524	39.17
820.823	36.02
821.122	37.52
821.421	41.49
821.72	34.24
822.019	31
822.318	36.31
822.617	37.1
822.916	35.39
823.215	36.09
823.514	36.35
823.813	36.08
824.111	36.96
824.41	36.7
824.709	35.93
825.007	36.42
825.306	36.23
825.604	37.54
825.902	36.03
826.201	36.76
826.499	37.1
826.797	37.72
827.095	36.41
827.393	36.62
827.691	37.56
827.989	36.22
828.287	37.77
828.585	36.19
828.882	35.25
829.18	38.27
829.478	36.38
829.775	39.09
830.073	37.24
830.37	39.45
830.668	37.59
830.965	38.82
831.263	34.08
831.56	37.26
831.857	40.48
832.154	36.81
832.451	39.88
832.748	37.09
833.045	32.07
833.342	34.93
833.639	34.83
833.936	36.85
834.232	38.62
834.529	41.4
834.826	42.21
835.122	36.81
835.419	34.85
835.715	36.02
836.012	35.88
836.308	36.75
836.604	40.25
836.901	39.09
837.197	38.03
837.493	35.87
837.789	37.16
838.085	35.9
838.381	37.86
838.677	45.17
838.972	37.35
839.268	37.38
839.564	40.35
839.86	43.81
840.155	33.45
840.451	39.94
840.746	30
841.042	34.58
841.337	44.3
841.632	42.2
841.928	44.13
842.223	36.18
842.518	47.94
842.813	37.43
843.108	37.94
843.403	42.54
843.698	32.3
843.993	35.73
844.287	41.76
844.582	36.56
844.877	39.05
845.171	42.97
845.466	33.1
845.761	37.69
846.055	42.52
846.349	34.57
846.644	32.12
846.938	32.66
847.232	46.95
847.526	45.71
847.82	48.44
848.114	36.5
848.408	32.97
848.702	18.75
848.996	28.66
849.29	43.11
849.584	41.02
849.877	44.22
850.171	33.63
850.465	35.68
850.758	25.06
851.052	37.18
851.345	33.6
851.638	37.1
851.932	22.12
852.225	39.74
852.518	36.21
852.811	9.61
853.104	46.64
853.397	19.04
853.69	41.32
853.983	31.58
854.276	48.15
854.569	34.16
854.861	58.58
855.154	49.88
855.447	37.24
855.739	51.26
856.032	66.87
856.324	45.69
856.616	23.41
856.909	50.84
857.201	35.72
857.493	43.01
857.785	42.58
858.077	36.96
858.369	33.2
858.661	39.72
858.953	27.26
859.245	52.25
859.537	35.61
859.829	44.04
860.12	37.33
860.412	40.29
860.703	40.44
860.995	29.09
861.286	36.24
861.578	35.36
861.869	34.24
862.16	30.1
862.452	36.98
862.743	50.58
863.034	53.79
863.325	36.85
863.616	53.76
863.907	66.43
864.198	49.63
864.488	35.18
864.779	45.11
865.07	23.64
865.36	39.06
865.651	42.87
865.941	53.41
866.232	43.47
866.522	56.05
866.813	68.6
867.103	30.28
867.393	53.68
867.683	15.37
867.973	32.8
868.263	30.09
868.553	41.76
868.843	35.46
869.133	32.29
869.423	51.14
869.713	40.33
870.002	40.2
870.292	31.6
870.582	45.34
870.871	29.09
871.161	13.03
871.45	19.86
871.739	41.24
872.029	31.47
872.318	70.58
872.607	31.45
872.896	46.02
873.185	44.83
873.474	32.17
873.763	33.57
874.052	47.17
874.341	27.42
874.63	24.75
874.918	51.54
875.207	38.48
875.496	62.82
875.784	53.88
876.073	12.75
876.361	51.52
876.649	25.08
876.938	49.3
877.226	67.97
877.514	35.41
877.802	24.71
878.09	36.99
878.378	50.29
878.666	54.31
878.954	57.13
879.242	20.32
879.53	24.04
879.817	86.32
880.105	67.94
880.392	18.24
880.68	24.83
880.967	40.12
881.255	60.27
881.542	48.43
881.83	39.37
882.117	70.75
882.404	37.31
882.691	32.77
882.978	33.54
883.265	30.34
883.552	45.96
883.839	58.53
884.126	35.25
884.413	38.53
884.699	45.73
884.986	42.31
885.273	49.39
885.559	49.39
885.846	49.39
