Data from 0399_crown_Reflection__3__208.txt Node

Date: Fri Dec 15 18:19:20 CST 2023
User: ToomeyLab
Spectrometer: FLMS14357
Trigger mode: 0
Integration Time (sec): 1.000000E-2
Scans to average: 100
Electric dark correction enabled: true
Nonlinearity correction enabled: false
Boxcar width: 0
XAxis mode: Wavelengths
Number of Pixels in Spectrum: 2048
>>>>>Begin Spectral Data<<<<<
189.047	-20.32
189.435	-20.32
189.823	-20.32
190.211	70.09
190.599	987.54
190.987	180.59
191.375	1.07
191.763	42.86
192.151	-173.02
192.538	123.8
192.926	466.89
193.314	101.68
193.702	352.73
194.089	124.68
194.477	-49.77
194.864	-58.42
195.252	80.25
195.639	67.6
196.027	43.43
196.414	176.92
196.801	67.05
197.189	75.85
197.576	74.71
197.963	-156.13
198.351	32.25
198.738	-97.01
199.125	39.46
199.512	-41.57
199.899	17.69
200.286	10.52
200.673	-24.2
201.06	19.15
201.447	11.56
201.833	-16.59
202.22	15.44
202.607	7.6
202.994	12.91
203.38	-7.07
203.767	23.8
204.154	8.54
204.54	57.63
204.927	-43.08
205.313	-115.22
205.699	4.29
206.086	78.39
206.472	20.62
206.858	3.67
207.245	-50.95
207.631	17.49
208.017	43.97
208.403	11.02
208.789	45.58
209.175	-38.39
209.561	-64.94
209.947	33.07
210.333	-33.53
210.719	11.81
211.105	38.8
211.491	-9.9
211.876	-7.05
212.262	14.64
212.648	13.46
213.034	31.73
213.419	-48.9
213.805	-21.91
214.19	-45.99
214.576	13.8
214.961	-43.26
215.346	-37.53
215.732	-38.43
216.117	-27.1
216.502	-26.28
216.888	13.13
217.273	22.03
217.658	-38.77
218.043	2.5
218.428	-34.98
218.813	-21.27
219.198	-5.94
219.583	21.54
219.968	-1.81
220.353	-6.06
220.738	4.06
221.122	14.74
221.507	-12.6
221.892	-37.19
222.276	-3.72
222.661	6.46
223.046	14.24
223.43	17.6
223.815	14.55
224.199	-8.15
224.583	8.21
224.968	-3.91
225.352	17.57
225.736	2.42
226.121	1.34
226.505	7.1
226.889	15.41
227.273	3.21
227.657	19.97
228.041	4.53
228.425	7.32
228.809	6.22
229.193	6.85
229.577	5.3
229.961	8.87
230.344	6
230.728	6.54
231.112	7.33
231.495	7.64
231.879	5.83
232.263	7.4
232.646	7
233.03	7.04
233.413	5.6
233.797	5.48
234.18	6.88
234.563	5.88
234.946	5.64
235.33	7.86
235.713	6.29
236.096	7.21
236.479	7.84
236.862	7.74
237.245	7.8
237.628	4.53
238.011	8.95
238.394	8.26
238.777	7.14
239.16	5.94
239.543	7.41
239.925	8
240.308	6.36
240.691	8.72
241.073	6.33
241.456	7.37
241.838	5.98
242.221	6.75
242.603	8.01
242.986	6.55
243.368	6.55
243.75	7.74
244.133	6.71
244.515	7.15
244.897	6.52
245.279	7.22
245.661	7.08
246.043	5.71
246.425	6
246.807	7.29
247.189	7.07
247.571	6.95
247.953	7.14
248.335	6.81
248.717	7.36
249.098	6.84
249.48	7.02
249.862	7.44
250.243	6.87
250.625	7.22
251.006	7.06
251.388	5.94
251.769	5.75
252.151	6.34
252.532	6.8
252.913	5.99
253.295	6.17
253.676	6.92
254.057	6.95
254.438	6.48
254.819	6.49
255.2	5.75
255.581	6.77
255.962	6.12
256.343	6.42
256.724	6.36
257.105	7.08
257.486	5.62
257.867	5.19
258.247	6.54
258.628	6.58
259.009	5.99
259.389	6.71
259.77	6.25
260.15	5.83
260.531	5.93
260.911	6.88
261.292	6.44
261.672	6.67
262.052	6.39
262.432	6.8
262.813	6.52
263.193	6.89
263.573	6.83
263.953	5.68
264.333	6.76
264.713	6.33
265.093	6.05
265.473	6.53
265.853	5.95
266.233	7.77
266.612	4.13
266.992	4.33
267.372	6.66
267.752	5.69
268.131	6.42
268.511	7.15
268.89	6.57
269.27	6.65
269.649	5.63
270.029	5.87
270.408	7.64
270.787	6.61
271.167	6.71
271.546	6.95
271.925	5.46
272.304	6.03
272.683	6.82
273.062	5.74
273.441	6.38
273.82	5.92
274.199	6.41
274.578	6.59
274.957	6.07
275.336	6.42
275.715	6.03
276.093	5.67
276.472	6.56
276.851	6.08
277.229	5.11
277.608	5.03
277.986	6.13
278.365	6.13
278.743	5.56
279.122	5.7
279.5	6.52
279.878	6.03
280.257	5.7
280.635	5.15
281.013	5.94
281.391	6.71
281.769	5.9
282.147	6.15
282.525	6.75
282.903	5.73
283.281	5.91
283.659	6.14
284.037	6.1
284.415	6.02
284.792	5.64
285.17	5.25
285.548	5.56
285.925	6.13
286.303	6.48
286.68	5.58
287.058	6.22
287.435	6.09
287.813	6.37
288.19	6.22
288.567	5.95
288.945	6.5
289.322	6.32
289.699	5.86
290.076	5.73
290.453	5.72
290.83	5.81
291.207	5.69
291.584	5.98
291.961	6.24
292.338	5.78
292.715	6.13
293.092	5.5
293.469	5.88
293.845	6.06
294.222	5.09
294.599	5.72
294.975	5.28
295.352	5.85
295.728	5.66
296.105	5.94
296.481	6.26
296.858	5.5
297.234	5.56
297.61	5.75
297.986	5.61
298.363	6.3
298.739	6
299.115	5.91
299.491	5.6
299.867	5.95
300.243	5.84
300.619	5.8
300.995	5.78
301.371	5.51
301.746	5.51
302.122	6.07
302.498	5.65
302.874	6.37
303.249	5.77
303.625	5.45
304	5.95
304.376	6.3
304.751	5.03
305.127	6.35
305.502	4.83
305.878	4.95
306.253	5.42
306.628	6.48
307.003	5.53
307.378	5.59
307.754	5.86
308.129	5.44
308.504	6.18
308.879	4.99
309.254	6.15
309.629	6.11
310.003	5.93
310.378	5.98
310.753	6.34
311.128	5.81
311.502	5.72
311.877	6.05
312.252	5.23
312.626	5.7
313.001	5.86
313.375	6.02
313.75	5.58
314.124	5.51
314.498	5.35
314.873	5.29
315.247	5.68
315.621	5.06
315.995	5.15
316.369	5.57
316.743	5.63
317.117	5.45
317.491	4.9
317.865	5.47
318.239	5.2
318.613	5.77
318.987	5.66
319.361	5.06
319.734	5.59
320.108	6.09
320.482	5.68
320.855	5.51
321.229	5.55
321.602	5.34
321.976	5.37
322.349	5.21
322.723	3.78
323.096	6.63
323.469	4.86
323.843	4.74
324.216	5.78
324.589	4.36
324.962	5.42
325.335	5.14
325.708	5.42
326.081	5.5
326.454	5.52
326.827	5.09
327.2	5.28
327.573	5.6
327.945	5.75
328.318	5.39
328.691	4.93
329.063	5.54
329.436	5.63
329.809	5.45
330.181	5.69
330.553	5.15
330.926	5.67
331.298	5.4
331.671	4.94
332.043	5.98
332.415	5.3
332.787	5.31
333.159	6.12
333.532	5.93
333.904	5.42
334.276	5.97
334.648	5.32
335.02	5.61
335.391	4.97
335.763	5.36
336.135	5.19
336.507	5.77
336.879	5.67
337.25	5.4
337.622	5.27
337.993	5.05
338.365	5.08
338.736	5.22
339.108	5.33
339.479	5.36
339.851	5.13
340.222	5.2
340.593	4.97
340.964	5.24
341.336	5.92
341.707	4.97
342.078	6.15
342.449	5.63
342.82	5.84
343.191	5.52
343.562	5.41
343.933	5.19
344.303	5.15
344.674	5.84
345.045	5.53
345.416	5.69
345.786	5.02
346.157	5.57
346.527	4.91
346.898	4.61
347.268	5.39
347.639	5.52
348.009	5.36
348.38	5.24
348.75	5.38
349.12	5.14
349.49	5.23
349.861	5.5
350.231	5.24
350.601	5.66
350.971	5.68
351.341	5.62
351.711	5.23
352.081	5.44
352.45	4.92
352.82	5.9
353.19	5.51
353.56	5.09
353.929	5.41
354.299	5.39
354.669	4.65
355.038	5.53
355.408	5.19
355.777	5.01
356.147	4.98
356.516	5.49
356.885	5.8
357.254	5.66
357.624	5.49
357.993	5.44
358.362	5.27
358.731	5.07
359.1	5.72
359.469	5.29
359.838	5.66
360.207	5.21
360.576	5.22
360.945	5.27
361.314	6.15
361.682	5.54
362.051	5.24
362.42	5.24
362.788	5.33
363.157	5.47
363.525	5.57
363.894	5.68
364.262	5.41
364.631	5.32
364.999	5.6
365.367	5.17
365.735	6.19
366.104	5.74
366.472	5.57
366.84	5.01
367.208	5.42
367.576	5.52
367.944	5.36
368.312	5.56
368.68	5.04
369.048	5.68
369.416	5.64
369.783	5.05
370.151	5.5
370.519	5.77
370.886	5.94
371.254	5.42
371.621	5.54
371.989	5.88
372.356	5.14
372.724	5.51
373.091	5.46
373.458	5.36
373.826	5.23
374.193	5.29
374.56	5.72
374.927	5.42
375.294	5.77
375.661	5.23
376.028	5.49
376.395	5.42
376.762	5.67
377.129	5.62
377.496	5.38
377.863	5.69
378.229	5.24
378.596	5.52
378.963	5.52
379.329	5.26
379.696	5.53
380.062	5.77
380.429	5.67
380.795	5.45
381.161	5.36
381.528	5.7
381.894	5.57
382.26	5.78
382.626	5.57
382.993	5.26
383.359	5.48
383.725	5.21
384.091	5.68
384.457	5.65
384.823	5.58
385.188	5.75
385.554	5.45
385.92	5.78
386.286	5.85
386.651	5.76
387.017	5.76
387.383	5.65
387.748	5.47
388.114	5.7
388.479	5.52
388.845	5.95
389.21	5.85
389.575	5.72
389.94	5.5
390.306	5.72
390.671	5.89
391.036	5.53
391.401	5.43
391.766	5.72
392.131	5.43
392.496	5.59
392.861	5.59
393.226	5.71
393.591	5.61
393.956	5.8
394.32	5.8
394.685	5.43
395.05	5.74
395.414	5.62
395.779	5.53
396.143	5.81
396.508	5.63
396.872	5.86
397.236	5.54
397.601	5.74
397.965	5.94
398.329	5.77
398.694	5.99
399.058	5.89
399.422	5.62
399.786	5.93
400.15	5.82
400.514	5.88
400.878	5.8
401.242	6.02
401.605	5.91
401.969	5.55
402.333	5.72
402.697	5.82
403.06	5.95
403.424	5.86
403.787	5.94
404.151	5.83
404.514	5.79
404.878	5.6
405.241	5.84
405.604	5.75
405.968	5.94
406.331	5.78
406.694	5.88
407.057	5.75
407.42	5.68
407.783	5.68
408.146	5.9
408.509	6
408.872	5.73
409.235	5.92
409.598	6.2
409.961	5.64
410.323	5.99
410.686	6
411.049	5.75
411.411	5.8
411.774	5.94
412.136	6.02
412.499	5.82
412.861	5.8
413.223	5.95
413.586	5.81
413.948	5.73
414.31	5.94
414.672	5.64
415.035	5.76
415.397	6.31
415.759	5.68
416.121	6.16
416.483	5.84
416.845	6.13
417.206	5.85
417.568	6.15
417.93	5.81
418.292	5.93
418.653	5.81
419.015	5.87
419.377	5.86
419.738	5.92
420.1	5.83
420.461	5.91
420.822	5.97
421.184	5.78
421.545	5.85
421.906	5.8
422.267	5.82
422.629	5.7
422.99	5.86
423.351	5.81
423.712	5.9
424.073	5.79
424.434	5.85
424.795	5.81
425.155	5.89
425.516	5.81
425.877	5.82
426.238	5.75
426.598	5.95
426.959	5.84
427.32	5.75
427.68	5.82
428.041	5.88
428.401	5.97
428.761	5.96
429.122	5.96
429.482	5.69
429.842	6.1
430.202	5.95
430.563	6.09
430.923	5.82
431.283	6.16
431.643	5.88
432.003	5.89
432.363	6.11
432.722	5.94
433.082	6.24
433.442	6.14
433.802	5.82
434.161	6.14
434.521	6.23
434.881	6.07
435.24	6.06
435.6	6.03
435.959	6.07
436.319	6.04
436.678	6.08
437.037	6
437.396	6.17
437.756	6.13
438.115	6.02
438.474	6.22
438.833	5.82
439.192	6.11
439.551	6.23
439.91	6.11
440.269	6.08
440.628	5.93
440.987	6.07
441.345	6
441.704	6.18
442.063	6.08
442.421	5.97
442.78	6.04
443.138	5.95
443.497	6.03
443.855	6.14
444.214	6.1
444.572	6.06
444.93	6.19
445.288	6.17
445.647	6.37
446.005	6.07
446.363	6.13
446.721	6.33
447.079	5.94
447.437	6.11
447.795	6.23
448.153	5.92
448.51	6.06
448.868	6.12
449.226	6.08
449.584	6.04
449.941	6.26
450.299	6.3
450.656	6.05
451.014	6.12
451.371	6.11
451.729	6.1
452.086	6.47
452.443	6.17
452.801	6.36
453.158	6.43
453.515	6.08
453.872	6.37
454.229	6.13
454.586	6.26
454.943	6.25
455.3	6.27
455.657	6.04
456.014	6.27
456.371	6.36
456.727	6.28
457.084	6.48
457.441	6.35
457.797	6.25
458.154	6.41
458.51	6.33
458.867	6.37
459.223	6.44
459.58	6.37
459.936	6.42
460.292	6.22
460.648	6.16
461.005	6.31
461.361	6.27
461.717	6.25
462.073	6.09
462.429	6.28
462.785	6.31
463.141	6.28
463.496	6.38
463.852	6.41
464.208	6.43
464.564	6.5
464.919	6.27
465.275	6.41
465.631	6.46
465.986	6.44
466.342	6.34
466.697	6.36
467.052	6.39
467.408	6.34
467.763	6.36
468.118	6.37
468.473	6.39
468.829	6.26
469.184	6.48
469.539	6.39
469.894	6.27
470.249	6.61
470.603	6.49
470.958	6.5
471.313	6.56
471.668	6.61
472.023	6.47
472.377	6.62
472.732	6.47
473.086	6.46
473.441	6.42
473.795	6.57
474.15	6.44
474.504	6.57
474.859	6.55
475.213	6.39
475.567	6.32
475.921	6.36
476.275	6.74
476.63	6.62
476.984	6.74
477.338	6.62
477.692	6.52
478.045	6.48
478.399	6.59
478.753	6.61
479.107	6.7
479.461	6.46
479.814	6.5
480.168	6.58
480.521	6.44
480.875	6.49
481.228	6.56
481.582	6.62
481.935	6.5
482.289	6.56
482.642	6.73
482.995	6.46
483.348	6.42
483.701	6.53
484.055	6.53
484.408	6.64
484.761	6.4
485.114	6.43
485.466	6.22
485.819	6.2
486.172	6.2
486.525	6.24
486.878	6.3
487.23	6.36
487.583	6.45
487.936	6.53
488.288	6.39
488.641	6.52
488.993	6.38
489.345	6.34
489.698	6.33
490.05	6.32
490.402	6.41
490.754	6.44
491.107	6.53
491.459	6.58
491.811	6.55
492.163	6.63
492.515	6.58
492.866	6.63
493.218	6.58
493.57	6.44
493.922	6.5
494.274	6.56
494.625	6.62
494.977	6.73
495.328	6.74
495.68	6.72
496.031	6.9
496.383	6.77
496.734	6.96
497.086	6.85
497.437	6.73
497.788	6.81
498.139	6.73
498.49	6.76
498.842	6.7
499.193	6.76
499.544	6.76
499.894	6.61
500.245	6.74
500.596	6.75
500.947	6.8
501.298	6.72
501.648	6.79
501.999	6.93
502.35	6.86
502.7	6.86
503.051	6.78
503.401	6.79
503.752	6.97
504.102	6.77
504.452	6.98
504.803	6.79
505.153	6.85
505.503	6.79
505.853	6.91
506.203	6.83
506.553	6.9
506.903	6.89
507.253	6.85
507.603	6.88
507.953	7.07
508.303	6.9
508.652	6.98
509.002	6.91
509.352	6.9
509.701	6.84
510.051	6.88
510.4	6.83
510.75	6.94
511.099	6.86
511.449	6.95
511.798	6.84
512.147	6.93
512.496	6.86
512.846	7.02
513.195	6.9
513.544	6.89
513.893	7.07
514.242	6.9
514.591	7.09
514.939	6.99
515.288	6.83
515.637	7.01
515.986	7.05
516.334	6.94
516.683	6.98
517.032	6.86
517.38	7.01
517.729	7.06
518.077	6.98
518.426	7.12
518.774	7.08
519.122	7.03
519.47	6.96
519.819	6.94
520.167	6.99
520.515	6.95
520.863	6.99
521.211	7.05
521.559	7.07
521.907	6.84
522.255	7
522.602	7.16
522.95	6.89
523.298	7.04
523.645	7.26
523.993	7.15
524.341	7.26
524.688	7.18
525.036	7.1
525.383	7.18
525.73	7.14
526.078	7.14
526.425	7.16
526.772	7.19
527.119	7.08
527.466	7.02
527.814	7.07
528.161	7.05
528.508	7
528.854	7.09
529.201	7.03
529.548	6.94
529.895	6.96
530.242	6.9
530.588	6.84
530.935	6.87
531.282	6.88
531.628	6.89
531.975	7.02
532.321	7.11
532.667	7.12
533.014	7.16
533.36	7.15
533.706	7.16
534.052	7.08
534.399	7.06
534.745	7.03
535.091	6.94
535.437	7.06
535.783	7.1
536.129	7.14
536.474	7.18
536.82	7.21
537.166	7.27
537.512	7.27
537.857	7.21
538.203	7.24
538.549	7.05
538.894	7.16
539.239	7.15
539.585	7.17
539.93	7.29
540.276	7.34
540.621	7.45
540.966	7.35
541.311	7.38
541.656	7.27
542.001	7.31
542.346	7.37
542.691	7.14
543.036	7.12
543.381	7.05
543.726	7.07
544.071	7.17
544.415	7.2
544.76	7.2
545.105	7.17
545.449	7.27
545.794	7.35
546.138	7.28
546.483	7.46
546.827	7.37
547.171	7.37
547.516	7.42
547.86	7.45
548.204	7.48
548.548	7.36
548.892	7.31
549.236	7.35
549.58	7.38
549.924	7.48
550.268	7.58
550.612	7.51
550.956	7.67
551.3	7.57
551.643	7.52
551.987	7.67
552.33	7.54
552.674	7.65
553.017	7.56
553.361	7.44
553.704	7.72
554.048	7.48
554.391	7.64
554.734	7.47
555.077	7.6
555.42	7.45
555.764	7.46
556.107	7.41
556.45	7.5
556.793	7.63
557.135	7.66
557.478	7.81
557.821	7.67
558.164	7.67
558.507	7.82
558.849	7.55
559.192	7.65
559.534	7.73
559.877	7.9
560.219	7.57
560.562	7.84
560.904	7.66
561.246	7.61
561.589	7.55
561.931	7.78
562.273	7.65
562.615	7.64
562.957	7.8
563.299	7.54
563.641	7.62
563.983	7.68
564.325	7.54
564.667	7.68
565.008	7.63
565.35	7.67
565.692	7.57
566.033	7.67
566.375	7.84
566.716	7.92
567.058	7.73
567.399	7.7
567.741	7.66
568.082	7.66
568.423	7.8
568.764	7.6
569.105	7.83
569.447	7.84
569.788	7.7
570.129	7.92
570.47	7.93
570.811	7.95
571.151	7.95
571.492	7.83
571.833	7.98
572.174	7.64
572.514	7.83
572.855	7.79
573.195	7.78
573.536	7.85
573.876	7.7
574.217	7.76
574.557	7.75
574.898	7.76
575.238	7.84
575.578	7.69
575.918	7.84
576.258	7.96
576.598	7.98
576.938	7.89
577.278	7.63
577.618	7.79
577.958	7.67
578.298	7.8
578.638	7.68
578.977	7.99
579.317	7.67
579.657	7.97
579.996	7.96
580.336	8.03
580.675	7.86
581.014	7.86
581.354	7.97
581.693	7.94
582.032	7.8
582.372	7.92
582.711	7.99
583.05	7.75
583.389	8.01
583.728	7.81
584.067	8.06
584.406	7.83
584.745	7.84
585.083	8.01
585.422	7.97
585.761	8.2
586.1	8.04
586.438	7.98
586.777	8.18
587.115	7.98
587.454	8.02
587.792	7.97
588.13	8.1
588.469	8.04
588.807	7.73
589.145	8.01
589.483	8.04
589.821	8.06
590.159	8.36
590.497	8.2
590.835	8.38
591.173	7.89
591.511	8.09
591.849	8.17
592.187	8.1
592.524	7.95
592.862	8.21
593.2	8.23
593.537	7.98
593.875	8.07
594.212	8.1
594.55	7.95
594.887	8.42
595.224	8.13
595.561	8.22
595.899	7.93
596.236	8.17
596.573	8.23
596.91	7.78
597.247	7.79
597.584	8.35
597.921	8.13
598.258	8.01
598.594	7.83
598.931	8.05
599.268	8.13
599.604	8.07
599.941	8.24
600.277	8.07
600.614	7.91
600.95	7.8
601.287	8.27
601.623	7.78
601.959	8.12
602.296	8.26
602.632	8.02
602.968	8.14
603.304	8.18
603.64	8.18
603.976	8.26
604.312	7.78
604.648	8.27
604.984	8.35
605.319	8.19
605.655	8.19
605.991	8.16
606.326	8.13
606.662	8.02
606.998	8.02
607.333	8.13
607.668	8.29
608.004	8.26
608.339	8.26
608.674	8.29
609.01	8.17
609.345	8.25
609.68	8.25
610.015	7.86
610.35	8.22
610.685	8.13
611.02	8.19
611.355	8.32
611.689	8.36
612.024	8.27
612.359	8.26
612.694	8.44
613.028	8.47
613.363	8.33
613.697	8.32
614.032	8.32
614.366	8.26
614.7	8.68
615.035	8.38
615.369	7.84
615.703	8.26
616.037	8.11
616.371	8.05
616.705	8.09
617.039	8.78
617.373	8.37
617.707	8.25
618.041	7.96
618.375	8.39
618.709	8.48
619.042	7.96
619.376	8.61
619.71	8.4
620.043	8.57
620.377	8.25
620.71	8.39
621.043	8.53
621.377	8.41
621.71	8.55
622.043	8.01
622.376	8.28
622.709	8.5
623.043	8.72
623.376	8.44
623.709	8.21
624.041	8.88
624.374	8.28
624.707	8.38
625.04	8.43
625.373	7.94
625.705	8.43
626.038	8.64
626.37	8.31
626.703	7.85
627.035	8.65
627.368	8.93
627.7	8.76
628.032	8.59
628.365	8.98
628.697	8.36
629.029	8.31
629.361	8.3
629.693	8.7
630.025	8.32
630.357	8.56
630.689	8.64
631.021	8.45
631.353	8.72
631.684	8.23
632.016	8.25
632.348	8.58
632.679	8.69
633.011	8.88
633.342	8.75
633.674	8.43
634.005	9
634.336	8.78
634.668	8.81
634.999	8.39
635.33	9.1
635.661	8.71
635.992	8.65
636.323	8.97
636.654	8.9
636.985	8.81
637.316	8.77
637.647	8.5
637.977	8.65
638.308	8.87
638.639	8.14
638.969	8.36
639.3	8.55
639.63	8.23
639.961	8.77
640.291	8.72
640.622	8.75
640.952	8.52
641.282	9.06
641.612	8.96
641.943	8.37
642.273	8.99
642.603	9.26
642.933	8.71
643.263	9.01
643.592	8.9
643.922	8.25
644.252	8.91
644.582	8.94
644.911	8.18
645.241	8.64
645.571	8.73
645.9	8.46
646.23	8.3
646.559	8.78
646.888	8.2
647.218	8.66
647.547	9.05
647.876	8.5
648.205	9.28
648.534	8.76
648.863	8.38
649.192	9.08
649.521	8.7
649.85	8.66
650.179	9.28
650.508	8.49
650.837	8.37
651.165	8.72
651.494	8.97
651.822	8.78
652.151	8.56
652.479	8.9
652.808	8.73
653.136	8.9
653.465	8.27
653.793	8.34
654.121	8.41
654.449	8.96
654.777	9.36
655.105	9.74
655.433	8.76
655.761	8.74
656.089	8.87
656.417	9.19
656.745	8.74
657.073	8.98
657.4	9.33
657.728	8.87
658.056	9.25
658.383	8.79
658.711	9.13
659.038	9.33
659.365	9.09
659.693	8.95
660.02	8.49
660.347	9.1
660.674	9.15
661.001	8.95
661.329	8.17
661.656	9.09
661.982	9.41
662.309	8.99
662.636	8.78
662.963	9.26
663.29	9.23
663.616	9.57
663.943	8.88
664.27	8.9
664.596	9.46
664.923	9.16
665.249	9.76
665.576	9
665.902	9.95
666.228	9.65
666.554	9.27
666.881	9.51
667.207	9.69
667.533	8.83
667.859	9.23
668.185	9.4
668.511	8.61
668.837	8.39
669.162	8.84
669.488	8.74
669.814	8.96
670.139	9.6
670.465	8.98
670.791	9.1
671.116	9.3
671.442	8.98
671.767	9.06
672.092	9.3
672.418	9.71
672.743	9.74
673.068	9.06
673.393	8.81
673.718	9.3
674.043	9.21
674.368	9.51
674.693	10.42
675.018	8.99
675.343	9.13
675.667	9.16
675.992	9.28
676.317	9.5
676.641	10.08
676.966	9.83
677.29	9.27
677.615	10.04
677.939	10.74
678.264	10
678.588	9.1
678.912	9.65
679.236	9.73
679.56	8.98
679.885	9.21
680.209	9.55
680.532	9.43
680.856	9.76
681.18	9.28
681.504	9.4
681.828	9.6
682.152	9.11
682.475	9.31
682.799	9.54
683.122	9.67
683.446	8.87
683.769	10.23
684.093	9.37
684.416	9.91
684.739	9.69
685.062	9.12
685.386	9.42
685.709	8.95
686.032	9.32
686.355	9.68
686.678	10.35
687.001	9.44
687.324	9.08
687.646	9.17
687.969	9.42
688.292	9.51
688.614	8.8
688.937	9.57
689.26	9.44
689.582	9.65
689.904	9.45
690.227	9.42
690.549	9.75
690.871	10.23
691.194	9.18
691.516	9.59
691.838	9.67
692.16	9.37
692.482	9.52
692.804	9.83
693.126	9.66
693.448	9.49
693.769	9.79
694.091	9.8
694.413	10.15
694.735	9.88
695.056	10.27
695.378	8.55
695.699	8.58
696.021	9.82
696.342	8.94
696.663	9.62
696.984	10.24
697.306	8.72
697.627	10.71
697.948	10.19
698.269	9.71
698.59	10.03
698.911	9.45
699.232	10.18
699.553	9.11
699.873	9.75
700.194	10.96
700.515	9.83
700.835	9.72
701.156	9.48
701.477	9.89
701.797	9.24
702.117	9.74
702.438	10.4
702.758	10.1
703.078	9.63
703.398	9.2
703.719	9.92
704.039	8.45
704.359	10.8
704.679	10.14
704.999	9.49
705.319	10.02
705.638	9.14
705.958	10.32
706.278	9.42
706.597	8.82
706.917	9.09
707.237	10.19
707.556	10.14
707.876	10.72
708.195	10.35
708.514	8.04
708.834	9.69
709.153	10.09
709.472	10.5
709.791	10.1
710.11	9.12
710.429	10.69
710.748	10.04
711.067	10.43
711.386	9.92
711.705	10.61
712.023	10.01
712.342	9.3
712.661	10.02
712.979	9.86
713.298	10.05
713.616	10.88
713.935	9.86
714.253	9.13
714.572	10.17
714.89	10.12
715.208	10.61
715.526	9.96
715.844	10.5
716.162	10.26
716.48	10.39
716.798	10.03
717.116	10.09
717.434	10.15
717.752	8.18
718.069	9.42
718.387	8.63
718.705	10.56
719.022	9.4
719.34	10.58
719.657	8.75
719.975	10.82
720.292	10.12
720.609	9.96
720.927	10.9
721.244	10.27
721.561	10.24
721.878	11.31
722.195	9.48
722.512	10.23
722.829	9.66
723.146	9.99
723.463	10.32
723.779	9.38
724.096	10.16
724.413	8.41
724.729	10.83
725.046	8.33
725.362	10.94
725.679	9.4
725.995	8.53
726.311	10.05
726.628	9.51
726.944	12.21
727.26	9.99
727.576	11.19
727.892	10.59
728.208	10.52
728.524	10.94
728.84	8.91
729.156	9.72
729.472	9.09
729.787	10.41
730.103	10.79
730.419	10.26
730.734	10.78
731.05	9.07
731.365	9.15
731.681	10.2
731.996	11.39
732.311	9.96
732.626	11.13
732.942	8.36
733.257	11.3
733.572	10.45
733.887	11.59
734.202	10.87
734.517	9.95
734.832	10.67
735.146	10.67
735.461	9.93
735.776	9.94
736.091	10.78
736.405	12.44
736.72	9.64
737.034	10.2
737.349	11.94
737.663	10.66
737.977	10.55
738.292	8.43
738.606	10.38
738.92	11.8
739.234	9.95
739.548	9.45
739.862	9.89
740.176	10.78
740.49	10.11
740.804	11.84
741.117	11.04
741.431	10.47
741.745	10.65
742.058	11.09
742.372	10.16
742.685	10.04
742.999	10.48
743.312	8.56
743.626	9.29
743.939	10.72
744.252	10.2
744.565	8.34
744.878	11.8
745.191	9.29
745.505	10
745.817	10.17
746.13	9.79
746.443	12.45
746.756	13.15
747.069	10.45
747.381	11.33
747.694	10.35
748.007	9.52
748.319	10.88
748.632	11.07
748.944	9.89
749.256	13.49
749.569	10.78
749.881	10.48
750.193	11.22
750.505	9.61
750.817	10.93
751.129	12.39
751.441	8.72
751.753	11.72
752.065	11.07
752.377	10.82
752.689	12.58
753	10.16
753.312	9.93
753.624	11.48
753.935	10.79
754.247	10.48
754.558	9.62
754.869	10.04
755.181	10.36
755.492	12.46
755.803	9.91
756.114	12.3
756.425	11.37
756.736	11.39
757.047	12.57
757.358	12.83
757.669	9.68
757.98	12.49
758.291	10.24
758.601	10.98
758.912	9.99
759.223	12.72
759.533	8.7
759.844	10.96
760.154	8.14
760.464	13.56
760.775	13.15
761.085	10.54
761.395	11.73
761.705	10.69
762.016	11.91
762.326	10.47
762.636	8.89
762.945	9.17
763.255	11.69
763.565	10.78
763.875	11.39
764.185	10.64
764.494	13.29
764.804	13.82
765.113	11.48
765.423	11.51
765.732	12.2
766.042	9.73
766.351	11.12
766.66	12.22
766.97	12.91
767.279	11.01
767.588	12.89
767.897	13.09
768.206	8.68
768.515	10.69
768.824	13.12
769.133	10.1
769.441	11.93
769.75	10.92
770.059	11.49
770.367	12.78
770.676	11.31
770.984	14.75
771.293	11.05
771.601	12.51
771.91	7.92
772.218	10.58
772.526	11.51
772.834	10.21
773.142	9.99
773.45	10.21
773.758	10.09
774.066	10.37
774.374	8.67
774.682	12.12
774.99	12.95
775.298	8.73
775.605	10.43
775.913	9.02
776.22	11.87
776.528	12.93
776.835	14.47
777.143	12.05
777.45	13.62
777.757	14.28
778.065	12.47
778.372	11.2
778.679	8.2
778.986	10.03
779.293	8.89
779.6	11.78
779.907	10.79
780.214	10.26
780.52	13.9
780.827	14.18
781.134	11.99
781.44	8.58
781.747	13.53
782.053	10.19
782.36	7.89
782.666	15.14
782.973	12.79
783.279	10.36
783.585	9.64
783.891	15.63
784.197	12.34
784.503	11.18
784.809	7.37
785.115	15.04
785.421	19.26
785.727	13.11
786.033	13.89
786.339	9.45
786.644	11.77
786.95	15.96
787.255	14.23
787.561	12.04
787.866	12.34
788.172	12.69
788.477	12.08
788.782	13.03
789.088	11.59
789.393	10.76
789.698	12.48
790.003	12.09
790.308	10.26
790.613	12.47
790.918	13.96
791.223	11.59
791.527	6.52
791.832	13.73
792.137	9.02
792.441	10.59
792.746	11.39
793.05	8.24
793.355	10.37
793.659	15.26
793.963	8.27
794.268	11.18
794.572	12.56
794.876	12.59
795.18	12.4
795.484	7.73
795.788	12.15
796.092	8.86
796.396	11.75
796.7	8.73
797.004	8.26
797.307	6.68
797.611	11.47
797.915	14.85
798.218	10.31
798.522	12.97
798.825	13.52
799.128	8.66
799.432	8.1
799.735	8.84
800.038	18.68
800.341	8.27
800.644	11.64
800.947	11.58
801.25	13.77
801.553	7.1
801.856	5.84
802.159	9.11
802.462	8.91
802.764	13.29
803.067	12.6
803.37	12.1
803.672	5.25
803.975	9.52
804.277	5.73
804.579	11.18
804.882	16.35
805.184	9.3
805.486	7.76
805.788	14.19
806.09	15.41
806.392	8.88
806.694	14.61
806.996	17.94
807.298	15.96
807.6	17.1
807.902	14.53
808.203	14.44
808.505	11.22
808.807	12.96
809.108	15.75
809.409	12.79
809.711	3.42
810.012	9.23
810.313	9.2
810.615	7.34
810.916	5.97
811.217	13.9
811.518	15.73
811.819	10.97
812.12	7.74
812.421	5.28
812.722	16.34
813.023	13.32
813.323	12.48
813.624	5.01
813.925	15.73
814.225	14.5
814.526	14.73
814.826	14.2
815.126	9.42
815.427	8.38
815.727	12.73
816.027	14.8
816.327	18.94
816.627	6.25
816.927	18.03
817.227	12.31
817.527	13.37
817.827	13.27
818.127	14.91
818.427	13.68
818.727	8.06
819.026	9.05
819.326	20.39
819.625	12.01
819.925	7.33
820.224	14.76
820.524	13.71
820.823	17.03
821.122	9.81
821.421	8.3
821.72	15.56
822.019	14.72
822.318	17.11
822.617	8.21
822.916	14.34
823.215	13.06
823.514	13.8
823.813	14.1
824.111	15.06
824.41	15.77
824.709	14.15
825.007	14.82
825.306	14.54
825.604	14.37
825.902	14.71
826.201	15
826.499	14.07
826.797	14.59
827.095	14.69
827.393	13.77
827.691	15.74
827.989	11.64
828.287	13.3
828.585	12.5
828.882	12.88
829.18	14.47
829.478	15.24
829.775	16.66
830.073	16.06
830.37	16.09
830.668	15.02
830.965	17
831.263	13.18
831.56	13.15
831.857	11.98
832.154	12.31
832.451	14.53
832.748	15.08
833.045	14.55
833.342	13.32
833.639	9.71
833.936	11.43
834.232	15.51
834.529	11.93
834.826	7.94
835.122	8.9
835.419	12.73
835.715	12.75
836.012	14.35
836.308	13.91
836.604	12.29
836.901	8.77
837.197	13.5
837.493	14.84
837.789	15.04
838.085	14.78
838.381	14.94
838.677	13.63
838.972	13.67
839.268	10.66
839.564	11.75
839.86	11.59
840.155	7.26
840.451	2.53
840.746	17.49
841.042	14.6
841.337	17.01
841.632	16.17
841.928	18.25
842.223	-2.46
842.518	-5.2
842.813	21.93
843.108	9.58
843.403	19.56
843.698	14.86
843.993	12.97
844.287	17.18
844.582	14.77
844.877	7.56
845.171	21.83
845.466	15.99
845.761	8.32
846.055	5.49
846.349	4.8
846.644	19.11
846.938	-12.77
847.232	10.9
847.526	4.26
847.82	7.37
848.114	-1.51
848.408	1.85
848.702	0.91
848.996	-4.36
849.29	-2.33
849.584	15.81
849.877	20.2
850.171	9.52
850.465	-6.55
850.758	12.48
851.052	-8.28
851.345	28.91
851.638	10.41
851.932	-22.91
852.225	-12.89
852.518	11.31
852.811	14.7
853.104	-15.68
853.397	11.71
853.69	8.73
853.983	-24.64
854.276	22.32
854.569	0.71
854.861	12.32
855.154	0.38
855.447	-10.08
855.739	38.8
856.032	10.08
856.324	15.66
856.616	30.72
856.909	7.47
857.201	22.46
857.493	25.61
857.785	-3.64
858.077	23.08
858.369	-0.1
858.661	15.35
858.953	-22.69
859.245	-5.55
859.537	7.9
859.829	29.71
860.12	18.57
860.412	0.57
860.703	-12.58
860.995	-7.62
861.286	-11.47
861.578	14.81
861.869	15.87
862.16	0.53
862.452	5.15
862.743	15.78
863.034	-2.95
863.325	-11.88
863.616	22.17
863.907	-25.31
864.198	-19.87
864.488	6.24
864.779	19.59
865.07	-20.16
865.36	-8.92
865.651	-11.68
865.941	6.48
866.232	4.38
866.522	1.9
866.813	32.16
867.103	21.03
867.393	-13.96
867.683	-2.64
867.973	-13.74
868.263	-16.1
868.553	22.93
868.843	17.11
869.133	-2.41
869.423	1.72
869.713	33.56
870.002	14.19
870.292	9.91
870.582	18.62
870.871	-7.93
871.161	-3.85
871.45	-1.56
871.739	-4.2
872.029	-26.08
872.318	8.63
872.607	31.03
872.896	-22.3
873.185	14.01
873.474	-33.65
873.763	22.25
874.052	-5.06
874.341	46.14
874.63	12.34
874.918	-16.03
875.207	13.2
875.496	33.51
875.784	-6.46
876.073	-25.35
876.361	-39.03
876.649	20.03
876.938	13.62
877.226	11.52
877.514	21.64
877.802	-3.73
878.09	-23.08
878.378	24.76
878.666	-8.58
878.954	11.91
879.242	4.52
879.53	2.76
879.817	12.16
880.105	-26.23
880.392	-4.85
880.68	-22.58
880.967	-26.73
881.255	25.62
881.542	-5.95
881.83	-31.55
882.117	30.64
882.404	-4.46
882.691	17.97
882.978	-6.53
883.265	12.08
883.552	42.53
883.839	6.51
884.126	-13.65
884.413	20.72
884.699	21.54
884.986	30.51
885.273	17.95
885.559	17.95
885.846	17.95
