Data from 0388_crown_Reflection__0__81.txt Node

Date: Fri Dec 15 16:58:14 CST 2023
User: ToomeyLab
Spectrometer: FLMS14357
Trigger mode: 0
Integration Time (sec): 1.000000E-2
Scans to average: 100
Electric dark correction enabled: true
Nonlinearity correction enabled: false
Boxcar width: 0
XAxis mode: Wavelengths
Number of Pixels in Spectrum: 2048
>>>>>Begin Spectral Data<<<<<
189.047	71.49
189.435	71.49
189.823	71.49
190.211	19.65
190.599	20.91
190.987	91.88
191.375	-82.27
191.763	-11.94
192.151	1340096633000800
192.538	130.23
192.926	0.16
193.314	204.85
193.702	144
194.089	-169.35
194.477	200.69
194.864	-896.69
195.252	108.73
195.639	74.31
196.027	9.22
196.414	89.56
196.801	189.22
197.189	67.03
197.576	-100.52
197.963	33.46
198.351	-26.96
198.738	-45.14
199.125	33.36
199.512	1.05
199.899	13
200.286	34.25
200.673	-10.77
201.06	3.29
201.447	6.82
201.833	25.24
202.22	31.85
202.607	29.86
202.994	11.82
203.38	12.27
203.767	24.58
204.154	17.57
204.54	11.38
204.927	11.98
205.313	-52.76
205.699	3.61
206.086	37.98
206.472	22.99
206.858	35.14
207.245	44.48
207.631	30.13
208.017	12.61
208.403	28.64
208.789	10.96
209.175	5.4
209.561	13
209.947	9.87
210.333	1.55
210.719	44.75
211.105	-2.2
211.491	25.64
211.876	10.49
212.262	8.24
212.648	-7.96
213.034	25.43
213.419	-9.99
213.805	15.71
214.19	-31.52
214.576	7.73
214.961	-13.37
215.346	-69.13
215.732	2.06
216.117	19.96
216.502	-17.46
216.888	29.28
217.273	38.81
217.658	0.42
218.043	31.52
218.428	-10.19
218.813	-9.22
219.198	-44.54
219.583	5.68
219.968	5.25
220.353	0.94
220.738	19.8
221.122	25.41
221.507	-34.08
221.892	-19.76
222.276	-10.9
222.661	-11.77
223.046	20.08
223.43	2.89
223.815	19.46
224.199	1.33
224.583	4.43
224.968	15.29
225.352	26.72
225.736	6.37
226.121	4.48
226.505	4.34
226.889	5.56
227.273	4.13
227.657	11.59
228.041	10.24
228.425	4.83
228.809	10.64
229.193	8.72
229.577	6.78
229.961	7.06
230.344	5.73
230.728	5.64
231.112	6.69
231.495	6.65
231.879	6.08
232.263	6.76
232.646	6.46
233.03	5.86
233.413	5.46
233.797	5.86
234.18	2.38
234.563	4.78
234.946	4.65
235.33	7.03
235.713	8.6
236.096	6.43
236.479	7.54
236.862	6.11
237.245	7.58
237.628	6.31
238.011	5.72
238.394	7.72
238.777	6.06
239.16	2.98
239.543	6.78
239.925	8.29
240.308	5.63
240.691	6.33
241.073	7.92
241.456	6.46
241.838	4.51
242.221	5.96
242.603	6.22
242.986	4.7
243.368	6.12
243.75	6.32
244.133	4.96
244.515	6.25
244.897	5.95
245.279	5.95
245.661	5.93
246.043	3.47
246.425	4.6
246.807	6.97
247.189	6.17
247.571	5.83
247.953	5.21
248.335	4.95
248.717	5.66
249.098	5.55
249.48	5.3
249.862	5.46
250.243	5.61
250.625	5.4
251.006	5.5
251.388	4.41
251.769	4.8
252.151	6.29
252.532	4.7
252.913	5.08
253.295	4.17
253.676	4.77
254.057	4.85
254.438	5.19
254.819	4.63
255.2	5.13
255.581	4.91
255.962	6.21
256.343	5.55
256.724	4.61
257.105	4.4
257.486	4.67
257.867	5.58
258.247	4.99
258.628	3.44
259.009	4.97
259.389	5.57
259.77	4.38
260.15	3.99
260.531	4.49
260.911	5.42
261.292	5.12
261.672	4.85
262.052	4.83
262.432	5.04
262.813	5.01
263.193	4.45
263.573	4.65
263.953	4.25
264.333	5.58
264.713	5.23
265.093	4.71
265.473	4.77
265.853	4.26
266.233	4.67
266.612	2.71
266.992	3.18
267.372	5.41
267.752	4.57
268.131	4.69
268.511	5.1
268.89	4.82
269.27	4.47
269.649	4.18
270.029	4.47
270.408	5.94
270.787	4.65
271.167	5.38
271.546	4.65
271.925	3.82
272.304	4.23
272.683	4.54
273.062	4.13
273.441	4.56
273.82	3.97
274.199	4.42
274.578	4.88
274.957	4.44
275.336	4.27
275.715	4.38
276.093	3.34
276.472	4.07
276.851	4.11
277.229	4
277.608	3.91
277.986	4.76
278.365	4.21
278.743	4.02
279.122	4.12
279.5	4.72
279.878	4.49
280.257	4.59
280.635	3.57
281.013	3.22
281.391	5.28
281.769	4.72
282.147	4.07
282.525	4.94
282.903	4.36
283.281	4.87
283.659	4.78
284.037	4.88
284.415	4.76
284.792	4.53
285.17	3.6
285.548	3.88
285.925	4.33
286.303	4.47
286.68	3.88
287.058	4.33
287.435	4.3
287.813	4.88
288.19	4.4
288.567	4.1
288.945	4.38
289.322	4.15
289.699	3.78
290.076	3.9
290.453	4.29
290.83	3.7
291.207	3.77
291.584	3.93
291.961	4.71
292.338	4
292.715	4.6
293.092	4.1
293.469	4.58
293.845	4.31
294.222	3.64
294.599	4.66
294.975	4.05
295.352	4.45
295.728	3.63
296.105	3.52
296.481	4.39
296.858	4.25
297.234	4.12
297.61	3.93
297.986	3.81
298.363	4.18
298.739	4.28
299.115	3.84
299.491	3.77
299.867	3.84
300.243	4.07
300.619	3.73
300.995	3.84
301.371	3.95
301.746	4.17
302.122	4.64
302.498	4
302.874	4.25
303.249	4.07
303.625	4.05
304	3.89
304.376	3.7
304.751	4.07
305.127	4.59
305.502	3.1
305.878	3.13
306.253	3.85
306.628	4.58
307.003	3.96
307.378	4.41
307.754	4.2
308.129	3.66
308.504	3.83
308.879	3.72
309.254	4.99
309.629	4.31
310.003	3.81
310.378	4.02
310.753	4.25
311.128	3.99
311.502	3.9
311.877	4.41
312.252	3.63
312.626	3.69
313.001	3.42
313.375	4.37
313.75	3.74
314.124	4
314.498	4.16
314.873	3.82
315.247	4.19
315.621	4.26
315.995	3.19
316.369	4.05
316.743	4.12
317.117	4.19
317.491	3.95
317.865	3.27
318.239	3.41
318.613	3.95
318.987	3.9
319.361	3.92
319.734	3.97
320.108	3.34
320.482	3.84
320.855	4.32
321.229	3.21
321.602	3.54
321.976	4.06
322.349	4.04
322.723	3.2
323.096	4
323.469	3.46
323.843	3.58
324.216	3.93
324.589	3.49
324.962	4.1
325.335	3.66
325.708	3.44
326.081	3.75
326.454	3.51
326.827	4.18
327.2	3.67
327.573	3.87
327.945	4.32
328.318	3.99
328.691	3.42
329.063	3.5
329.436	3.99
329.809	4.44
330.181	3.87
330.553	4.01
330.926	3.84
331.298	3.26
331.671	3.41
332.043	4.45
332.415	3.91
332.787	4.16
333.159	4.51
333.532	3.83
333.904	4.45
334.276	3.42
334.648	3.92
335.02	4.02
335.391	3.75
335.763	3.71
336.135	3.74
336.507	4.48
336.879	4
337.25	3.97
337.622	4.22
337.993	4.48
338.365	3.89
338.736	3.87
339.108	4.43
339.479	4.1
339.851	4.11
340.222	4.27
340.593	3.91
340.964	4.03
341.336	4.41
341.707	3.73
342.078	4.58
342.449	4.43
342.82	4.05
343.191	3.79
343.562	4.24
343.933	4.12
344.303	3.99
344.674	4.19
345.045	3.99
345.416	4.51
345.786	3.89
346.157	4.47
346.527	3.15
346.898	3.82
347.268	4.18
347.639	4.14
348.009	4.28
348.38	4.06
348.75	3.94
349.12	4.09
349.49	4.36
349.861	4.25
350.231	3.89
350.601	4.3
350.971	4.28
351.341	4.02
351.711	3.9
352.081	4
352.45	4.09
352.82	4.25
353.19	4.18
353.56	4.15
353.929	4.26
354.299	4.35
354.669	3.95
355.038	4.32
355.408	4.05
355.777	4.21
356.147	3.82
356.516	4.5
356.885	4.18
357.254	4.24
357.624	4.3
357.993	4.52
358.362	4.25
358.731	4.14
359.1	4.4
359.469	4.14
359.838	4.48
360.207	3.82
360.576	3.89
360.945	4.6
361.314	4.39
361.682	3.93
362.051	4.35
362.42	4.54
362.788	4.22
363.157	4.2
363.525	4.37
363.894	4.31
364.262	4.32
364.631	4.3
364.999	4.4
365.367	4.21
365.735	4.94
366.104	4.38
366.472	4.22
366.84	3.93
367.208	3.92
367.576	4.3
367.944	4.51
368.312	3.93
368.68	4.01
369.048	4.36
369.416	4.56
369.783	4.04
370.151	4.44
370.519	4.78
370.886	4.27
371.254	4.46
371.621	4.4
371.989	4.6
372.356	4.19
372.724	4.13
373.091	4.18
373.458	4.39
373.826	4.56
374.193	4.25
374.56	4.78
374.927	4.7
375.294	4
375.661	4.48
376.028	4.24
376.395	4.19
376.762	4.83
377.129	4.54
377.496	4.55
377.863	4.46
378.229	3.94
378.596	4.18
378.963	4.14
379.329	4.04
379.696	4.45
380.062	4.34
380.429	4.42
380.795	4.06
381.161	4.33
381.528	4.63
381.894	4.64
382.26	4.25
382.626	4.55
382.993	4.25
383.359	4.68
383.725	4.37
384.091	4.55
384.457	4.58
384.823	4.3
385.188	4.5
385.554	4.58
385.92	4.52
386.286	4.62
386.651	4.34
387.017	4.75
387.383	4.63
387.748	4.59
388.114	4.82
388.479	4.26
388.845	4.61
389.21	4.69
389.575	4.52
389.94	4.57
390.306	4.37
390.671	4.54
391.036	4.22
391.401	4.32
391.766	4.43
392.131	4.51
392.496	4.48
392.861	4.11
393.226	4.73
393.591	4.55
393.956	4.62
394.32	4.61
394.685	4.34
395.05	4.13
395.414	4.41
395.779	4.19
396.143	4.53
396.508	4.62
396.872	4.65
397.236	4.55
397.601	4.46
397.965	4.62
398.329	4.63
398.694	4.79
399.058	4.86
399.422	4.33
399.786	4.64
400.15	4.79
400.514	4.6
400.878	4.7
401.242	4.78
401.605	4.92
401.969	4.59
402.333	4.63
402.697	4.68
403.06	4.7
403.424	4.69
403.787	4.49
404.151	4.66
404.514	4.38
404.878	4.73
405.241	4.89
405.604	4.51
405.968	4.67
406.331	4.85
406.694	4.82
407.057	4.81
407.42	4.85
407.783	4.6
408.146	4.64
408.509	4.47
408.872	4.68
409.235	4.8
409.598	4.77
409.961	4.65
410.323	4.74
410.686	4.54
411.049	4.32
411.411	4.52
411.774	4.79
412.136	4.75
412.499	4.66
412.861	4.66
413.223	4.7
413.586	4.79
413.948	4.57
414.31	4.87
414.672	4.42
415.035	4.57
415.397	5
415.759	4.57
416.121	4.94
416.483	4.5
416.845	4.64
417.206	4.68
417.568	4.74
417.93	4.3
418.292	4.58
418.653	4.69
419.015	4.67
419.377	4.53
419.738	4.78
420.1	4.62
420.461	4.62
420.822	4.79
421.184	4.58
421.545	4.7
421.906	4.49
422.267	4.63
422.629	4.64
422.99	4.52
423.351	4.55
423.712	4.69
424.073	4.61
424.434	4.58
424.795	4.65
425.155	4.67
425.516	4.54
425.877	4.52
426.238	4.56
426.598	4.65
426.959	4.6
427.32	4.5
427.68	4.56
428.041	4.66
428.401	4.66
428.761	4.51
429.122	4.7
429.482	4.54
429.842	4.85
430.202	4.64
430.563	4.68
430.923	4.53
431.283	4.84
431.643	4.72
432.003	4.64
432.363	4.92
432.722	4.56
433.082	4.81
433.442	4.45
433.802	4.49
434.161	4.61
434.521	4.99
434.881	4.72
435.24	4.44
435.6	4.6
435.959	4.72
436.319	4.64
436.678	4.69
437.037	4.72
437.396	4.79
437.756	4.71
438.115	4.6
438.474	4.74
438.833	4.48
439.192	4.66
439.551	4.97
439.91	4.83
440.269	4.71
440.628	4.57
440.987	4.76
441.345	4.52
441.704	4.62
442.063	4.6
442.421	4.63
442.78	4.54
443.138	4.68
443.497	4.67
443.855	4.69
444.214	4.65
444.572	4.77
444.93	4.62
445.288	4.67
445.647	4.89
446.005	4.6
446.363	4.75
446.721	4.78
447.079	4.62
447.437	4.58
447.795	4.71
448.153	4.53
448.51	4.62
448.868	4.55
449.226	4.54
449.584	4.68
449.941	4.76
450.299	4.76
450.656	4.73
451.014	4.84
451.371	4.7
451.729	4.63
452.086	4.83
452.443	4.62
452.801	4.94
453.158	4.88
453.515	4.46
453.872	4.83
454.229	4.57
454.586	4.62
454.943	4.67
455.3	4.84
455.657	4.61
456.014	4.75
456.371	4.74
456.727	4.62
457.084	4.82
457.441	4.62
457.797	4.64
458.154	4.88
458.51	4.77
458.867	4.86
459.223	4.94
459.58	4.7
459.936	4.74
460.292	4.69
460.648	4.8
461.005	4.78
461.361	4.65
461.717	4.62
462.073	4.54
462.429	4.6
462.785	4.67
463.141	4.58
463.496	4.69
463.852	4.75
464.208	4.76
464.564	4.92
464.919	4.67
465.275	4.61
465.631	4.97
465.986	4.59
466.342	4.82
466.697	4.72
467.052	4.69
467.408	4.75
467.763	4.63
468.118	4.81
468.473	4.65
468.829	4.72
469.184	4.7
469.539	4.77
469.894	4.63
470.249	4.79
470.603	4.81
470.958	4.85
471.313	4.9
471.668	4.71
472.023	4.76
472.377	4.73
472.732	4.76
473.086	4.74
473.441	4.56
473.795	4.77
474.15	4.6
474.504	4.73
474.859	4.67
475.213	4.55
475.567	4.65
475.921	4.65
476.275	4.68
476.63	4.81
476.984	4.88
477.338	4.95
477.692	4.58
478.045	4.72
478.399	4.8
478.753	4.57
479.107	4.53
479.461	4.68
479.814	4.75
480.168	4.68
480.521	4.65
480.875	4.69
481.228	4.69
481.582	4.64
481.935	4.52
482.289	4.65
482.642	4.66
482.995	4.66
483.348	4.55
483.701	4.72
484.055	4.61
484.408	4.6
484.761	4.46
485.114	4.41
485.466	4.3
485.819	4.26
486.172	4.33
486.525	4.42
486.878	4.46
487.23	4.5
487.583	4.52
487.936	4.55
488.288	4.45
488.641	4.51
488.993	4.33
489.345	4.32
489.698	4.35
490.05	4.39
490.402	4.44
490.754	4.52
491.107	4.6
491.459	4.53
491.811	4.59
492.163	4.58
492.515	4.63
492.866	4.52
493.218	4.39
493.57	4.33
493.922	4.43
494.274	4.57
494.625	4.62
494.977	4.61
495.328	4.66
495.68	4.74
496.031	4.65
496.383	4.6
496.734	4.78
497.086	4.66
497.437	4.58
497.788	4.68
498.139	4.44
498.49	4.64
498.842	4.51
499.193	4.56
499.544	4.66
499.894	4.55
500.245	4.59
500.596	4.59
500.947	4.58
501.298	4.46
501.648	4.72
501.999	4.82
502.35	4.57
502.7	4.65
503.051	4.52
503.401	4.51
503.752	4.78
504.102	4.62
504.452	4.64
504.803	4.55
505.153	4.56
505.503	4.53
505.853	4.5
506.203	4.44
506.553	4.54
506.903	4.48
507.253	4.55
507.603	4.5
507.953	4.71
508.303	4.79
508.652	4.54
509.002	4.64
509.352	4.61
509.701	4.42
510.051	4.53
510.4	4.38
510.75	4.52
511.099	4.53
511.449	4.5
511.798	4.49
512.147	4.67
512.496	4.6
512.846	4.56
513.195	4.58
513.544	4.62
513.893	4.63
514.242	4.53
514.591	4.62
514.939	4.52
515.288	4.43
515.637	4.57
515.986	4.6
516.334	4.58
516.683	4.59
517.032	4.52
517.38	4.45
517.729	4.56
518.077	4.48
518.426	4.55
518.774	4.46
519.122	4.33
519.47	4.45
519.819	4.37
520.167	4.52
520.515	4.44
520.863	4.5
521.211	4.52
521.559	4.53
521.907	4.42
522.255	4.46
522.602	4.51
522.95	4.49
523.298	4.48
523.645	4.59
523.993	4.5
524.341	4.63
524.688	4.5
525.036	4.41
525.383	4.55
525.73	4.59
526.078	4.39
526.425	4.44
526.772	4.47
527.119	4.37
527.466	4.35
527.814	4.28
528.161	4.35
528.508	4.43
528.854	4.34
529.201	4.31
529.548	4.31
529.895	4.28
530.242	4.13
530.588	4.11
530.935	4.24
531.282	4.24
531.628	4.28
531.975	4.33
532.321	4.35
532.667	4.39
533.014	4.5
533.36	4.43
533.706	4.44
534.052	4.35
534.399	4.26
534.745	4.19
535.091	4.21
535.437	4.25
535.783	4.32
536.129	4.32
536.474	4.29
536.82	4.35
537.166	4.38
537.512	4.45
537.857	4.27
538.203	4.34
538.549	4.27
538.894	4.23
539.239	4.35
539.585	4.41
539.93	4.29
540.276	4.49
540.621	4.38
540.966	4.49
541.311	4.32
541.656	4.26
542.001	4.34
542.346	4.43
542.691	4.26
543.036	4.1
543.381	4.1
543.726	4.14
544.071	4.26
544.415	4.25
544.76	4.21
545.105	4.26
545.449	4.32
545.794	4.33
546.138	4.29
546.483	4.3
546.827	4.25
547.171	4.27
547.516	4.43
547.86	4.28
548.204	4.27
548.548	4.2
548.892	4.25
549.236	4.25
549.58	4.34
549.924	4.36
550.268	4.31
550.612	4.3
550.956	4.5
551.3	4.19
551.643	4.47
551.987	4.44
552.33	4.22
552.674	4.44
553.017	4.37
553.361	4.44
553.704	4.42
554.048	4.29
554.391	4.26
554.734	4.3
555.077	4.44
555.42	4.23
555.764	4.2
556.107	4.14
556.45	4.17
556.793	4.17
557.135	4.4
557.478	4.39
557.821	4.38
558.164	4.35
558.507	4.35
558.849	4.18
559.192	4.38
559.534	4.24
559.877	4.29
560.219	4.28
560.562	4.43
560.904	4.53
561.246	4.51
561.589	4.35
561.931	4.43
562.273	4.22
562.615	4.45
562.957	4.3
563.299	4.24
563.641	4.22
563.983	4.3
564.325	4.16
564.667	4.16
565.008	4.26
565.35	4.33
565.692	4.03
566.033	4.03
566.375	4.24
566.716	4.49
567.058	4.33
567.399	4.2
567.741	4.11
568.082	4.32
568.423	4.14
568.764	4.16
569.105	4.39
569.447	4.36
569.788	4.17
570.129	4.38
570.47	4.21
570.811	4.43
571.151	4.49
571.492	4.24
571.833	4.37
572.174	4.09
572.514	4.17
572.855	4.18
573.195	4.31
573.536	4.02
573.876	4
574.217	4.13
574.557	4.27
574.898	4.35
575.238	4.3
575.578	4.17
575.918	4.37
576.258	4.47
576.598	4.35
576.938	4.01
577.278	4.21
577.618	4.2
577.958	4.12
578.298	4.15
578.638	4.16
578.977	4.16
579.317	4.13
579.657	4.25
579.996	4.19
580.336	4.02
580.675	4
581.014	4.26
581.354	4.16
581.693	4.06
582.032	3.97
582.372	4.15
582.711	4.22
583.05	3.93
583.389	4.08
583.728	4.15
584.067	4.32
584.406	4.27
584.745	4.18
585.083	4.49
585.422	4.43
585.761	4.3
586.1	4.21
586.438	4.2
586.777	4.08
587.115	4.22
587.454	4.29
587.792	4.07
588.13	4.33
588.469	3.91
588.807	4.07
589.145	3.96
589.483	4.1
589.821	4.11
590.159	4.33
590.497	4.3
590.835	4.58
591.173	3.9
591.511	4.17
591.849	4.23
592.187	4.23
592.524	4.15
592.862	4.11
593.2	4.12
593.537	4.1
593.875	4.26
594.212	4.02
594.55	4.14
594.887	4.17
595.224	3.89
595.561	4.29
595.899	3.97
596.236	3.96
596.573	4.25
596.91	3.76
597.247	4.01
597.584	4.22
597.921	4.12
598.258	3.99
598.594	3.87
598.931	3.97
599.268	4.13
599.604	3.92
599.941	4.19
600.277	4.07
600.614	4.03
600.95	4.04
601.287	4.29
601.623	4.12
601.959	3.97
602.296	4.23
602.632	3.87
602.968	4.07
603.304	4.16
603.64	3.67
603.976	4.2
604.312	3.84
604.648	3.84
604.984	3.91
605.319	4.18
605.655	4
605.991	4.11
606.326	4.06
606.662	3.96
606.998	3.87
607.333	4.22
607.668	4.08
608.004	4.05
608.339	4.26
608.674	4.19
609.01	3.98
609.345	3.73
609.68	4.15
610.015	4.18
610.35	4.13
610.685	4.03
611.02	4.28
611.355	3.93
611.689	3.99
612.024	4.07
612.359	4
612.694	3.74
613.028	3.86
613.363	4.28
613.697	4.14
614.032	4.14
614.366	3.96
614.7	4.38
615.035	4.06
615.369	3.66
615.703	4
616.037	4.03
616.371	3.66
616.705	3.68
617.039	3.87
617.373	3.92
617.707	3.88
618.041	4.1
618.375	3.94
618.709	4.13
619.042	3.88
619.376	4.31
619.71	4.25
620.043	4.16
620.377	3.74
620.71	3.91
621.043	3.96
621.377	3.99
621.71	4.11
622.043	3.88
622.376	3.58
622.709	3.83
623.043	3.81
623.376	4.08
623.709	3.84
624.041	4.49
624.374	3.92
624.707	3.8
625.04	4.16
625.373	3.31
625.705	3.76
626.038	4.19
626.37	3.71
626.703	3.79
627.035	4.05
627.368	4.5
627.7	3.72
628.032	3.87
628.365	4.36
628.697	4.07
629.029	3.71
629.361	4.01
629.693	4.09
630.025	3.47
630.357	4.19
630.689	4.06
631.021	4.12
631.353	3.78
631.684	3.95
632.016	3.79
632.348	4.37
632.679	4.35
633.011	4.1
633.342	4.29
633.674	4.1
634.005	4.3
634.336	3.85
634.668	4.24
634.999	3.87
635.33	4.12
635.661	4.15
635.992	4.01
636.323	4.18
636.654	4.21
636.985	4.22
637.316	3.67
637.647	3.75
637.977	4.14
638.308	4.17
638.639	3.81
638.969	3.7
639.3	3.74
639.63	3.75
639.961	3.75
640.291	4.07
640.622	4.29
640.952	4.06
641.282	4.25
641.612	4.1
641.943	3.54
642.273	3.81
642.603	4.5
642.933	4.02
643.263	3.93
643.592	3.87
643.922	3.84
644.252	4.27
644.582	4.25
644.911	3.71
645.241	3.98
645.571	3.91
645.9	3.64
646.23	4.02
646.559	3.93
646.888	3.86
647.218	3.69
647.547	4.06
647.876	3.43
648.205	4.18
648.534	3.63
648.863	4.1
649.192	4.28
649.521	3.75
649.85	3.9
650.179	4.07
650.508	3.68
650.837	3.95
651.165	3.71
651.494	4.17
651.822	3.74
652.151	3.34
652.479	3.85
652.808	3.77
653.136	4.15
653.465	3.56
653.793	3.61
654.121	3.78
654.449	4.44
654.777	3.97
655.105	4.05
655.433	3.72
655.761	3.7
656.089	4.2
656.417	3.82
656.745	3.92
657.073	3.84
657.4	4.33
657.728	3.76
658.056	3.82
658.383	4.06
658.711	4.4
659.038	4.2
659.365	4.09
659.693	3.67
660.02	3.9
660.347	4.07
660.674	3.83
661.001	3.93
661.329	3.31
661.656	3.99
661.982	4.21
662.309	3.82
662.636	3.82
662.963	4.45
663.29	3.96
663.616	4.42
663.943	3.63
664.27	3.97
664.596	4.16
664.923	3.91
665.249	4.04
665.576	4.03
665.902	4.32
666.228	3.44
666.554	4
666.881	3.52
667.207	4.02
667.533	3.91
667.859	3.75
668.185	4
668.511	3.26
668.837	3
669.162	4.07
669.488	3.28
669.814	4.17
670.139	4.51
670.465	4.45
670.791	4.18
671.116	4.51
671.442	3.84
671.767	3.92
672.092	4.46
672.418	4.19
672.743	4.56
673.068	3.4
673.393	3.86
673.718	3.57
674.043	3.86
674.368	4.22
674.693	5.04
675.018	3.88
675.343	3.68
675.667	3.88
675.992	4.43
676.317	4.34
676.641	4.15
676.966	3.96
677.29	3.7
677.615	4.53
677.939	4.83
678.264	4.5
678.588	3.72
678.912	3.96
679.236	4.44
679.56	2.97
679.885	4.2
680.209	4.07
680.532	3.66
680.856	4.53
681.18	4.13
681.504	4.4
681.828	4.16
682.152	3.65
682.475	4.18
682.799	4.06
683.122	4.44
683.446	3.85
683.769	4.68
684.093	3.29
684.416	4.54
684.739	3.78
685.062	3.96
685.386	4.48
685.709	3.91
686.032	3.11
686.355	4.4
686.678	4.39
687.001	4.78
687.324	4.69
687.646	3.9
687.969	4.09
688.292	4.26
688.614	3.65
688.937	5.28
689.26	3.66
689.582	4.86
689.904	4.1
690.227	3.79
690.549	3.62
690.871	4.23
691.194	3.75
691.516	4.02
691.838	3.95
692.16	4.05
692.482	4
692.804	4.68
693.126	3.76
693.448	4.1
693.769	4.48
694.091	3.94
694.413	4.49
694.735	4.2
695.056	4.57
695.378	4.69
695.699	3.28
696.021	2.94
696.342	3.75
696.663	4.08
696.984	4.37
697.306	2.68
697.627	5.17
697.948	5.56
698.269	3.95
698.59	4.19
698.911	2.88
699.232	3.37
699.553	4.42
699.873	4.15
700.194	4.75
700.515	3.91
700.835	3.87
701.156	4.78
701.477	3.65
701.797	3.66
702.117	4.55
702.438	4.44
702.758	4.18
703.078	3.58
703.398	3.78
703.719	3.7
704.039	3.1
704.359	4.58
704.679	4.07
704.999	3.25
705.319	3.36
705.638	4.21
705.958	4.09
706.278	4.5
706.597	3.16
706.917	3.9
707.237	4.9
707.556	4.87
707.876	5.11
708.195	4.17
708.514	2.99
708.834	4.23
709.153	4.36
709.472	5.12
709.791	4.17
710.11	3.44
710.429	5.07
710.748	4.64
711.067	4.36
711.386	3.46
711.705	4.49
712.023	4.62
712.342	3.41
712.661	3.18
712.979	3.1
713.298	4.09
713.616	3.91
713.935	4.34
714.253	4.28
714.572	4.87
714.89	3.61
715.208	5.98
715.526	3.21
715.844	4.55
716.162	3.99
716.48	4.68
716.798	4.05
717.116	5.31
717.434	4.01
717.752	2.98
718.069	3.45
718.387	3.22
718.705	3.92
719.022	3.26
719.34	3.89
719.657	3.65
719.975	3.99
720.292	5.08
720.609	4.65
720.927	4.22
721.244	5.8
721.561	4.15
721.878	4.16
722.195	3.24
722.512	4.85
722.829	5.07
723.146	4.07
723.463	6.13
723.779	4.57
724.096	5.46
724.413	3.12
724.729	3.6
725.046	2.41
725.362	3.76
725.679	3.59
725.995	2.78
726.311	3.67
726.628	4.54
726.944	5.48
727.26	4.05
727.576	4.3
727.892	3.98
728.208	4.63
728.524	3.69
728.84	3.61
729.156	3.65
729.472	2.74
729.787	3.54
730.103	4.74
730.419	3.98
730.734	3.79
731.05	3.42
731.365	3.24
731.681	4.29
731.996	3.69
732.311	3.76
732.626	4.11
732.942	2.54
733.257	4.15
733.572	5.31
733.887	3.87
734.202	4.44
734.517	4.91
734.832	5.24
735.146	5.03
735.461	4.25
735.776	3.82
736.091	4.12
736.405	5
736.72	3.62
737.034	4.25
737.349	5.94
737.663	4.43
737.977	4.34
738.292	4.28
738.606	4.04
738.92	5.41
739.234	4.96
739.548	4.38
739.862	4.9
740.176	3.41
740.49	4.53
740.804	5.92
741.117	4.4
741.431	4.97
741.745	3.54
742.058	3.44
742.372	3.69
742.685	5.19
742.999	1.58
743.312	3.11
743.626	4.39
743.939	4.03
744.252	3.87
744.565	3.9
744.878	5.65
745.191	3.25
745.505	4.76
745.817	4.68
746.13	3.86
746.443	5.05
746.756	6.4
747.069	5.2
747.381	5.28
747.694	2.36
748.007	4.48
748.319	4.35
748.632	3.87
748.944	3.51
749.256	6.08
749.569	3.58
749.881	4.28
750.193	4.84
750.505	2.75
750.817	4.3
751.129	4.45
751.441	3.5
751.753	4.56
752.065	4.37
752.377	6.27
752.689	5.14
753	3.76
753.312	3.49
753.624	5.95
753.935	6.45
754.247	5.19
754.558	3.07
754.869	5.29
755.181	3.22
755.492	5.18
755.803	3.31
756.114	5.09
756.425	3.61
756.736	2.87
757.047	3.86
757.358	3.76
757.669	4.36
757.98	4.05
758.291	2.95
758.601	3.75
758.912	3.6
759.223	7.68
759.533	3.59
759.844	3.52
760.154	1.84
760.464	4.83
760.775	5.1
761.085	4.06
761.395	4.78
761.705	4.22
762.016	5.05
762.326	5.02
762.636	3.31
762.945	1.69
763.255	4.43
763.565	3.77
763.875	3.99
764.185	3.59
764.494	4.53
764.804	6.8
765.113	3.05
765.423	3.56
765.732	4.12
766.042	3.21
766.351	4.14
766.66	5.24
766.97	6.75
767.279	4.89
767.588	3.95
767.897	6.28
768.206	3.78
768.515	5.38
768.824	3.92
769.133	5.5
769.441	4.18
769.75	5.63
770.059	3.22
770.367	4.91
770.676	5.88
770.984	4.73
771.293	3.95
771.601	7.49
771.91	2.99
772.218	7.98
772.526	4.9
772.834	4.5
773.142	2.72
773.45	2.26
773.758	4.33
774.066	4.63
774.374	-0.59
774.682	7.44
774.99	8.07
775.298	3.39
775.605	6.36
775.913	2.82
776.22	10.13
776.528	3.68
776.835	4.23
777.143	5.01
777.45	2.54
777.757	5.15
778.065	4.65
778.372	6.26
778.679	2.28
778.986	6.42
779.293	2.44
779.6	5.49
779.907	4.81
780.214	4.67
780.52	7.86
780.827	6
781.134	3.16
781.44	5.69
781.747	3.78
782.053	2.9
782.36	4.14
782.666	6.67
782.973	-0.97
783.279	7.97
783.585	3.29
783.891	4.99
784.197	7.77
784.503	7.99
784.809	1.56
785.115	3.33
785.421	4.36
785.727	2.27
786.033	6.07
786.339	3.82
786.644	5.3
786.95	4.98
787.255	4.34
787.561	5.36
787.866	5.32
788.172	3.52
788.477	4.04
788.782	7.73
789.088	5.82
789.393	2.25
789.698	5.61
790.003	6.66
790.308	8.84
790.613	5.89
790.918	5.25
791.223	4.01
791.527	2.82
791.832	6.79
792.137	-0.38
792.441	4.09
792.746	6.8
793.05	4.04
793.355	4.92
793.659	8.51
793.963	6.19
794.268	6.91
794.572	8.99
794.876	5.91
795.18	7.1
795.484	2.94
795.788	6.59
796.092	1.73
796.396	2.72
796.7	0.76
797.004	2.94
797.307	3.39
797.611	3.97
797.915	7.03
798.218	5.99
798.522	5.22
798.825	2.28
799.128	6.6
799.432	3.47
799.735	4.36
800.038	9.88
800.341	5.06
800.644	7.01
800.947	6.99
801.25	3.47
801.553	1.43
801.856	-0.42
802.159	-0.21
802.462	4.13
802.764	5.4
803.067	5.59
803.37	5.5
803.672	-1.23
803.975	1.63
804.277	3.74
804.579	1.61
804.882	4.68
805.184	4.76
805.486	0.57
805.788	8.91
806.09	6.93
806.392	2.68
806.694	9.08
806.996	8.03
807.298	4.59
807.6	3.77
807.902	6.31
808.203	5.66
808.505	4.75
808.807	4.66
809.108	4.38
809.409	9.44
809.711	-0.51
810.012	2.64
810.313	6.73
810.615	9.18
810.916	2.89
811.217	2.64
811.518	9.91
811.819	5.18
812.12	6.26
812.421	2.97
812.722	10.25
813.023	7.39
813.323	1.94
813.624	3.92
813.925	12.81
814.225	4.34
814.526	7.75
814.826	7.57
815.126	3.01
815.427	5.17
815.727	4.74
816.027	5.76
816.327	-5.01
816.627	-1.92
816.927	6.9
817.227	8.46
817.527	5.77
817.827	10.12
818.127	6.29
818.427	7.54
818.727	8.04
819.026	5.83
819.326	10.46
819.625	9.41
819.925	2.42
820.224	9.09
820.524	6.28
820.823	3.65
821.122	3.82
821.421	-2.16
821.72	3.65
822.019	6.44
822.318	3.87
822.617	2.67
822.916	2.97
823.215	1.6
823.514	6.27
823.813	5.42
824.111	6.11
824.41	7.73
824.709	5.93
825.007	4.96
825.306	5.29
825.604	5.89
825.902	5.95
826.201	4.82
826.499	5.04
826.797	5.94
827.095	5.37
827.393	4.34
827.691	6.62
827.989	3.84
828.287	5.72
828.585	5.46
828.882	4.55
829.18	8.23
829.478	9.38
829.775	6.64
830.073	6.03
830.37	6.34
830.668	4.86
830.965	7.23
831.263	3.06
831.56	4.51
831.857	4.53
832.154	6.75
832.451	8.54
832.748	7.31
833.045	5.27
833.342	8.8
833.639	6.77
833.936	2.59
834.232	8.36
834.529	8.19
834.826	1.43
835.122	6.11
835.419	2.84
835.715	4.93
836.012	5.38
836.308	4.75
836.604	5.48
836.901	2.4
837.197	4.64
837.493	5.38
837.789	4.68
838.085	4.3
838.381	5.41
838.677	5.31
838.972	5.56
839.268	5.35
839.564	5.74
839.86	2.39
840.155	-0.27
840.451	-2.03
840.746	7.66
841.042	10.66
841.337	6.35
841.632	9.88
841.928	10.19
842.223	6.68
842.518	1.61
842.813	21.13
843.108	-0.09
843.403	5.74
843.698	2.54
843.993	10.4
844.287	1.61
844.582	-0.85
844.877	-1.06
845.171	8.06
845.466	3.53
845.761	-0.64
846.055	10.75
846.349	-3.71
846.644	14.81
846.938	-8.84
847.232	-10.78
847.526	2.11
847.82	20.66
848.114	-10.8
848.408	6.25
848.702	23.73
848.996	1.43
849.29	2.23
849.584	11.97
849.877	9.71
850.171	6.88
850.465	-9
850.758	11.22
851.052	-0.09
851.345	5.94
851.638	14.29
851.932	-0.96
852.225	-8.32
852.518	6.45
852.811	-10.34
853.104	-24.22
853.397	16.49
853.69	8.51
853.983	0.74
854.276	6.87
854.569	2.68
854.861	1.98
855.154	-9.86
855.447	-12.6
855.739	22.71
856.032	6.34
856.324	23.8
856.616	22.43
856.909	15.87
857.201	10.32
857.493	0.53
857.785	-22.87
858.077	13.74
858.369	16.64
858.661	2.23
858.953	16.72
859.245	-5
859.537	5.44
859.829	18.42
860.12	5.03
860.412	4.29
860.703	6.2
860.995	-12.32
861.286	-17.73
861.578	1.73
861.869	3.74
862.16	10.22
862.452	14.04
862.743	-8.33
863.034	-2.69
863.325	-9.37
863.616	9.62
863.907	-14.86
864.198	14.41
864.488	23.17
864.779	7.03
865.07	-3.99
865.36	1.51
865.651	-3.59
865.941	25
866.232	-9.4
866.522	-21.47
866.813	17.43
867.103	23.56
867.393	-8.78
867.683	-5.93
867.973	-21.99
868.263	15.72
868.553	20.47
868.843	21.08
869.133	-13.04
869.423	26.83
869.713	29.58
870.002	9.49
870.292	11.24
870.582	10.67
870.871	-20.94
871.161	6.75
871.45	8.24
871.739	13.05
872.029	-20.23
872.318	19.07
872.607	37.12
872.896	-12.31
873.185	12.83
873.474	-25.99
873.763	-11.33
874.052	17.53
874.341	9.39
874.63	28.22
874.918	5.92
875.207	23.26
875.496	18.28
875.784	-38.57
876.073	-14.48
876.361	-53.03
876.649	7.87
876.938	-18.48
877.226	-19.02
877.514	12.92
877.802	-4.05
878.09	-7.38
878.378	47.87
878.666	19.38
878.954	-14.61
879.242	-5.66
879.53	20.43
879.817	7.32
880.105	-8.68
880.392	-7.78
880.68	-22.07
880.967	10.21
881.255	35.26
881.542	2.87
881.83	-33.65
882.117	11.12
882.404	-34.88
882.691	15.98
882.978	-18.94
883.265	13.08
883.552	8.28
883.839	11.6
884.126	19.77
884.413	21.94
884.699	15.07
884.986	16.39
885.273	4.15
885.559	4.15
885.846	4.15
