Data from 815643_crown_Reflection__1__20.txt Node

Date: Fri Sep 16 14:19:34 CDT 2022
User: ToomeyLab
Spectrometer: FLMS14357
Trigger mode: 0
Integration Time (sec): 1.000000E-2
Scans to average: 100
Electric dark correction enabled: true
Nonlinearity correction enabled: false
Boxcar width: 0
XAxis mode: Wavelengths
Number of Pixels in Spectrum: 2048
>>>>>Begin Spectral Data<<<<<
189.047	59.37
189.435	59.37
189.823	59.37
190.211	190.63
190.599	296.28
190.987	-472.96
191.375	45.55
191.763	145.91
192.151	1169.03
192.538	600.88
192.926	86.89
193.314	-33.39
193.702	-225.34
194.089	120.29
194.477	108.08
194.864	26.93
195.252	-549.31
195.639	1245.07
196.027	469.57
196.414	-88.03
196.801	18.91
197.189	39
197.576	-118.2
197.963	-103.44
198.351	-30.77
198.738	27.04
199.125	-35.24
199.512	45.49
199.899	19.43
200.286	-1.36
200.673	-18.53
201.06	8.62
201.447	-7.97
201.833	16.9
202.22	-45.47
202.607	26.57
202.994	23.63
203.38	-48.35
203.767	-10.94
204.154	6.8
204.54	-7.98
204.927	1.47
205.313	-8.83
205.699	-5.01
206.086	-7.88
206.472	-3.45
206.858	-22.78
207.245	8.85
207.631	-10.14
208.017	5.39
208.403	17.3
208.789	11.95
209.175	-73.76
209.561	-24.28
209.947	-24.68
210.333	-9.82
210.719	-15.97
211.105	10.52
211.491	-5.62
211.876	-35.89
212.262	-26.9
212.648	-6.08
213.034	10.12
213.419	9.18
213.805	10.25
214.19	-8.72
214.576	0.74
214.961	7.8
215.346	-14.09
215.732	4.14
216.117	-6.5
216.502	3.24
216.888	-4.47
217.273	-1.67
217.658	-2.86
218.043	8.54
218.428	7.34
218.813	-0.24
219.198	-4.84
219.583	24.48
219.968	-8.67
220.353	-6.9
220.738	-32.17
221.122	11.59
221.507	-13.92
221.892	1.12
222.276	1.23
222.661	-6.44
223.046	-0.85
223.43	-0.69
223.815	1.1
224.199	-6.76
224.583	-0.92
224.968	1.68
225.352	-7.72
225.736	1.74
226.121	-6.76
226.505	3.88
226.889	7.43
227.273	7.05
227.657	5.24
228.041	2.98
228.425	3.39
228.809	4.29
229.193	1.71
229.577	3.95
229.961	3.32
230.344	2.91
230.728	2.89
231.112	2.23
231.495	3.11
231.879	3.13
232.263	3.05
232.646	0.33
233.03	3.16
233.413	2.04
233.797	4.39
234.18	1.88
234.563	1.24
234.946	2.43
235.33	1.77
235.713	3.68
236.096	3.05
236.479	3.61
236.862	3.11
237.245	2.01
237.628	2.43
238.011	3.12
238.394	3.03
238.777	4.55
239.16	3.81
239.543	4.04
239.925	2.76
240.308	3.37
240.691	3.41
241.073	3.45
241.456	3.21
241.838	3.57
242.221	3.13
242.603	3.27
242.986	2.56
243.368	3.3
243.75	3.4
244.133	3.14
244.515	3.26
244.897	3.73
245.279	4.07
245.661	3.8
246.043	3.3
246.425	3.9
246.807	3.03
247.189	2.78
247.571	3.16
247.953	3.16
248.335	3.42
248.717	3.19
249.098	3.18
249.48	3.55
249.862	3.28
250.243	3.6
250.625	3.34
251.006	3.46
251.388	2.75
251.769	3.37
252.151	3.47
252.532	2.37
252.913	2.97
253.295	3.28
253.676	3.46
254.057	3.05
254.438	3.06
254.819	3.82
255.2	2.66
255.581	3.76
255.962	2.79
256.343	3.06
256.724	2.98
257.105	2.15
257.486	2.3
257.867	2.84
258.247	2.4
258.628	3.39
259.009	2.5
259.389	3.05
259.77	2.81
260.15	2.93
260.531	2.83
260.911	2.55
261.292	2.81
261.672	3.05
262.052	3.23
262.432	3.18
262.813	3.2
263.193	3.4
263.573	2.65
263.953	2.98
264.333	2.74
264.713	3.1
265.093	2.44
265.473	2.87
265.853	3.36
266.233	2.95
266.612	3.41
266.992	2.61
267.372	2.77
267.752	2.47
268.131	3.02
268.511	2.64
268.89	2.27
269.27	2.55
269.649	2.36
270.029	2.94
270.408	2.94
270.787	3.03
271.167	2.76
271.546	2.54
271.925	2.56
272.304	2.95
272.683	2.08
273.062	2.77
273.441	2.72
273.82	2.51
274.199	2.7
274.578	3.01
274.957	2.7
275.336	2.91
275.715	2.67
276.093	2.59
276.472	3.25
276.851	3.16
277.229	2.65
277.608	2.66
277.986	2.41
278.365	2.3
278.743	3.12
279.122	2.29
279.5	2.77
279.878	2.87
280.257	2.64
280.635	2.7
281.013	2.28
281.391	2.99
281.769	2.74
282.147	2.43
282.525	2.4
282.903	2.91
283.281	2.94
283.659	2.63
284.037	2.76
284.415	2.29
284.792	3.15
285.17	2.6
285.548	2.52
285.925	3.1
286.303	2.3
286.68	2.63
287.058	2.85
287.435	2.6
287.813	2.69
288.19	2.65
288.567	2.72
288.945	3.25
289.322	2.33
289.699	2.13
290.076	2.69
290.453	3.35
290.83	2.6
291.207	2.19
291.584	2.61
291.961	2.61
292.338	2.29
292.715	2.34
293.092	2.73
293.469	2.35
293.845	2.78
294.222	2.01
294.599	3.09
294.975	2.21
295.352	2.99
295.728	2.47
296.105	2.13
296.481	2.36
296.858	2.48
297.234	2.48
297.61	2.39
297.986	1.94
298.363	2.91
298.739	2.52
299.115	2.74
299.491	2.58
299.867	2.67
300.243	2.63
300.619	2.88
300.995	2.4
301.371	2.56
301.746	2.9
302.122	2.23
302.498	2
302.874	2.72
303.249	2.58
303.625	2.76
304	2.52
304.376	2.1
304.751	2.73
305.127	2.98
305.502	1.95
305.878	2.24
306.253	2.3
306.628	2.52
307.003	2.69
307.378	2.71
307.754	2.12
308.129	2.34
308.504	2.7
308.879	2.7
309.254	2.31
309.629	2.63
310.003	2.08
310.378	2.24
310.753	2.5
311.128	2.5
311.502	2.37
311.877	2.53
312.252	2.21
312.626	2.52
313.001	2.65
313.375	2.39
313.75	2.15
314.124	2.65
314.498	2.45
314.873	2.19
315.247	2.58
315.621	2.19
315.995	2.07
316.369	2.4
316.743	2.63
317.117	2.35
317.491	2.42
317.865	2.28
318.239	2.39
318.613	2.64
318.987	2.5
319.361	2.3
319.734	1.97
320.108	2.38
320.482	2.61
320.855	2.31
321.229	2.95
321.602	2.43
321.976	2.38
322.349	2.28
322.723	2.59
323.096	2.03
323.469	2.26
323.843	2.35
324.216	2.6
324.589	2.29
324.962	2.56
325.335	2.14
325.708	2.58
326.081	2.65
326.454	2.09
326.827	2.67
327.2	2.18
327.573	2.32
327.945	2.72
328.318	2.51
328.691	2.58
329.063	2.82
329.436	2.21
329.809	2.89
330.181	2.25
330.553	2.46
330.926	2.53
331.298	2.73
331.671	2.81
332.043	2.94
332.415	2.55
332.787	2.69
333.159	2.43
333.532	2.49
333.904	2.61
334.276	2.43
334.648	2.73
335.02	2.76
335.391	2.13
335.763	2.72
336.135	2.54
336.507	2.26
336.879	2.43
337.25	2.18
337.622	2.14
337.993	2.28
338.365	2.59
338.736	2.48
339.108	2.46
339.479	2.88
339.851	2.72
340.222	2.81
340.593	2.25
340.964	2.69
341.336	2.82
341.707	2.31
342.078	2.71
342.449	2.66
342.82	2.38
343.191	2.42
343.562	2.79
343.933	2.88
344.303	2.41
344.674	2.39
345.045	2.55
345.416	2.75
345.786	2.63
346.157	2.37
346.527	2.53
346.898	2.19
347.268	2.62
347.639	2.58
348.009	2.37
348.38	2.57
348.75	2.88
349.12	2.57
349.49	2.32
349.861	2.56
350.231	2.68
350.601	2.96
350.971	2.38
351.341	2.64
351.711	2.68
352.081	2.65
352.45	3.06
352.82	2.33
353.19	2.85
353.56	2.95
353.929	2.45
354.299	2.69
354.669	2.54
355.038	2.41
355.408	2.7
355.777	2.5
356.147	2.75
356.516	2.49
356.885	2.25
357.254	2.67
357.624	2.7
357.993	2.75
358.362	2.74
358.731	2.6
359.1	2.66
359.469	2.72
359.838	2.67
360.207	2.94
360.576	2.86
360.945	3.01
361.314	2.9
361.682	2.5
362.051	2.66
362.42	2.54
362.788	2.78
363.157	2.8
363.525	2.52
363.894	2.68
364.262	3
364.631	2.69
364.999	3.09
365.367	2.58
365.735	2.52
366.104	2.71
366.472	2.73
366.84	2.58
367.208	2.85
367.576	2.89
367.944	2.49
368.312	2.61
368.68	2.9
369.048	2.6
369.416	2.89
369.783	2.63
370.151	2.72
370.519	2.86
370.886	2.38
371.254	2.72
371.621	2.9
371.989	2.88
372.356	2.9
372.724	2.94
373.091	2.67
373.458	2.88
373.826	2.83
374.193	3.06
374.56	2.51
374.927	3.06
375.294	2.69
375.661	2.44
376.028	2.78
376.395	2.99
376.762	2.9
377.129	2.55
377.496	2.72
377.863	2.91
378.229	2.9
378.596	2.71
378.963	3.02
379.329	3.2
379.696	3.06
380.062	3.17
380.429	3.14
380.795	2.9
381.161	2.97
381.528	3.04
381.894	2.95
382.26	2.68
382.626	2.74
382.993	3.08
383.359	2.92
383.725	2.8
384.091	3.19
384.457	2.56
384.823	2.93
385.188	2.65
385.554	2.78
385.92	3.13
386.286	2.79
386.651	3
387.017	2.83
387.383	3.03
387.748	3.05
388.114	2.76
388.479	2.85
388.845	2.95
389.21	2.9
389.575	3.31
389.94	2.86
390.306	3.12
390.671	2.96
391.036	3.08
391.401	2.95
391.766	3.02
392.131	2.74
392.496	3.16
392.861	3.14
393.226	2.83
393.591	2.99
393.956	2.97
394.32	2.73
394.685	3.07
395.05	3.14
395.414	2.95
395.779	3.03
396.143	2.96
396.508	2.93
396.872	3.27
397.236	2.99
397.601	3.1
397.965	2.95
398.329	3.15
398.694	3.01
399.058	3.18
399.422	3.08
399.786	3.28
400.15	2.97
400.514	2.77
400.878	3.15
401.242	2.96
401.605	2.97
401.969	3.04
402.333	3.1
402.697	3.1
403.06	3.19
403.424	3
403.787	3.14
404.151	3.03
404.514	2.8
404.878	2.99
405.241	2.95
405.604	3.01
405.968	3.01
406.331	3.13
406.694	2.97
407.057	3.01
407.42	3.19
407.783	3.14
408.146	2.97
408.509	3.37
408.872	3.06
409.235	3.26
409.598	3.18
409.961	3.03
410.323	3.04
410.686	3.11
411.049	2.85
411.411	3.08
411.774	3.17
412.136	3.11
412.499	2.92
412.861	3.13
413.223	2.99
413.586	2.97
413.948	2.95
414.31	3.3
414.672	3
415.035	3.17
415.397	3.3
415.759	3.24
416.121	2.91
416.483	2.92
416.845	3.1
417.206	3.09
417.568	2.89
417.93	2.99
418.292	2.99
418.653	3.05
419.015	3.09
419.377	2.93
419.738	2.99
420.1	3.21
420.461	2.96
420.822	2.98
421.184	3.1
421.545	3
421.906	2.96
422.267	3.02
422.629	2.95
422.99	2.96
423.351	3.02
423.712	2.94
424.073	3.17
424.434	3.21
424.795	3.06
425.155	2.96
425.516	2.94
425.877	3.06
426.238	3.01
426.598	2.99
426.959	3.04
427.32	3.04
427.68	3.14
428.041	3.08
428.401	3.03
428.761	3.12
429.122	3.17
429.482	3.3
429.842	3.04
430.202	3.1
430.563	3.24
430.923	3.14
431.283	3.14
431.643	3.14
432.003	3.1
432.363	3.08
432.722	3.23
433.082	3.26
433.442	3.18
433.802	3.16
434.161	3.06
434.521	3.09
434.881	3.12
435.24	3.09
435.6	3.11
435.959	3.06
436.319	3.09
436.678	2.99
437.037	3.15
437.396	3.1
437.756	3.14
438.115	3.12
438.474	2.97
438.833	3.18
439.192	3.11
439.551	3.04
439.91	2.99
440.269	3.04
440.628	3.24
440.987	3.18
441.345	3.02
441.704	3.14
442.063	3.09
442.421	2.98
442.78	3.06
443.138	3.11
443.497	3.22
443.855	3.13
444.214	3.3
444.572	3.21
444.93	3.21
445.288	3.16
445.647	3.08
446.005	3.05
446.363	3.16
446.721	3.03
447.079	3.07
447.437	3.02
447.795	3.01
448.153	3.01
448.51	2.99
448.868	3.09
449.226	3.13
449.584	3.08
449.941	3.13
450.299	3.02
450.656	3.22
451.014	3.16
451.371	3.12
451.729	3.07
452.086	3.05
452.443	3.23
452.801	3.21
453.158	3.1
453.515	3.22
453.872	3.17
454.229	3.09
454.586	3.11
454.943	3.2
455.3	3.07
455.657	3.23
456.014	3.06
456.371	3.23
456.727	2.98
457.084	3.4
457.441	3.15
457.797	3.18
458.154	3.25
458.51	3.1
458.867	3.12
459.223	3.03
459.58	3.04
459.936	3.22
460.292	3.07
460.648	3.11
461.005	3.08
461.361	2.99
461.717	2.99
462.073	3.12
462.429	3.17
462.785	3.1
463.141	3.19
463.496	3.29
463.852	3.31
464.208	3.25
464.564	3.17
464.919	3.22
465.275	2.98
465.631	3.07
465.986	3.11
466.342	3.18
466.697	3.13
467.052	3.47
467.408	3.13
467.763	3.41
468.118	3.27
468.473	3.25
468.829	3.08
469.184	3.1
469.539	2.96
469.894	3.09
470.249	3.15
470.603	3.22
470.958	3.14
471.313	3.12
471.668	3.15
472.023	3.28
472.377	3.16
472.732	3.24
473.086	3.34
473.441	3.25
473.795	3.15
474.15	2.9
474.504	3.22
474.859	3.26
475.213	3.14
475.567	3.13
475.921	3.17
476.275	3.23
476.63	3.21
476.984	3.04
477.338	3.17
477.692	3.25
478.045	3.03
478.399	3.14
478.753	3.14
479.107	3.09
479.461	3.24
479.814	3.19
480.168	3.17
480.521	3.16
480.875	3.2
481.228	3.15
481.582	3.13
481.935	3.19
482.289	3.09
482.642	3.07
482.995	3.09
483.348	3.11
483.701	3.09
484.055	3.04
484.408	3.03
484.761	2.97
485.114	2.86
485.466	2.83
485.819	2.83
486.172	2.96
486.525	3.1
486.878	3.19
487.23	3.11
487.583	3.12
487.936	3.1
488.288	3.02
488.641	3.02
488.993	2.85
489.345	2.97
489.698	2.97
490.05	3.03
490.402	3.13
490.754	3.1
491.107	3.24
491.459	3.18
491.811	3.21
492.163	3.1
492.515	3.06
492.866	2.94
493.218	2.9
493.57	2.97
493.922	3.05
494.274	3.15
494.625	3.2
494.977	3.18
495.328	3.17
495.68	3.19
496.031	3.22
496.383	3.09
496.734	3.23
497.086	3.22
497.437	3.08
497.788	3.15
498.139	3.02
498.49	3.11
498.842	3.1
499.193	3.23
499.544	3.18
499.894	3.17
500.245	3.23
500.596	3.09
500.947	3.21
501.298	3.16
501.648	3.23
501.999	3.23
502.35	3.24
502.7	3.15
503.051	3.24
503.401	3.15
503.752	3.23
504.102	3.21
504.452	3.17
504.803	3.11
505.153	3.21
505.503	3.18
505.853	3.3
506.203	3.18
506.553	3.17
506.903	3.23
507.253	3.29
507.603	3.04
507.953	3.24
508.303	3.24
508.652	3.19
509.002	3.21
509.352	3.19
509.701	3.25
510.051	3.15
510.4	3.11
510.75	3.17
511.099	3.05
511.449	3.12
511.798	3.2
512.147	3.15
512.496	3.16
512.846	3.18
513.195	3.18
513.544	3.12
513.893	3.16
514.242	3.21
514.591	3.16
514.939	3.21
515.288	3.16
515.637	3.29
515.986	3.14
516.334	3.32
516.683	3.27
517.032	3.17
517.38	3.27
517.729	3.24
518.077	3.34
518.426	3.14
518.774	3.07
519.122	3.09
519.47	3.2
519.819	3.1
520.167	3.07
520.515	3.06
520.863	3.15
521.211	3.1
521.559	3.19
521.907	3.23
522.255	3.3
522.602	3.21
522.95	3.2
523.298	3.16
523.645	3.22
523.993	3.26
524.341	3.26
524.688	3.19
525.036	3.31
525.383	3.1
525.73	3.14
526.078	3.19
526.425	3.08
526.772	3.14
527.119	3.12
527.466	3.06
527.814	3.08
528.161	3.12
528.508	3.14
528.854	3.17
529.201	3.14
529.548	3
529.895	2.96
530.242	2.87
530.588	2.89
530.935	3.01
531.282	3.07
531.628	3.17
531.975	3.12
532.321	3.13
532.667	3.12
533.014	3.16
533.36	3.11
533.706	3.17
534.052	3.1
534.399	3.02
534.745	2.93
535.091	2.96
535.437	3.03
535.783	3.18
536.129	3.16
536.474	3.19
536.82	3.15
537.166	3.17
537.512	3.25
537.857	3.07
538.203	3.04
538.549	3.07
538.894	3.09
539.239	3.14
539.585	3.17
539.93	3.16
540.276	3.19
540.621	3.32
540.966	3.16
541.311	3.09
541.656	3.16
542.001	3.13
542.346	2.97
542.691	2.94
543.036	2.89
543.381	2.99
543.726	3.02
544.071	3.12
544.415	3.13
544.76	3.14
545.105	3.07
545.449	3.16
545.794	3.1
546.138	3.23
546.483	3.26
546.827	3.22
547.171	3.2
547.516	3.11
547.86	3.2
548.204	3.17
548.548	3.08
548.892	3.13
549.236	3.14
549.58	3.16
549.924	3.19
550.268	3.31
550.612	3.28
550.956	3.19
551.3	3.21
551.643	3.3
551.987	3.22
552.33	3.12
552.674	3.31
553.017	3.27
553.361	3.04
553.704	3.21
554.048	3.12
554.391	3.05
554.734	3.06
555.077	3.11
555.42	3.2
555.764	3.25
556.107	3.25
556.45	3.43
556.793	3.23
557.135	3.2
557.478	3.33
557.821	3.31
558.164	3.29
558.507	3.35
558.849	3.14
559.192	3.24
559.534	2.99
559.877	3.21
560.219	3.31
560.562	3.22
560.904	3.36
561.246	3.16
561.589	3.17
561.931	3.2
562.273	3.22
562.615	2.98
562.957	3.03
563.299	3.23
563.641	3.28
563.983	3.08
564.325	3.1
564.667	3.27
565.008	3.18
565.35	3.08
565.692	3.36
566.033	3.17
566.375	3.22
566.716	3.11
567.058	3.23
567.399	3.18
567.741	3.11
568.082	3.15
568.423	3.19
568.764	3.11
569.105	3.23
569.447	3.24
569.788	3.35
570.129	3.31
570.47	3.29
570.811	3.25
571.151	3.45
571.492	3.34
571.833	3.14
572.174	3.11
572.514	3.24
572.855	3.2
573.195	3.22
573.536	3.15
573.876	3.12
574.217	3.14
574.557	3.21
574.898	3.14
575.238	3.25
575.578	3.27
575.918	3.1
576.258	3.08
576.598	3.16
576.938	3.17
577.278	3.21
577.618	3.28
577.958	3.18
578.298	3.27
578.638	3.14
578.977	3.34
579.317	3.14
579.657	3.33
579.996	3.23
580.336	3.17
580.675	3.26
581.014	3.15
581.354	3.31
581.693	3.38
582.032	3.24
582.372	3.36
582.711	3.21
583.05	3.09
583.389	3.27
583.728	3.39
584.067	3.42
584.406	3.28
584.745	3.3
585.083	3.19
585.422	3.26
585.761	3.21
586.1	3.15
586.438	3.24
586.777	3.11
587.115	3.29
587.454	2.93
587.792	3.33
588.13	3.22
588.469	3.15
588.807	3.49
589.145	3.58
589.483	3.32
589.821	3.28
590.159	3.22
590.497	3.24
590.835	3.57
591.173	3.06
591.511	3.45
591.849	3.33
592.187	3.43
592.524	3.2
592.862	3.19
593.2	3.27
593.537	3.38
593.875	3.32
594.212	3.04
594.55	3.36
594.887	3.51
595.224	3.47
595.561	3.3
595.899	3.17
596.236	3.37
596.573	3.1
596.91	3.24
597.247	3.36
597.584	3.29
597.921	3.34
598.258	3.34
598.594	3.24
598.931	3.29
599.268	3.12
599.604	3.21
599.941	3.17
600.277	3.15
600.614	3.21
600.95	3.11
601.287	3.26
601.623	3.37
601.959	3.25
602.296	2.92
602.632	3.32
602.968	3.34
603.304	3.22
603.64	3.32
603.976	3.19
604.312	3.54
604.648	3.17
604.984	2.99
605.319	3.26
605.655	3.05
605.991	3.09
606.326	3.22
606.662	3.09
606.998	3.27
607.333	3.24
607.668	3.28
608.004	3.27
608.339	3.14
608.674	3.32
609.01	3.18
609.345	3.33
609.68	3.66
610.015	3.23
610.35	3.15
610.685	3.33
611.02	3.22
611.355	3.31
611.689	3.29
612.024	3.18
612.359	3.16
612.694	3.38
613.028	3.23
613.363	3.42
613.697	3.34
614.032	3.36
614.366	3.12
614.7	3.02
615.035	3.22
615.369	3.17
615.703	3.3
616.037	3.15
616.371	3.54
616.705	3.48
617.039	3.04
617.373	3.21
617.707	3.17
618.041	3.25
618.375	3.39
618.709	3.19
619.042	3.28
619.376	3.33
619.71	3.21
620.043	3.68
620.377	3.24
620.71	3.22
621.043	3.31
621.377	3.6
621.71	3.29
622.043	3.08
622.376	3.17
622.709	3.53
623.043	3.34
623.376	3.09
623.709	3.38
624.041	3.2
624.374	3.35
624.707	3.56
625.04	3.01
625.373	3.3
625.705	3.33
626.038	3.33
626.37	3.52
626.703	3.1
627.035	3.21
627.368	3.27
627.7	3.21
628.032	3.21
628.365	3.47
628.697	3.61
629.029	3.21
629.361	3.31
629.693	3.12
630.025	3.22
630.357	3.4
630.689	3.07
631.021	3.41
631.353	3.23
631.684	3.25
632.016	3.24
632.348	3.27
632.679	3.46
633.011	3.04
633.342	3.05
633.674	3.45
634.005	3.35
634.336	3.24
634.668	3.1
634.999	3.27
635.33	3.07
635.661	3.34
635.992	3.29
636.323	3.21
636.654	3.38
636.985	3.42
637.316	3.22
637.647	3.56
637.977	3.46
638.308	3.19
638.639	3.25
638.969	3.7
639.3	3.37
639.63	3.19
639.961	3.13
640.291	3.59
640.622	3.47
640.952	3.58
641.282	3.49
641.612	3.42
641.943	2.97
642.273	3.39
642.603	3.09
642.933	3.75
643.263	2.98
643.592	3.53
643.922	3.24
644.252	3.19
644.582	3.24
644.911	3.13
645.241	3.58
645.571	2.98
645.9	3.5
646.23	3.62
646.559	3.21
646.888	3.24
647.218	3.56
647.547	3.27
647.876	3.59
648.205	3.52
648.534	3.27
648.863	3.19
649.192	3.19
649.521	3.41
649.85	3.23
650.179	3.51
650.508	3.45
650.837	3.29
651.165	3.35
651.494	3.73
651.822	3.48
652.151	3.1
652.479	3.32
652.808	3.18
653.136	3.37
653.465	3.2
653.793	3.56
654.121	3.28
654.449	3.14
654.777	3.52
655.105	3.35
655.433	3.55
655.761	3.31
656.089	3.42
656.417	3.59
656.745	2.79
657.073	3.51
657.4	3.63
657.728	3.83
658.056	3.21
658.383	3.65
658.711	3.08
659.038	3.52
659.365	3.14
659.693	3.29
660.02	3.32
660.347	3.44
660.674	3.39
661.001	3.25
661.329	3.46
661.656	3.7
661.982	3.17
662.309	3.54
662.636	3.53
662.963	3.33
663.29	3.14
663.616	3.41
663.943	3.43
664.27	3.3
664.596	3.25
664.923	3.81
665.249	3.42
665.576	3.83
665.902	3.83
666.228	3.36
666.554	3.51
666.881	3.21
667.207	3.25
667.533	3.47
667.859	3.61
668.185	3.92
668.511	3.36
668.837	3.71
669.162	3.18
669.488	3.78
669.814	3.26
670.139	3.33
670.465	3.81
670.791	3.57
671.116	3.61
671.442	3.92
671.767	3.36
672.092	3.06
672.418	3.65
672.743	3.53
673.068	3.43
673.393	2.96
673.718	3.7
674.043	3.61
674.368	3.96
674.693	4.26
675.018	3.19
675.343	3.54
675.667	3.6
675.992	3.31
676.317	2.83
676.641	3.49
676.966	3
677.29	3.58
677.615	3.6
677.939	3.59
678.264	3.59
678.588	3.39
678.912	2.87
679.236	3.44
679.56	3.17
679.885	3.72
680.209	3.67
680.532	3.59
680.856	4.13
681.18	3.54
681.504	3.47
681.828	3.21
682.152	3.21
682.475	3.31
682.799	3.75
683.122	3.63
683.446	3.25
683.769	3.78
684.093	3.92
684.416	3.7
684.739	3.78
685.062	3.93
685.386	3.77
685.709	3.34
686.032	3.58
686.355	3.16
686.678	3.8
687.001	3.18
687.324	3.82
687.646	3.34
687.969	3.85
688.292	3.32
688.614	3.14
688.937	3.46
689.26	4.16
689.582	3.19
689.904	3.37
690.227	3.51
690.549	3.77
690.871	3.04
691.194	4.07
691.516	3.66
691.838	3.88
692.16	3.51
692.482	3.5
692.804	3.52
693.126	4.3
693.448	3.7
693.769	3.19
694.091	3.83
694.413	3.92
694.735	3.32
695.056	3.65
695.378	2.72
695.699	3.74
696.021	4.19
696.342	4.26
696.663	3.42
696.984	3.35
697.306	3.66
697.627	3.46
697.948	4.47
698.269	3.26
698.59	4.16
698.911	3.28
699.232	3.68
699.553	3.66
699.873	3.3
700.194	3.33
700.515	3.46
700.835	3.11
701.156	3.82
701.477	3.69
701.797	3.56
702.117	3.76
702.438	3.84
702.758	4.13
703.078	3.68
703.398	4.3
703.719	2.84
704.039	3.96
704.359	3.11
704.679	2.94
704.999	3.54
705.319	4.27
705.638	2.61
705.958	4.51
706.278	3.73
706.597	3.83
706.917	3.98
707.237	4.07
707.556	4.66
707.876	3.47
708.195	3.83
708.514	3.39
708.834	3.46
709.153	3.12
709.472	3.65
709.791	3.76
710.11	4.06
710.429	3.25
710.748	5.45
711.067	3.95
711.386	4.06
711.705	3.7
712.023	3.58
712.342	3.61
712.661	3.79
712.979	4.2
713.298	3.9
713.616	3.52
713.935	4.32
714.253	3.61
714.572	3.51
714.89	4.17
715.208	2.75
715.526	3.62
715.844	3.63
716.162	3.33
716.48	3.11
716.798	4.07
717.116	3.55
717.434	4.17
717.752	4.79
718.069	4.05
718.387	4.36
718.705	4.52
719.022	4.28
719.34	4.01
719.657	3.43
719.975	3.95
720.292	3.73
720.609	5.16
720.927	3.71
721.244	4.36
721.561	3.86
721.878	4.83
722.195	3.21
722.512	3.54
722.829	5.34
723.146	4.14
723.463	3.55
723.779	4.61
724.096	3.03
724.413	2.33
724.729	4.67
725.046	3.9
725.362	2.94
725.679	2.79
725.995	4.26
726.311	3.06
726.628	4.28
726.944	4.43
727.26	4.35
727.576	3.37
727.892	3.92
728.208	4.7
728.524	4.38
728.84	4.87
729.156	4.59
729.472	2.46
729.787	3.55
730.103	4.16
730.419	3.69
730.734	4.05
731.05	4.1
731.365	4.15
731.681	4.28
731.996	3.92
732.311	4.25
732.626	3.82
732.942	3.24
733.257	4.12
733.572	4.26
733.887	3.64
734.202	3.88
734.517	4.86
734.832	3.62
735.146	4.18
735.461	3.59
735.776	3.84
736.091	5.25
736.405	3.49
736.72	4.99
737.034	4.09
737.349	3.14
737.663	4.8
737.977	4.54
738.292	4.14
738.606	4.82
738.92	1.84
739.234	2.93
739.548	4.28
739.862	4.16
740.176	5.39
740.49	5.61
740.804	3.9
741.117	5.66
741.431	3.6
741.745	3.91
742.058	4.4
742.372	4.15
742.685	2.82
742.999	3.3
743.312	3.36
743.626	2.18
743.939	4.33
744.252	4.75
744.565	3.99
744.878	4.9
745.191	4.64
745.505	4.54
745.817	2.84
746.13	4.59
746.443	4.31
746.756	4.77
747.069	3.73
747.381	4.36
747.694	4.99
748.007	5.1
748.319	5.8
748.632	3.63
748.944	4.18
749.256	4.46
749.569	4.05
749.881	4.64
750.193	3.33
750.505	3.59
750.817	3.75
751.129	5.8
751.441	4.61
751.753	3.26
752.065	5.56
752.377	3.7
752.689	5.27
753	4.47
753.312	2.39
753.624	2.8
753.935	5.23
754.247	4.11
754.558	2.69
754.869	3.2
755.181	5.87
755.492	4.25
755.803	6.65
756.114	6.14
756.425	4.29
756.736	4.87
757.047	4.07
757.358	4.44
757.669	5.46
757.98	5.31
758.291	5.6
758.601	5.22
758.912	4.86
759.223	5.38
759.533	4.26
759.844	4.69
760.154	4.84
760.464	2.13
760.775	4.85
761.085	5.07
761.395	5.49
761.705	3.92
762.016	5.15
762.326	4.39
762.636	5.49
762.945	4.99
763.255	4.46
763.565	3.25
763.875	5.65
764.185	5.43
764.494	3.38
764.804	4.96
765.113	3.99
765.423	4.55
765.732	3.98
766.042	4.81
766.351	5.22
766.66	5.04
766.97	5.23
767.279	4.73
767.588	3.77
767.897	4.75
768.206	4.53
768.515	4.06
768.824	5.08
769.133	6.38
769.441	5.78
769.75	3.72
770.059	5.09
770.367	5.68
770.676	5.49
770.984	4.1
771.293	5.6
771.601	6.89
771.91	4.89
772.218	3.37
772.526	3.17
772.834	5.34
773.142	5.11
773.45	3.46
773.758	3.54
774.066	3.26
774.374	4.87
774.682	4.4
774.99	4.88
775.298	2.48
775.605	2.83
775.913	4.09
776.22	4.7
776.528	5.56
776.835	6.69
777.143	4.96
777.45	3.97
777.757	4.8
778.065	4.83
778.372	5.56
778.679	4.11
778.986	4.78
779.293	2.42
779.6	3.18
779.907	4.5
780.214	1.42
780.52	3.22
780.827	4.11
781.134	3.84
781.44	2.98
781.747	7.57
782.053	9.44
782.36	4.63
782.666	6.32
782.973	4.93
783.279	6.19
783.585	4.15
783.891	2.3
784.197	4.77
784.503	2.05
784.809	5.19
785.115	4.81
785.421	3.96
785.727	5.95
786.033	6.32
786.339	7.36
786.644	4.23
786.95	4.07
787.255	3.96
787.561	5.06
787.866	4.84
788.172	3.73
788.477	5.34
788.782	1.55
789.088	5.06
789.393	0.52
789.698	2.94
790.003	3.01
790.308	3.33
790.613	6.71
790.918	4.57
791.223	2.91
791.527	3.67
791.832	4.57
792.137	3.12
792.441	4.15
792.746	5.13
793.05	7.76
793.355	6.26
793.659	7.47
793.963	7.5
794.268	4.64
794.572	1.71
794.876	6.02
795.18	4.72
795.484	7.5
795.788	4.42
796.092	5.56
796.396	6.94
796.7	5.91
797.004	2.6
797.307	2.89
797.611	2.46
797.915	3.89
798.218	3.72
798.522	6.41
798.825	2.21
799.128	4.82
799.432	3.28
799.735	8.99
800.038	3.26
800.341	1.48
800.644	2.18
800.947	3.15
801.25	4.29
801.553	2.86
801.856	1.02
802.159	2.42
802.462	6.71
802.764	6.33
803.067	9.95
803.37	0.22
803.672	5.19
803.975	6.83
804.277	1.88
804.579	4.66
804.882	2.99
805.184	4.2
805.486	3.97
805.788	-1.25
806.09	0.55
806.392	5.57
806.694	2.53
806.996	1.12
807.298	-0.98
807.6	4.45
807.902	2.96
808.203	2.16
808.505	-0.4
808.807	4.45
809.108	6.89
809.409	4.37
809.711	2.35
810.012	-0.41
810.313	-1.57
810.615	6.96
810.916	4.51
811.217	3.17
811.518	0.82
811.819	8.55
812.12	0.84
812.421	7.01
812.722	7.97
813.023	2.22
813.323	1.66
813.624	-0.3
813.925	6.06
814.225	9.29
814.526	2.69
814.826	7.68
815.126	9.99
815.427	3.62
815.727	-0.07
816.027	5.07
816.327	0.78
816.627	2.09
816.927	6.66
817.227	-3.03
817.527	1.51
817.827	1.92
818.127	3.68
818.427	6.11
818.727	7.98
819.026	2.77
819.326	6.16
819.625	2.15
819.925	6.14
820.224	3.51
820.524	8.57
820.823	1.17
821.122	2.1
821.421	7.47
821.72	6.07
822.019	7.72
822.318	6.71
822.617	3.46
822.916	1.13
823.215	4.59
823.514	5.7
823.813	6.97
824.111	5.89
824.41	6.75
824.709	6.11
825.007	6.02
825.306	5.96
825.604	6.07
825.902	6.38
826.201	5.99
826.499	5.85
826.797	5.67
827.095	6.21
827.393	6.1
827.691	5.33
827.989	8
828.287	7.15
828.585	5.76
828.882	6.19
829.18	6.4
829.478	5.77
829.775	6.76
830.073	5.71
830.37	6.31
830.668	7.32
830.965	6.55
831.263	6.77
831.56	6.59
831.857	7.88
832.154	6.3
832.451	1.57
832.748	4.67
833.045	6.49
833.342	6.98
833.639	3.98
833.936	8.48
834.232	2.16
834.529	-1.03
834.826	1.85
835.122	7.34
835.419	2.75
835.715	2.12
836.012	5.21
836.308	3.18
836.604	8.71
836.901	8.14
837.197	7.28
837.493	7.18
837.789	4.77
838.085	4.06
838.381	4.18
838.677	5.58
838.972	8.64
839.268	1.99
839.564	4.14
839.86	6.38
840.155	6.45
840.451	5.95
840.746	-1.19
841.042	4.46
841.337	4.79
841.632	3.88
841.928	-1.09
842.223	5.7
842.518	5.63
842.813	4.47
843.108	2.83
843.403	-2.08
843.698	0.18
843.993	4.45
844.287	9.57
844.582	2.27
844.877	-0.25
845.171	-9.32
845.466	8.43
845.761	1.13
846.055	-0.76
846.349	-12.25
846.644	3.67
846.938	-5.21
847.232	4.5
847.526	15.86
847.82	-14.1
848.114	2.51
848.408	-17.06
848.702	6.31
848.996	10.15
849.29	15.61
849.584	-11.12
849.877	4.93
850.171	5.43
850.465	9.11
850.758	4.25
851.052	13.23
851.345	-14.28
851.638	7.63
851.932	0.03
852.225	5.68
852.518	5.29
852.811	-4.78
853.104	-11.91
853.397	-6.65
853.69	4.04
853.983	-7.1
854.276	-8.58
854.569	0.13
854.861	-3.03
855.154	10.73
855.447	-6.15
855.739	14
856.032	-6.56
856.324	14.74
856.616	-6.86
856.909	1.23
857.201	14.77
857.493	5.48
857.785	-5.44
858.077	-9.23
858.369	2.04
858.661	10.03
858.953	-8.21
859.245	-20.28
859.537	-11.45
859.829	11.27
860.12	0.72
860.412	8.14
860.703	-3.24
860.995	17.33
861.286	11.24
861.578	-0.89
861.869	13.81
862.16	15.28
862.452	3.81
862.743	-7.58
863.034	10.77
863.325	-16.66
863.616	-0.91
863.907	-29.84
864.198	-22.71
864.488	-1.66
864.779	2.59
865.07	0.57
865.36	-13.4
865.651	13.03
865.941	1.66
866.232	-19.61
866.522	14.78
866.813	12.26
867.103	-21.69
867.393	21.96
867.683	3.43
867.973	-4.22
868.263	-2.9
868.553	10.52
868.843	-29.15
869.133	14.58
869.423	5.14
869.713	7.83
870.002	21.81
870.292	-7.21
870.582	-2.07
870.871	-3.91
871.161	-14.91
871.45	13.61
871.739	15.49
872.029	-20.71
872.318	-15.24
872.607	-13.41
872.896	-9.88
873.185	11.64
873.474	13.32
873.763	2.35
874.052	20.2
874.341	24.55
874.63	-20.28
874.918	-18.86
875.207	-2.43
875.496	10.75
875.784	-23.11
876.073	-27.71
876.361	-37.63
876.649	17.3
876.938	3.7
877.226	17.3
877.514	22.3
877.802	9.67
878.09	-9.44
878.378	14.71
878.666	21.28
878.954	-4.09
879.242	10.22
879.53	4.16
879.817	-9.27
880.105	-8.06
880.392	-10.8
880.68	23.33
880.967	-4.76
881.255	12.44
881.542	13.55
881.83	-1.07
882.117	10.18
882.404	0.36
882.691	-16.09
882.978	7.72
883.265	7.73
883.552	21.27
883.839	7.39
884.126	1.24
884.413	0.77
884.699	3.58
884.986	6.7
885.273	6.31
885.559	6.31
885.846	6.31
