Data from 1610-5_forehead_Reflection__0__105.txt Node

Date: Fri Nov 11 16:56:12 CST 2022
User: ToomeyLab
Spectrometer: FLMS14357
Trigger mode: 0
Integration Time (sec): 1.000000E-2
Scans to average: 100
Electric dark correction enabled: true
Nonlinearity correction enabled: false
Boxcar width: 0
XAxis mode: Wavelengths
Number of Pixels in Spectrum: 2048
>>>>>Begin Spectral Data<<<<<
189.047	142.88
189.435	142.88
189.823	142.88
190.211	247.47
190.599	212
190.987	51.91
191.375	69.17
191.763	-521.58
192.151	256.65
192.538	179.4
192.926	-110.45
193.314	-9.26
193.702	-47.71
194.089	-44.9
194.477	23
194.864	943.94
195.252	81.62
195.639	150.97
196.027	-172.14
196.414	54.78
196.801	45.45
197.189	87.19
197.576	158.01
197.963	134.17
198.351	26.61
198.738	-144.08
199.125	36.68
199.512	13.83
199.899	30.76
200.286	22.36
200.673	34.47
201.06	-20.18
201.447	47.22
201.833	37.61
202.22	33.93
202.607	69.81
202.994	61.89
203.38	19.14
203.767	-1.62
204.154	21.18
204.54	35.81
204.927	9.03
205.313	5.13
205.699	35.28
206.086	36
206.472	15.82
206.858	-28.59
207.245	21.59
207.631	28.89
208.017	-9.08
208.403	2.95
208.789	-42.24
209.175	23.31
209.561	18.14
209.947	16.68
210.333	32.94
210.719	40.43
211.105	4.41
211.491	-143.42
211.876	44.67
212.262	-0.39
212.648	-9.62
213.034	61.66
213.419	3.15
213.805	12.5
214.19	-8.35
214.576	37.33
214.961	-0.51
215.346	-1.67
215.732	-1.98
216.117	30.62
216.502	-0.4
216.888	-3.27
217.273	18.57
217.658	-1.39
218.043	17.76
218.428	12.67
218.813	32.53
219.198	-23.86
219.583	-1.03
219.968	14.93
220.353	-20.35
220.738	-2.12
221.122	-6.88
221.507	6.58
221.892	24.94
222.276	11.05
222.661	12.79
223.046	19.01
223.43	9.55
223.815	-1.09
224.199	10.46
224.583	1.43
224.968	17.07
225.352	10.35
225.736	9.59
226.121	2.94
226.505	9.14
226.889	8.35
227.273	3.19
227.657	0.42
228.041	2.45
228.425	5.08
228.809	8.21
229.193	2.14
229.577	6.33
229.961	3.39
230.344	3.94
230.728	3.98
231.112	3.87
231.495	2.69
231.879	3.71
232.263	3.48
232.646	2.76
233.03	1.38
233.413	2.76
233.797	3.78
234.18	5.96
234.563	6.22
234.946	3.32
235.33	4.15
235.713	3.52
236.096	1.41
236.479	4.38
236.862	4.86
237.245	4.19
237.628	4.23
238.011	3.92
238.394	3.68
238.777	3.3
239.16	3.89
239.543	4.12
239.925	5.04
240.308	2.83
240.691	4.64
241.073	4.05
241.456	1.55
241.838	3.95
242.221	2.78
242.603	2.74
242.986	3.28
243.368	3.28
243.75	3.68
244.133	3.75
244.515	3.72
244.897	3.52
245.279	2.84
245.661	3.55
246.043	3.17
246.425	4.38
246.807	3.75
247.189	3.34
247.571	3.12
247.953	3.66
248.335	3.94
248.717	3.76
249.098	3.75
249.48	3.67
249.862	3.86
250.243	3.8
250.625	3.64
251.006	4.12
251.388	3.38
251.769	4.66
252.151	3.78
252.532	4.73
252.913	2.9
253.295	3.65
253.676	3.78
254.057	3.54
254.438	3.66
254.819	3.56
255.2	4.68
255.581	4.97
255.962	3.82
256.343	4.85
256.724	3.18
257.105	3.37
257.486	4.55
257.867	2.81
258.247	4.27
258.628	3.81
259.009	3.43
259.389	3.94
259.77	4.91
260.15	4.05
260.531	3.53
260.911	3.51
261.292	3.65
261.672	3.51
262.052	3.73
262.432	4.02
262.813	3.53
263.193	3.42
263.573	4.19
263.953	3.81
264.333	4.26
264.713	3.43
265.093	3.84
265.473	4.37
265.853	2.93
266.233	3.69
266.612	2.61
266.992	3.21
267.372	3.6
267.752	4.69
268.131	3.62
268.511	3.73
268.89	3.84
269.27	3.21
269.649	3.02
270.029	3.4
270.408	3.73
270.787	3.87
271.167	3.76
271.546	4.27
271.925	3.9
272.304	3.88
272.683	3.35
273.062	3.6
273.441	3.5
273.82	3.39
274.199	3.73
274.578	3.67
274.957	3.28
275.336	3.69
275.715	3.38
276.093	4.21
276.472	3.69
276.851	3.57
277.229	3.35
277.608	4.17
277.986	3.66
278.365	3.97
278.743	3.7
279.122	3.45
279.5	3.26
279.878	3.05
280.257	3.5
280.635	3.64
281.013	3.82
281.391	3.08
281.769	3.99
282.147	3.68
282.525	3.66
282.903	4
283.281	3.43
283.659	3.41
284.037	3.17
284.415	3.28
284.792	3.32
285.17	3.42
285.548	3.55
285.925	3.67
286.303	3.73
286.68	3.61
287.058	3.5
287.435	3.31
287.813	3.66
288.19	3.62
288.567	3.69
288.945	3.24
289.322	3.47
289.699	3.64
290.076	3.43
290.453	3.81
290.83	4.21
291.207	3.61
291.584	3.77
291.961	3.67
292.338	4.02
292.715	4.03
293.092	3.54
293.469	4.35
293.845	4.04
294.222	4.45
294.599	4.36
294.975	3.74
295.352	3.59
295.728	3.75
296.105	4.03
296.481	3.75
296.858	4.33
297.234	4.11
297.61	4.05
297.986	3.75
298.363	3.8
298.739	4.11
299.115	3.89
299.491	4.11
299.867	3.71
300.243	3.83
300.619	4.27
300.995	4.11
301.371	4.01
301.746	4.28
302.122	4.11
302.498	3.7
302.874	3.8
303.249	4.14
303.625	4.44
304	4.28
304.376	4.68
304.751	4.57
305.127	4.79
305.502	5.36
305.878	4.7
306.253	4.55
306.628	4.88
307.003	4.65
307.378	5.01
307.754	4.81
308.129	4.89
308.504	4.71
308.879	5.09
309.254	4.78
309.629	4.64
310.003	4.57
310.378	4.68
310.753	4.72
311.128	5.12
311.502	4.61
311.877	5.09
312.252	4.84
312.626	4.79
313.001	5.12
313.375	5.57
313.75	5.17
314.124	5.26
314.498	5.46
314.873	5.3
315.247	5.45
315.621	4.87
315.995	4.51
316.369	5.58
316.743	6
317.117	5.37
317.491	5.67
317.865	5.32
318.239	6.46
318.613	5.17
318.987	5.76
319.361	5.49
319.734	5.54
320.108	6.06
320.482	5.27
320.855	5.78
321.229	6.24
321.602	5.57
321.976	5.15
322.349	6.03
322.723	6.4
323.096	6.32
323.469	6.2
323.843	6.37
324.216	5.68
324.589	6.12
324.962	5.98
325.335	6.54
325.708	6.04
326.081	6.1
326.454	5.96
326.827	6.48
327.2	5.64
327.573	6.44
327.945	6.4
328.318	6.46
328.691	6.78
329.063	6.8
329.436	6.56
329.809	6.36
330.181	6.59
330.553	6.27
330.926	6.12
331.298	6.48
331.671	6.11
332.043	6.86
332.415	6.64
332.787	6.7
333.159	6.72
333.532	6.25
333.904	6.88
334.276	6.31
334.648	6.58
335.02	6.8
335.391	6.82
335.763	6.76
336.135	6.88
336.507	7.16
336.879	6.83
337.25	6.45
337.622	6.92
337.993	6.66
338.365	7.12
338.736	7.05
339.108	6.72
339.479	6.98
339.851	6.42
340.222	6.93
340.593	6.72
340.964	7.08
341.336	6.62
341.707	6.82
342.078	6.86
342.449	7.23
342.82	7.06
343.191	7.39
343.562	7.35
343.933	7.1
344.303	7.59
344.674	7.4
345.045	7
345.416	7.39
345.786	7.56
346.157	7.34
346.527	7.23
346.898	7.43
347.268	7.38
347.639	7.65
348.009	7.22
348.38	7.63
348.75	7.67
349.12	7.61
349.49	7.38
349.861	7.52
350.231	7.67
350.601	7.9
350.971	8.13
351.341	7.53
351.711	7.59
352.081	6.88
352.45	7.68
352.82	7.74
353.19	7.68
353.56	7.45
353.929	8.01
354.299	7.77
354.669	7.75
355.038	7.83
355.408	7.66
355.777	7.88
356.147	7.97
356.516	8.09
356.885	7.63
357.254	8
357.624	7.79
357.993	8.19
358.362	8.2
358.731	7.94
359.1	7.99
359.469	7.89
359.838	8.24
360.207	8.13
360.576	8.21
360.945	8.49
361.314	8.47
361.682	8.3
362.051	8.11
362.42	8.04
362.788	8.12
363.157	8.34
363.525	8.18
363.894	8.19
364.262	8.05
364.631	8.15
364.999	8.33
365.367	8.54
365.735	8.37
366.104	8.32
366.472	8.68
366.84	8.52
367.208	8.74
367.576	8.68
367.944	8.99
368.312	8.43
368.68	8.8
369.048	8.64
369.416	8.61
369.783	8.41
370.151	8.74
370.519	9.02
370.886	9.09
371.254	8.82
371.621	9.08
371.989	8.67
372.356	9.13
372.724	9.04
373.091	8.97
373.458	8.91
373.826	9.19
374.193	9.03
374.56	8.95
374.927	9.14
375.294	9.22
375.661	9.48
376.028	9.59
376.395	9.2
376.762	9.12
377.129	9.4
377.496	8.92
377.863	9.44
378.229	9.65
378.596	9.31
378.963	9.28
379.329	9.23
379.696	9.46
380.062	9.18
380.429	9.26
380.795	9.44
381.161	9.69
381.528	9.77
381.894	9.62
382.26	9.63
382.626	9.81
382.993	9.7
383.359	9.52
383.725	9.86
384.091	9.5
384.457	9.91
384.823	9.82
385.188	9.84
385.554	9.82
385.92	9.73
386.286	9.53
386.651	9.67
387.017	9.81
387.383	9.71
387.748	9.78
388.114	9.75
388.479	9.83
388.845	9.91
389.21	10.13
389.575	9.98
389.94	10.29
390.306	10.14
390.671	9.7
391.036	9.95
391.401	10.08
391.766	10.07
392.131	9.76
392.496	10.07
392.861	10.13
393.226	10
393.591	9.98
393.956	10.15
394.32	10.23
394.685	10.3
395.05	10.35
395.414	10.34
395.779	9.91
396.143	10.07
396.508	10.13
396.872	10.25
397.236	10.26
397.601	10.14
397.965	10.61
398.329	10.58
398.694	10.37
399.058	10.52
399.422	10.36
399.786	10.7
400.15	10.49
400.514	10.52
400.878	10.42
401.242	10.41
401.605	10.43
401.969	10.82
402.333	10.71
402.697	10.46
403.06	10.43
403.424	10.24
403.787	10.4
404.151	10.13
404.514	10.33
404.878	10.7
405.241	10.48
405.604	10.18
405.968	10.48
406.331	10.23
406.694	10.59
407.057	10.73
407.42	10.53
407.783	10.45
408.146	10.6
408.509	10.46
408.872	10.64
409.235	10.56
409.598	10.39
409.961	10.41
410.323	10.76
410.686	10.71
411.049	10.8
411.411	10.57
411.774	10.47
412.136	10.37
412.499	10.65
412.861	10.54
413.223	10.79
413.586	10.63
413.948	10.61
414.31	10.83
414.672	10.91
415.035	10.84
415.397	10.81
415.759	10.61
416.121	10.84
416.483	10.74
416.845	10.72
417.206	10.92
417.568	10.9
417.93	10.95
418.292	10.78
418.653	10.84
419.015	10.64
419.377	10.79
419.738	11
420.1	10.97
420.461	10.87
420.822	10.89
421.184	10.79
421.545	10.86
421.906	10.88
422.267	11
422.629	11
422.99	11.03
423.351	10.97
423.712	11.03
424.073	11.15
424.434	11.16
424.795	11.34
425.155	11.24
425.516	11.34
425.877	11.35
426.238	11.33
426.598	11.41
426.959	11.43
427.32	11.64
427.68	11.62
428.041	11.76
428.401	11.86
428.761	11.84
429.122	11.88
429.482	12.1
429.842	12.02
430.202	12.16
430.563	11.94
430.923	12.27
431.283	12.25
431.643	12.32
432.003	12.68
432.363	12.64
432.722	12.45
433.082	12.55
433.442	12.52
433.802	12.6
434.161	12.72
434.521	12.62
434.881	12.51
435.24	12.76
435.6	12.64
435.959	12.83
436.319	12.72
436.678	12.79
437.037	12.98
437.396	12.74
437.756	13.03
438.115	12.86
438.474	13.11
438.833	13.12
439.192	13.2
439.551	13.06
439.91	13.19
440.269	13.21
440.628	13.16
440.987	13.47
441.345	13.3
441.704	13.33
442.063	13.48
442.421	13.17
442.78	13.41
443.138	13.42
443.497	13.49
443.855	13.64
444.214	13.62
444.572	13.88
444.93	13.73
445.288	13.86
445.647	13.96
446.005	13.99
446.363	13.79
446.721	13.8
447.079	13.85
447.437	13.85
447.795	13.85
448.153	13.86
448.51	13.91
448.868	13.95
449.226	14.03
449.584	14.12
449.941	14.2
450.299	14.31
450.656	14.35
451.014	14.44
451.371	14.3
451.729	14.52
452.086	14.52
452.443	14.98
452.801	14.78
453.158	14.67
453.515	14.79
453.872	14.88
454.229	14.8
454.586	14.86
454.943	14.93
455.3	14.89
455.657	14.9
456.014	15.03
456.371	15.29
456.727	15.18
457.084	15.31
457.441	15.19
457.797	15.4
458.154	15.4
458.51	15.38
458.867	15.63
459.223	15.45
459.58	15.56
459.936	15.54
460.292	15.38
460.648	15.51
461.005	15.52
461.361	15.45
461.717	15.31
462.073	15.46
462.429	15.53
462.785	15.67
463.141	15.8
463.496	15.88
463.852	15.92
464.208	16.03
464.564	16.18
464.919	15.92
465.275	16.04
465.631	16.33
465.986	16.27
466.342	16.41
466.697	16.5
467.052	16.51
467.408	16.3
467.763	16.36
468.118	16.65
468.473	16.55
468.829	16.65
469.184	16.75
469.539	16.72
469.894	16.69
470.249	16.68
470.603	16.64
470.958	16.86
471.313	17
471.668	16.97
472.023	17.03
472.377	17.22
472.732	17.24
473.086	17.08
473.441	17.23
473.795	17.32
474.15	17.15
474.504	17.31
474.859	17.33
475.213	17.38
475.567	17.58
475.921	17.48
476.275	17.51
476.63	17.54
476.984	17.38
477.338	17.69
477.692	17.57
478.045	17.57
478.399	17.62
478.753	17.67
479.107	17.58
479.461	17.81
479.814	17.86
480.168	17.77
480.521	17.92
480.875	17.89
481.228	17.93
481.582	18.02
481.935	18.1
482.289	18.07
482.642	18.05
482.995	18.06
483.348	17.88
483.701	18.01
484.055	17.77
484.408	17.76
484.761	17.55
485.114	17.35
485.466	17.17
485.819	17.21
486.172	17.32
486.525	17.48
486.878	17.53
487.23	17.71
487.583	17.94
487.936	18.04
488.288	18.08
488.641	17.91
488.993	17.77
489.345	17.71
489.698	17.82
490.05	17.81
490.402	17.96
490.754	18.18
491.107	18.28
491.459	18.49
491.811	18.63
492.163	18.7
492.515	18.68
492.866	18.53
493.218	18.24
493.57	18.25
493.922	18.45
494.274	18.58
494.625	18.75
494.977	19.01
495.328	19.11
495.68	19.33
496.031	19.3
496.383	19.48
496.734	19.74
497.086	19.6
497.437	19.75
497.788	19.85
498.139	19.7
498.49	19.57
498.842	19.61
499.193	19.66
499.544	19.73
499.894	19.73
500.245	19.79
500.596	19.9
500.947	19.83
501.298	20.07
501.648	20.1
501.999	20.05
502.35	20.41
502.7	20.28
503.051	20.37
503.401	20.33
503.752	20.38
504.102	20.49
504.452	20.45
504.803	20.65
505.153	20.59
505.503	20.49
505.853	20.6
506.203	20.7
506.553	20.79
506.903	20.77
507.253	20.75
507.603	20.79
507.953	20.88
508.303	20.84
508.652	20.89
509.002	20.89
509.352	20.98
509.701	20.91
510.051	20.78
510.4	20.83
510.75	20.78
511.099	20.94
511.449	20.88
511.798	20.91
512.147	21.17
512.496	21.02
512.846	20.94
513.195	20.95
513.544	21.08
513.893	21.27
514.242	21.12
514.591	21.13
514.939	21.39
515.288	21.35
515.637	21.44
515.986	21.66
516.334	21.56
516.683	21.8
517.032	21.77
517.38	21.78
517.729	21.91
518.077	21.78
518.426	21.97
518.774	21.79
519.122	21.72
519.47	21.64
519.819	21.58
520.167	21.47
520.515	21.46
520.863	21.5
521.211	21.56
521.559	21.7
521.907	21.92
522.255	22.03
522.602	22.07
522.95	22.15
523.298	22.21
523.645	22.27
523.993	22.37
524.341	22.29
524.688	22.37
525.036	22.42
525.383	22.54
525.73	22.53
526.078	22.27
526.425	22.36
526.772	22.16
527.119	22.19
527.466	21.98
527.814	22.06
528.161	22.09
528.508	22.17
528.854	22.17
529.201	22.17
529.548	22.17
529.895	21.78
530.242	21.66
530.588	21.71
530.935	21.81
531.282	21.97
531.628	21.98
531.975	22.09
532.321	22.32
532.667	22.53
533.014	22.67
533.36	22.69
533.706	22.81
534.052	22.62
534.399	22.68
534.745	22.5
535.091	22.32
535.437	22.45
535.783	22.51
536.129	22.67
536.474	22.95
536.82	22.91
537.166	23.27
537.512	23.2
537.857	23.23
538.203	23.1
538.549	23.06
538.894	23.18
539.239	23.25
539.585	23.39
539.93	23.51
540.276	23.7
540.621	23.79
540.966	23.86
541.311	23.94
541.656	23.67
542.001	23.93
542.346	23.62
542.691	23.36
543.036	23.12
543.381	23.15
543.726	23.23
544.071	23.32
544.415	23.39
544.76	23.68
545.105	23.76
545.449	23.86
545.794	23.97
546.138	24.02
546.483	24.3
546.827	24.39
547.171	24.36
547.516	24.13
547.86	24.26
548.204	24.38
548.548	24.25
548.892	24.41
549.236	24.51
549.58	24.65
549.924	24.74
550.268	25.1
550.612	25.09
550.956	24.94
551.3	25.33
551.643	25.25
551.987	25.45
552.33	25.34
552.674	25.5
553.017	25.6
553.361	25.52
553.704	25.62
554.048	25.39
554.391	25.52
554.734	25.24
555.077	25.51
555.42	25.48
555.764	25.76
556.107	25.71
556.45	25.75
556.793	25.96
557.135	25.87
557.478	25.94
557.821	26.26
558.164	25.95
558.507	26.25
558.849	26.25
559.192	26.19
559.534	26.36
559.877	26.42
560.219	26.25
560.562	26.58
560.904	26.39
561.246	26.49
561.589	26.55
561.931	26.52
562.273	26.47
562.615	26.53
562.957	26.71
563.299	26.76
563.641	26.59
563.983	26.63
564.325	26.71
564.667	27.05
565.008	26.78
565.35	26.93
565.692	26.85
566.033	27.07
566.375	27.2
566.716	26.86
567.058	26.98
567.399	26.94
567.741	26.9
568.082	26.83
568.423	27.07
568.764	26.98
569.105	27.01
569.447	27.06
569.788	27.06
570.129	27.47
570.47	27.16
570.811	27.37
571.151	27.36
571.492	27.6
571.833	27.63
572.174	27.53
572.514	27.4
572.855	27.54
573.195	27.66
573.536	27.5
573.876	27.72
574.217	27.4
574.557	27.5
574.898	27.73
575.238	27.66
575.578	27.58
575.918	27.74
576.258	27.96
576.598	28.14
576.938	28
577.278	28.02
577.618	28.13
577.958	28.25
578.298	28.39
578.638	28.41
578.977	28.37
579.317	28.56
579.657	28.5
579.996	28.67
580.336	28.89
580.675	28.73
581.014	28.95
581.354	28.87
581.693	28.92
582.032	29.16
582.372	28.84
582.711	29.08
583.05	28.92
583.389	29.33
583.728	29.23
584.067	29.26
584.406	29.29
584.745	29.33
585.083	29.44
585.422	29.24
585.761	29.72
586.1	29.44
586.438	29.31
586.777	29.46
587.115	29.78
587.454	30.17
587.792	29.85
588.13	29.94
588.469	29.53
588.807	29.89
589.145	30.21
589.483	29.98
589.821	29.71
590.159	30.06
590.497	30.08
590.835	29.82
591.173	30.09
591.511	30.21
591.849	30.15
592.187	30.29
592.524	30.25
592.862	30.34
593.2	30.69
593.537	30.39
593.875	30.32
594.212	30.56
594.55	30.66
594.887	30.46
595.224	30.59
595.561	30.49
595.899	30.58
596.236	30.59
596.573	30.61
596.91	30.84
597.247	30.61
597.584	30.66
597.921	30.71
598.258	30.75
598.594	30.5
598.931	30.67
599.268	30.35
599.604	30.81
599.941	30.76
600.277	30.73
600.614	31
600.95	31.06
601.287	31.48
601.623	31.35
601.959	31.21
602.296	31.29
602.632	31.51
602.968	31.67
603.304	31.84
603.64	31.35
603.976	31.71
604.312	31.63
604.648	31.31
604.984	31.64
605.319	31.44
605.655	31.56
605.991	31.56
606.326	31.48
606.662	31.39
606.998	31.55
607.333	31.77
607.668	31.7
608.004	32.17
608.339	31.98
608.674	32.44
609.01	32.23
609.345	32.54
609.68	32.51
610.015	32.6
610.35	32.37
610.685	32.41
611.02	32.16
611.355	32.07
611.689	32.04
612.024	32.21
612.359	32.31
612.694	32.45
613.028	32.29
613.363	32.65
613.697	32.8
614.032	33.02
614.366	32.98
614.7	33.02
615.035	33.22
615.369	33.28
615.703	33.08
616.037	33.33
616.371	33.14
616.705	33.49
617.039	33.42
617.373	33.79
617.707	33.54
618.041	33.11
618.375	33.41
618.709	33.64
619.042	33.9
619.376	33.9
619.71	33.6
620.043	33.79
620.377	34.07
620.71	33.88
621.043	33.56
621.377	33.84
621.71	33.94
622.043	33.87
622.376	33.83
622.709	34.33
623.043	33.9
623.376	33.85
623.709	34.33
624.041	34.29
624.374	34.4
624.707	34.13
625.04	34.2
625.373	34.43
625.705	34.25
626.038	34.76
626.37	34.35
626.703	34.45
627.035	34.59
627.368	34.54
627.7	34.38
628.032	34.65
628.365	34.7
628.697	34.52
629.029	34.49
629.361	34.3
629.693	34.53
630.025	34.42
630.357	34.86
630.689	34.9
631.021	34.87
631.353	34.55
631.684	35.16
632.016	35.02
632.348	35.01
632.679	35.1
633.011	35.59
633.342	35.14
633.674	35.34
634.005	35.37
634.336	35.19
634.668	35.6
634.999	35.61
635.33	35.48
635.661	35.89
635.992	35.77
636.323	35.84
636.654	35.94
636.985	35.93
637.316	35.83
637.647	35.78
637.977	35.84
638.308	35.57
638.639	36.24
638.969	35.96
639.3	36.33
639.63	36.2
639.961	36.01
640.291	35.94
640.622	36.07
640.952	36.31
641.282	36.62
641.612	36.52
641.943	36.86
642.273	36.72
642.603	36.41
642.933	36.84
643.263	36.47
643.592	36.51
643.922	36.85
644.252	36.99
644.582	36.68
644.911	36.49
645.241	37.04
645.571	37.08
645.9	37.13
646.23	37.03
646.559	37.2
646.888	37.32
647.218	36.7
647.547	36.97
647.876	37.44
648.205	37.09
648.534	37.49
648.863	37.07
649.192	37.6
649.521	37.16
649.85	37.39
650.179	37.35
650.508	37.7
650.837	37.81
651.165	38.19
651.494	37.7
651.822	37.35
652.151	37.97
652.479	38.07
652.808	37.54
653.136	37.62
653.465	38.22
653.793	38.01
654.121	38.18
654.449	38.26
654.777	38.14
655.105	38.18
655.433	38.08
655.761	38.4
656.089	38.28
656.417	38.57
656.745	38.59
657.073	38.06
657.4	37.91
657.728	38.21
658.056	38.2
658.383	38.71
658.711	38.68
659.038	38.28
659.365	38.17
659.693	38.97
660.02	38.5
660.347	38.3
660.674	38.63
661.001	38.8
661.329	38.65
661.656	38.5
661.982	38.32
662.309	38.4
662.636	39.04
662.963	38.8
663.29	38.65
663.616	39.53
663.943	38.79
664.27	39.02
664.596	38.93
664.923	39.13
665.249	39.69
665.576	38.5
665.902	39.53
666.228	39.03
666.554	38.93
666.881	39.31
667.207	39.28
667.533	39.79
667.859	39.2
668.185	39.68
668.511	39.34
668.837	39.46
669.162	39.55
669.488	40.03
669.814	39.37
670.139	40.23
670.465	40.53
670.791	39.63
671.116	39.79
671.442	40.02
671.767	39.66
672.092	39.96
672.418	40.1
672.743	39.84
673.068	40.08
673.393	40.14
673.718	39.86
674.043	40.15
674.368	40.09
674.693	40.28
675.018	40.04
675.343	40.83
675.667	39.99
675.992	40.6
676.317	40.81
676.641	40.28
676.966	40.53
677.29	40.14
677.615	40.32
677.939	40.8
678.264	40.57
678.588	41.1
678.912	40.54
679.236	40.75
679.56	41.21
679.885	41.66
680.209	41.25
680.532	40.88
680.856	40.95
681.18	40.35
681.504	40.8
681.828	40.33
682.152	41.3
682.475	41.13
682.799	41.32
683.122	41.52
683.446	41.15
683.769	41.86
684.093	41.33
684.416	41.66
684.739	41.83
685.062	41.18
685.386	41.42
685.709	41.48
686.032	41.72
686.355	41.66
686.678	41.92
687.001	42.14
687.324	41.98
687.646	41.81
687.969	41.76
688.292	41.7
688.614	41.58
688.937	41.56
689.26	41.72
689.582	42.18
689.904	41.62
690.227	42.29
690.549	42.18
690.871	42.22
691.194	42.77
691.516	41.99
691.838	42.16
692.16	42.11
692.482	42.35
692.804	42.72
693.126	41.86
693.448	42.88
693.769	42.95
694.091	42.58
694.413	42.45
694.735	42.49
695.056	42.54
695.378	43.41
695.699	42.32
696.021	42.84
696.342	43.01
696.663	44
696.984	42.15
697.306	43.21
697.627	42.31
697.948	43.07
698.269	43.06
698.59	42.71
698.911	42.97
699.232	42.87
699.553	42.33
699.873	43.09
700.194	42.71
700.515	42.87
700.835	42.91
701.156	43.05
701.477	42.98
701.797	42.97
702.117	42.85
702.438	43.34
702.758	43.53
703.078	43.23
703.398	42.81
703.719	42.95
704.039	43.96
704.359	44.23
704.679	42.04
704.999	43.54
705.319	43.67
705.638	44.36
705.958	43
706.278	44.37
706.597	43.96
706.917	42.95
707.237	43.19
707.556	43.45
707.876	44.45
708.195	42.94
708.514	44.68
708.834	43.98
709.153	42.93
709.472	44.62
709.791	43.83
710.11	44.25
710.429	43.07
710.748	44.1
711.067	44.41
711.386	44.57
711.705	44.31
712.023	44.63
712.342	44.04
712.661	43.82
712.979	44.53
713.298	44.57
713.616	44.55
713.935	44.36
714.253	44.44
714.572	43.99
714.89	45.02
715.208	44.65
715.526	44.06
715.844	44.97
716.162	44.37
716.48	44.25
716.798	44.15
717.116	44.53
717.434	45.47
717.752	45.05
718.069	44.45
718.387	44.71
718.705	45
719.022	44.71
719.34	44.78
719.657	45.68
719.975	45.4
720.292	44.99
720.609	44.11
720.927	45.79
721.244	45.17
721.561	44.4
721.878	46.48
722.195	45.66
722.512	45.92
722.829	44.96
723.146	45.49
723.463	46.83
723.779	46.12
724.096	44.86
724.413	44.65
724.729	44.81
725.046	44.67
725.362	45.29
725.679	45.62
725.995	45.31
726.311	47.02
726.628	45.37
726.944	45.71
727.26	46.48
727.576	45.59
727.892	46.18
728.208	45.94
728.524	45.76
728.84	45.55
729.156	45
729.472	46.24
729.787	45.78
730.103	46.92
730.419	46.75
730.734	46.19
731.05	44.96
731.365	45.39
731.681	45.01
731.996	44.96
732.311	46.15
732.626	46.54
732.942	46.47
733.257	45.71
733.572	46.51
733.887	45.97
734.202	46.34
734.517	46.48
734.832	45.88
735.146	46.32
735.461	45.97
735.776	46.58
736.091	46.5
736.405	48.07
736.72	46.1
737.034	45.66
737.349	45.75
737.663	45.87
737.977	48.2
738.292	47.14
738.606	45.47
738.92	45.47
739.234	46.93
739.548	46.34
739.862	48.16
740.176	46.4
740.49	47.75
740.804	47.58
741.117	47.47
741.431	47
741.745	46.74
742.058	48.3
742.372	47.3
742.685	47.02
742.999	47.59
743.312	48.07
743.626	46.99
743.939	47.12
744.252	46.2
744.565	47.95
744.878	46.16
745.191	47.59
745.505	48.91
745.817	46.73
746.13	46.82
746.443	47.5
746.756	46.84
747.069	46.95
747.381	46.97
747.694	46.91
748.007	47.71
748.319	46.6
748.632	46.74
748.944	46.51
749.256	46.04
749.569	49.66
749.881	48.61
750.193	48.06
750.505	48.43
750.817	47.42
751.129	47.71
751.441	47.91
751.753	47.12
752.065	48.8
752.377	50.09
752.689	47.09
753	48.12
753.312	45.71
753.624	46.98
753.935	47.88
754.247	47.21
754.558	46.85
754.869	48.32
755.181	47
755.492	46.33
755.803	48.28
756.114	48.13
756.425	48.27
756.736	47.12
757.047	48.35
757.358	48.44
757.669	49.45
757.98	46.97
758.291	48.89
758.601	47.9
758.912	47.66
759.223	46.84
759.533	46.83
759.844	48.58
760.154	47.22
760.464	47.68
760.775	49.99
761.085	46.58
761.395	46.36
761.705	49.05
762.016	48.74
762.326	49.85
762.636	49.39
762.945	48.87
763.255	49.84
763.565	48.6
763.875	49.93
764.185	49.92
764.494	48.68
764.804	48.33
765.113	50.35
765.423	49.72
765.732	50.18
766.042	49.1
766.351	50.16
766.66	49.44
766.97	49.49
767.279	47.77
767.588	50.46
767.897	50.01
768.206	48.55
768.515	49.19
768.824	48.13
769.133	48.53
769.441	49.47
769.75	47.62
770.059	50.09
770.367	50.25
770.676	46.39
770.984	51.27
771.293	49.43
771.601	50.76
771.91	49.29
772.218	50.83
772.526	47.51
772.834	47.63
773.142	48.23
773.45	52.75
773.758	48.94
774.066	50.13
774.374	48.3
774.682	50.16
774.99	50.73
775.298	49.18
775.605	50.08
775.913	49.69
776.22	49.07
776.528	51.48
776.835	49.59
777.143	51.58
777.45	48.72
777.757	46.85
778.065	46.82
778.372	51.33
778.679	47.05
778.986	47.19
779.293	49.13
779.6	51.66
779.907	49.77
780.214	47.4
780.52	50.38
780.827	49.72
781.134	50.92
781.44	50.46
781.747	50.12
782.053	49.92
782.36	49.87
782.666	48.96
782.973	48.85
783.279	48.54
783.585	50.01
783.891	49.27
784.197	51.22
784.503	49.55
784.809	50.56
785.115	51.2
785.421	49.38
785.727	50.26
786.033	49.21
786.339	49.84
786.644	49.29
786.95	51.71
787.255	50.62
787.561	54.98
787.866	49.47
788.172	49.16
788.477	49.77
788.782	49.25
789.088	52.22
789.393	51.19
789.698	54.31
790.003	50.11
790.308	54.26
790.613	51.51
790.918	47.88
791.223	49.21
791.527	44.3
791.832	51.53
792.137	53.54
792.441	52.04
792.746	50.53
793.05	49.96
793.355	50.56
793.659	49.55
793.963	51.43
794.268	51.54
794.572	48.77
794.876	47.28
795.18	47.07
795.484	50.12
795.788	52.02
796.092	49.94
796.396	52.13
796.7	52.58
797.004	49.13
797.307	49.31
797.611	52.83
797.915	47.18
798.218	52.84
798.522	50.75
798.825	48.96
799.128	52.62
799.432	51.37
799.735	50.97
800.038	52.17
800.341	52.42
800.644	46.3
800.947	50.28
801.25	53.58
801.553	49.29
801.856	47.93
802.159	49.34
802.462	52.58
802.764	52.92
803.067	51.88
803.37	47.07
803.672	47.62
803.975	56.19
804.277	53.32
804.579	49.95
804.882	52.68
805.184	49.67
805.486	52.68
805.788	55.3
806.09	51.26
806.392	53.84
806.694	48.56
806.996	57.6
807.298	55.73
807.6	51.06
807.902	52.99
808.203	46.07
808.505	49.91
808.807	51.53
809.108	50.82
809.409	53.86
809.711	53.09
810.012	48.86
810.313	50.12
810.615	46.98
810.916	50.45
811.217	49.87
811.518	46.44
811.819	51.37
812.12	53.31
812.421	49.21
812.722	50.62
813.023	50.82
813.323	46.38
813.624	53.68
813.925	51.87
814.225	56.58
814.526	55.14
814.826	54.97
815.126	46.36
815.427	50.99
815.727	48.34
816.027	51.08
816.327	51.46
816.627	48.31
816.927	53.56
817.227	58.44
817.527	55.51
817.827	48.77
818.127	50.35
818.427	48.5
818.727	46.86
819.026	45.07
819.326	52.09
819.625	52.4
819.925	52.73
820.224	57.81
820.524	53.3
820.823	51.02
821.122	60.49
821.421	52.06
821.72	51.15
822.019	50.46
822.318	50.81
822.617	52.42
822.916	51.07
823.215	52.6
823.514	53.68
823.813	52.36
824.111	52.77
824.41	53.01
824.709	53.56
825.007	53.06
825.306	53.58
825.604	53.94
825.902	54.29
826.201	53.4
826.499	54.4
826.797	54.76
827.095	52.83
827.393	54.38
827.691	52.95
827.989	51.43
828.287	52.6
828.585	52.75
828.882	53.09
829.18	53.97
829.478	52.21
829.775	52.35
830.073	54.34
830.37	55.95
830.668	54.78
830.965	53.91
831.263	54.77
831.56	54.8
831.857	52.52
832.154	55.76
832.451	53.12
832.748	55.55
833.045	52.57
833.342	57.86
833.639	53.54
833.936	60.07
834.232	61.21
834.529	56.96
834.826	50.92
835.122	53.76
835.419	51.95
835.715	52.68
836.012	54.17
836.308	54.92
836.604	52.27
836.901	54.33
837.197	53.44
837.493	52.57
837.789	50.53
838.085	56.13
838.381	55.69
838.677	53.85
838.972	50.84
839.268	57.37
839.564	52.56
839.86	56.43
840.155	53.55
840.451	45.82
840.746	47.48
841.042	54.75
841.337	57.17
841.632	59.3
841.928	48.56
842.223	50
842.518	51.69
842.813	40.54
843.108	51.64
843.403	56.1
843.698	53.87
843.993	57.61
844.287	51.29
844.582	61.65
844.877	54.14
845.171	58.44
845.466	67.6
845.761	43.53
846.055	52.73
846.349	43.03
846.644	46.35
846.938	46.89
847.232	54.01
847.526	36.18
847.82	46.59
848.114	52.21
848.408	49.04
848.702	56.57
848.996	43.97
849.29	53.9
849.584	36.13
849.877	53
850.171	46.2
850.465	54.21
850.758	48.55
851.052	46.33
851.345	41.34
851.638	54.85
851.932	57.7
852.225	60.79
852.518	49.66
852.811	59.47
853.104	49.26
853.397	47.28
853.69	38.07
853.983	48.76
854.276	52.38
854.569	41.49
854.861	71.43
855.154	54.31
855.447	75.83
855.739	54.18
856.032	55.86
856.324	51.92
856.616	49.4
856.909	34.53
857.201	76.41
857.493	51.72
857.785	74.24
858.077	69.58
858.369	51.81
858.661	40.01
858.953	63.5
859.245	50.16
859.537	34.62
859.829	28
860.12	51.35
860.412	70.63
860.703	44.63
860.995	39.99
861.286	40.31
861.578	30.03
861.869	47.59
862.16	22.92
862.452	30.13
862.743	48
863.034	60.45
863.325	58.77
863.616	70.12
863.907	42.32
864.198	45.67
864.488	20.86
864.779	70.96
865.07	35.65
865.36	53.41
865.651	40.45
865.941	55.48
866.232	42.76
866.522	28.25
866.813	59.57
867.103	23.64
867.393	41.25
867.683	54.08
867.973	51.89
868.263	61.62
868.553	35.12
868.843	43.89
869.133	62.8
869.423	42.5
869.713	43.95
870.002	64.9
870.292	41.25
870.582	46.4
870.871	29.29
871.161	32.27
871.45	33.08
871.739	43.4
872.029	31.17
872.318	46.44
872.607	34.32
872.896	8.6
873.185	66.34
873.474	6.82
873.763	51.21
874.052	56.64
874.341	64.12
874.63	42.01
874.918	26.1
875.207	45.91
875.496	67.48
875.784	41.68
876.073	52.76
876.361	55.1
876.649	23.62
876.938	67.99
877.226	59.11
877.514	43.89
877.802	65.4
878.09	66.32
878.378	58.63
878.666	49.41
878.954	51.82
879.242	44.28
879.53	51.39
879.817	42.93
880.105	75.8
880.392	57.37
880.68	92.24
880.967	32.74
881.255	54.21
881.542	67.44
881.83	45.04
882.117	42.19
882.404	36.28
882.691	68.08
882.978	49.33
883.265	54.75
883.552	51.3
883.839	65.29
884.126	57.63
884.413	48.32
884.699	52.44
884.986	55.07
885.273	58.28
885.559	58.28
885.846	58.28
