Data from 1610-5_chest_Reflection__3__98.txt Node

Date: Fri Nov 11 16:54:02 CST 2022
User: ToomeyLab
Spectrometer: FLMS14357
Trigger mode: 0
Integration Time (sec): 1.000000E-2
Scans to average: 100
Electric dark correction enabled: true
Nonlinearity correction enabled: false
Boxcar width: 0
XAxis mode: Wavelengths
Number of Pixels in Spectrum: 2048
>>>>>Begin Spectral Data<<<<<
189.047	200.91
189.435	200.91
189.823	200.91
190.211	464.74
190.599	288.85
190.987	58.95
191.375	57.1
191.763	-438.97
192.151	301.61
192.538	-38.04
192.926	-179.09
193.314	-14.75
193.702	-142.6
194.089	56.98
194.477	14.63
194.864	794.93
195.252	204.64
195.639	69.87
196.027	-34.99
196.414	27.45
196.801	47.89
197.189	29.97
197.576	98.22
197.963	5.55
198.351	25.87
198.738	-85.94
199.125	23.61
199.512	14.94
199.899	-15.32
200.286	37.31
200.673	4.28
201.06	-111.65
201.447	25.69
201.833	31.13
202.22	50.03
202.607	11.6
202.994	10.21
203.38	19.78
203.767	4.51
204.154	-31.05
204.54	7.56
204.927	12.23
205.313	12.66
205.699	27.53
206.086	12.28
206.472	25.84
206.858	-11.42
207.245	-18.31
207.631	20.32
208.017	22.2
208.403	12.29
208.789	-22.79
209.175	-13.77
209.561	7
209.947	24.35
210.333	25.37
210.719	16.05
211.105	-8.55
211.491	-116.34
211.876	18.66
212.262	-28.14
212.648	-22.45
213.034	-11.23
213.419	-12.72
213.805	1.76
214.19	-76.58
214.576	1.02
214.961	-35.75
215.346	-42.02
215.732	-43.51
216.117	29.07
216.502	4.59
216.888	0.63
217.273	-12.81
217.658	-5.42
218.043	-17.57
218.428	-52.96
218.813	8.73
219.198	-13.69
219.583	32.84
219.968	15.62
220.353	-31.39
220.738	-12.88
221.122	-11.82
221.507	15.46
221.892	0.26
222.276	1.58
222.661	-0.45
223.046	13.52
223.43	7.04
223.815	-12.87
224.199	3.04
224.583	-4.69
224.968	6.86
225.352	-1.37
225.736	0.79
226.121	-0.3
226.505	5.18
226.889	0.56
227.273	2.83
227.657	-3.42
228.041	-0.49
228.425	4.95
228.809	3.75
229.193	-4.77
229.577	3.61
229.961	1.24
230.344	2.29
230.728	2.14
231.112	2.04
231.495	0.95
231.879	1.1
232.263	0.91
232.646	0.95
233.03	1.24
233.413	0.29
233.797	0.86
234.18	-0.08
234.563	2.46
234.946	-0.79
235.33	2.31
235.713	2.88
236.096	0.17
236.479	1.62
236.862	3.48
237.245	1.81
237.628	0.16
238.011	2.7
238.394	3.12
238.777	1.69
239.16	2.2
239.543	1.54
239.925	3.88
240.308	-0.34
240.691	-1.3
241.073	2.86
241.456	1.1
241.838	2.09
242.221	1.35
242.603	1.65
242.986	1.51
243.368	1.75
243.75	1.75
244.133	1.75
244.515	2.21
244.897	1.35
245.279	1.39
245.661	1.49
246.043	1.28
246.425	2.56
246.807	1.56
247.189	0.9
247.571	0.8
247.953	1.86
248.335	2.13
248.717	2.07
249.098	2.07
249.48	2.31
249.862	1.79
250.243	1.61
250.625	2.31
251.006	1.92
251.388	1.9
251.769	2.4
252.151	1.44
252.532	2.45
252.913	1.04
253.295	1.98
253.676	1.97
254.057	2.03
254.438	2.18
254.819	1.7
255.2	3.02
255.581	2.44
255.962	1.46
256.343	2.35
256.724	1.95
257.105	1.78
257.486	3.01
257.867	1.69
258.247	2.29
258.628	1.02
259.009	1.87
259.389	2.09
259.77	2.41
260.15	2.45
260.531	1.42
260.911	1.99
261.292	1.8
261.672	1.87
262.052	2.08
262.432	2.23
262.813	2.33
263.193	1.94
263.573	2.18
263.953	2.53
264.333	1.93
264.713	1.73
265.093	2.05
265.473	2.87
265.853	1.61
266.233	1.31
266.612	1.9
266.992	1.53
267.372	2
267.752	2.38
268.131	2.48
268.511	2.61
268.89	2.79
269.27	1.73
269.649	1.9
270.029	1.41
270.408	2.05
270.787	2.47
271.167	1.84
271.546	2.57
271.925	1.81
272.304	2.02
272.683	1.86
273.062	2.24
273.441	1.79
273.82	1.52
274.199	2.31
274.578	2.15
274.957	1.92
275.336	1.89
275.715	1.85
276.093	2.5
276.472	1.61
276.851	1.82
277.229	2.35
277.608	1.71
277.986	1.98
278.365	2.44
278.743	1.45
279.122	1.77
279.5	2.14
279.878	1.8
280.257	2.57
280.635	2.14
281.013	2.08
281.391	1.82
281.769	2.48
282.147	2.12
282.525	1.84
282.903	2.01
283.281	1.91
283.659	1.65
284.037	1.93
284.415	1.91
284.792	2.1
285.17	1.97
285.548	2.25
285.925	2.01
286.303	1.92
286.68	1.84
287.058	2.13
287.435	2.05
287.813	1.93
288.19	2.07
288.567	2.44
288.945	1.61
289.322	1.83
289.699	2
290.076	1.6
290.453	1.76
290.83	1.94
291.207	2.01
291.584	2.05
291.961	1.9
292.338	2.35
292.715	2.38
293.092	1.76
293.469	2.49
293.845	2.45
294.222	2.55
294.599	2.42
294.975	1.96
295.352	1.84
295.728	2.26
296.105	1.98
296.481	1.89
296.858	2
297.234	2.39
297.61	2.14
297.986	1.89
298.363	2.28
298.739	2.35
299.115	2.02
299.491	2.15
299.867	1.9
300.243	2.09
300.619	2.43
300.995	2.46
301.371	1.64
301.746	2.11
302.122	2.33
302.498	1.57
302.874	2.22
303.249	2.22
303.625	2.19
304	2.04
304.376	2.23
304.751	2.81
305.127	2.48
305.502	2.9
305.878	3.04
306.253	2.53
306.628	2.53
307.003	2.2
307.378	2.59
307.754	2.41
308.129	2.62
308.504	2.2
308.879	2.73
309.254	1.66
309.629	2.45
310.003	2.3
310.378	1.46
310.753	1.98
311.128	2.34
311.502	1.92
311.877	2.4
312.252	2.21
312.626	2.38
313.001	2.41
313.375	2.41
313.75	2.46
314.124	2.64
314.498	3.04
314.873	2.52
315.247	2.28
315.621	2.43
315.995	2.24
316.369	2.78
316.743	2.74
317.117	2.66
317.491	2.7
317.865	2.54
318.239	2.45
318.613	2.93
318.987	2.3
319.361	2.3
319.734	2.07
320.108	2.62
320.482	2.2
320.855	2.49
321.229	2.48
321.602	2.69
321.976	2.1
322.349	2.51
322.723	2.93
323.096	2.8
323.469	2.82
323.843	3.56
324.216	2.33
324.589	2.96
324.962	2.34
325.335	3.08
325.708	2.39
326.081	2.44
326.454	2.86
326.827	2.97
327.2	2.22
327.573	3.05
327.945	2.37
328.318	2.83
328.691	3.2
329.063	3.07
329.436	2.53
329.809	2.65
330.181	2.91
330.553	3.34
330.926	2.13
331.298	2.91
331.671	2.48
332.043	3.16
332.415	2.48
332.787	2.69
333.159	2.55
333.532	2.54
333.904	2.71
334.276	2.85
334.648	2.49
335.02	3.05
335.391	2.99
335.763	2.95
336.135	2.59
336.507	2.91
336.879	2.73
337.25	2.11
337.622	2.99
337.993	2.51
338.365	2.94
338.736	2.9
339.108	2.95
339.479	2.63
339.851	2.49
340.222	2.46
340.593	2.22
340.964	2.95
341.336	2.67
341.707	2.52
342.078	2.76
342.449	2.76
342.82	2.77
343.191	3.13
343.562	3.15
343.933	2.75
344.303	3.2
344.674	2.75
345.045	2.56
345.416	2.71
345.786	2.89
346.157	2.56
346.527	2.87
346.898	2.58
347.268	2.77
347.639	3.22
348.009	2.75
348.38	2.81
348.75	2.99
349.12	2.94
349.49	2.9
349.861	2.71
350.231	2.72
350.601	3.71
350.971	3.06
351.341	2.61
351.711	3
352.081	2.33
352.45	2.88
352.82	2.5
353.19	2.91
353.56	2.68
353.929	2.9
354.299	2.99
354.669	2.7
355.038	2.8
355.408	2.59
355.777	2.55
356.147	2.78
356.516	3.19
356.885	2.54
357.254	2.81
357.624	2.66
357.993	3.23
358.362	3.25
358.731	2.63
359.1	2.39
359.469	3.15
359.838	3.11
360.207	3.07
360.576	2.96
360.945	3.21
361.314	3.07
361.682	3.19
362.051	2.75
362.42	2.88
362.788	2.85
363.157	2.99
363.525	3.21
363.894	2.8
364.262	2.76
364.631	2.89
364.999	2.69
365.367	3.01
365.735	3.28
366.104	2.78
366.472	2.9
366.84	2.93
367.208	2.88
367.576	3.05
367.944	3.14
368.312	2.9
368.68	3.07
369.048	2.99
369.416	2.87
369.783	2.73
370.151	2.67
370.519	3.24
370.886	2.98
371.254	3.1
371.621	3
371.989	2.65
372.356	2.98
372.724	3.33
373.091	2.99
373.458	3.21
373.826	3.17
374.193	3.23
374.56	3
374.927	2.99
375.294	3.03
375.661	3.4
376.028	3.06
376.395	3.05
376.762	2.97
377.129	2.87
377.496	3.09
377.863	3.09
378.229	3.2
378.596	2.73
378.963	2.91
379.329	3.07
379.696	3.05
380.062	2.97
380.429	3.09
380.795	2.94
381.161	3.29
381.528	2.93
381.894	3.32
382.26	2.94
382.626	3.07
382.993	3.39
383.359	3.17
383.725	3.11
384.091	3.04
384.457	3.12
384.823	3.11
385.188	3.03
385.554	3.12
385.92	2.64
386.286	3.09
386.651	2.89
387.017	2.97
387.383	3.07
387.748	2.92
388.114	3.03
388.479	3.17
388.845	3.06
389.21	3.24
389.575	2.92
389.94	3.3
390.306	3.05
390.671	2.93
391.036	3.45
391.401	3.1
391.766	3.04
392.131	2.76
392.496	3.15
392.861	2.97
393.226	3.17
393.591	3.22
393.956	3.23
394.32	3.47
394.685	3.33
395.05	3.43
395.414	3.34
395.779	3.08
396.143	3.26
396.508	3.14
396.872	3.21
397.236	3.22
397.601	3.17
397.965	3.14
398.329	3.08
398.694	2.91
399.058	3.22
399.422	3.13
399.786	3.24
400.15	3.14
400.514	3.03
400.878	3.28
401.242	3.43
401.605	3.07
401.969	3.25
402.333	3.24
402.697	3.22
403.06	3.24
403.424	3.07
403.787	3.2
404.151	3.15
404.514	3.24
404.878	3.42
405.241	3.21
405.604	2.98
405.968	3.14
406.331	3.1
406.694	3.29
407.057	3.22
407.42	3.08
407.783	3.1
408.146	3.27
408.509	3.17
408.872	3.39
409.235	3.32
409.598	3.26
409.961	3.12
410.323	3.24
410.686	3.29
411.049	3.3
411.411	3.32
411.774	2.98
412.136	3.29
412.499	3.4
412.861	3.25
413.223	3.16
413.586	3.02
413.948	3.09
414.31	3.12
414.672	3.22
415.035	3.4
415.397	3.42
415.759	3.32
416.121	3.51
416.483	3.2
416.845	3.27
417.206	3.32
417.568	3.2
417.93	3.31
418.292	3.11
418.653	3.2
419.015	3.21
419.377	3.37
419.738	3.28
420.1	3.16
420.461	3.13
420.822	3.09
421.184	3.22
421.545	3.26
421.906	3.21
422.267	3.27
422.629	3.25
422.99	3.06
423.351	3.22
423.712	3.19
424.073	3.23
424.434	3.24
424.795	3.3
425.155	3.27
425.516	3.24
425.877	3.23
426.238	3.16
426.598	3.16
426.959	3.31
427.32	3.36
427.68	3.25
428.041	3.35
428.401	3.28
428.761	3.31
429.122	3.37
429.482	3.52
429.842	3.41
430.202	3.35
430.563	3.3
430.923	3.32
431.283	3.49
431.643	3.45
432.003	3.55
432.363	3.41
432.722	3.35
433.082	3.43
433.442	3.32
433.802	3.56
434.161	3.46
434.521	3.41
434.881	3.29
435.24	3.49
435.6	3.25
435.959	3.3
436.319	3.2
436.678	3.23
437.037	3.33
437.396	3.3
437.756	3.37
438.115	3.15
438.474	3.43
438.833	3.46
439.192	3.35
439.551	3.29
439.91	3.35
440.269	3.36
440.628	3.39
440.987	3.63
441.345	3.3
441.704	3.41
442.063	3.42
442.421	3.3
442.78	3.32
443.138	3.43
443.497	3.35
443.855	3.37
444.214	3.39
444.572	3.55
444.93	3.52
445.288	3.45
445.647	3.29
446.005	3.38
446.363	3.34
446.721	3.41
447.079	3.38
447.437	3.41
447.795	3.28
448.153	3.43
448.51	3.36
448.868	3.32
449.226	3.43
449.584	3.48
449.941	3.41
450.299	3.48
450.656	3.45
451.014	3.45
451.371	3.34
451.729	3.56
452.086	3.51
452.443	3.5
452.801	3.59
453.158	3.47
453.515	3.54
453.872	3.42
454.229	3.5
454.586	3.5
454.943	3.64
455.3	3.43
455.657	3.51
456.014	3.42
456.371	3.39
456.727	3.52
457.084	3.55
457.441	3.52
457.797	3.42
458.154	3.51
458.51	3.54
458.867	3.7
459.223	3.59
459.58	3.61
459.936	3.63
460.292	3.45
460.648	3.55
461.005	3.57
461.361	3.6
461.717	3.45
462.073	3.52
462.429	3.54
462.785	3.54
463.141	3.59
463.496	3.54
463.852	3.66
464.208	3.7
464.564	3.6
464.919	3.66
465.275	3.59
465.631	3.66
465.986	3.64
466.342	3.76
466.697	3.58
467.052	3.69
467.408	3.67
467.763	3.64
468.118	3.64
468.473	3.66
468.829	3.71
469.184	3.69
469.539	3.82
469.894	3.68
470.249	3.72
470.603	3.58
470.958	3.79
471.313	3.81
471.668	3.67
472.023	3.71
472.377	3.76
472.732	3.77
473.086	3.73
473.441	3.66
473.795	3.8
474.15	3.68
474.504	3.76
474.859	3.69
475.213	3.75
475.567	3.75
475.921	3.89
476.275	3.83
476.63	3.71
476.984	3.78
477.338	3.81
477.692	3.86
478.045	3.7
478.399	3.52
478.753	3.71
479.107	3.8
479.461	3.79
479.814	3.78
480.168	3.77
480.521	3.68
480.875	3.77
481.228	3.82
481.582	3.7
481.935	3.8
482.289	3.84
482.642	3.78
482.995	3.79
483.348	3.63
483.701	3.76
484.055	3.76
484.408	3.63
484.761	3.57
485.114	3.53
485.466	3.46
485.819	3.47
486.172	3.55
486.525	3.6
486.878	3.67
487.23	3.66
487.583	3.74
487.936	3.73
488.288	3.67
488.641	3.68
488.993	3.59
489.345	3.55
489.698	3.59
490.05	3.58
490.402	3.64
490.754	3.72
491.107	3.78
491.459	3.77
491.811	3.81
492.163	3.84
492.515	3.73
492.866	3.64
493.218	3.6
493.57	3.61
493.922	3.76
494.274	3.74
494.625	3.79
494.977	3.87
495.328	3.9
495.68	3.94
496.031	3.81
496.383	3.97
496.734	4.03
497.086	4.01
497.437	3.88
497.788	3.9
498.139	3.93
498.49	3.94
498.842	3.94
499.193	3.85
499.544	3.87
499.894	4.07
500.245	3.96
500.596	3.87
500.947	3.83
501.298	4.01
501.648	4.1
501.999	4.05
502.35	3.98
502.7	4.01
503.051	4.04
503.401	3.9
503.752	3.94
504.102	3.91
504.452	4.09
504.803	3.99
505.153	3.99
505.503	3.96
505.853	4.18
506.203	4.11
506.553	4.13
506.903	4.08
507.253	4.09
507.603	4.15
507.953	4.08
508.303	4.04
508.652	4.01
509.002	3.99
509.352	4.08
509.701	4.14
510.051	4.04
510.4	3.98
510.75	4.06
511.099	4.02
511.449	4.11
511.798	3.97
512.147	4.08
512.496	4.07
512.846	4.12
513.195	4.07
513.544	4.14
513.893	4.15
514.242	4.19
514.591	3.98
514.939	4.1
515.288	4.12
515.637	4.11
515.986	4.21
516.334	4.2
516.683	4.18
517.032	4.1
517.38	4.07
517.729	4.24
518.077	4.2
518.426	4.23
518.774	4.02
519.122	4.07
519.47	4
519.819	4.1
520.167	4.06
520.515	4.11
520.863	4.2
521.211	4.09
521.559	4.15
521.907	4.22
522.255	4.19
522.602	4.28
522.95	4.26
523.298	4.26
523.645	4.18
523.993	4.31
524.341	4.18
524.688	4.27
525.036	4.31
525.383	4.37
525.73	4.18
526.078	4.27
526.425	4.23
526.772	4.26
527.119	4.12
527.466	4.16
527.814	4.1
528.161	4.17
528.508	4.28
528.854	4.23
529.201	4.19
529.548	4.19
529.895	4.05
530.242	4.02
530.588	4.02
530.935	4.06
531.282	4.22
531.628	4.18
531.975	4.24
532.321	4.19
532.667	4.34
533.014	4.32
533.36	4.25
533.706	4.31
534.052	4.25
534.399	4.25
534.745	4.18
535.091	4.17
535.437	4.23
535.783	4.24
536.129	4.33
536.474	4.42
536.82	4.43
537.166	4.32
537.512	4.49
537.857	4.4
538.203	4.31
538.549	4.34
538.894	4.34
539.239	4.45
539.585	4.4
539.93	4.47
540.276	4.48
540.621	4.59
540.966	4.61
541.311	4.55
541.656	4.48
542.001	4.62
542.346	4.51
542.691	4.3
543.036	4.3
543.381	4.27
543.726	4.33
544.071	4.41
544.415	4.52
544.76	4.49
545.105	4.58
545.449	4.56
545.794	4.49
546.138	4.6
546.483	4.62
546.827	4.59
547.171	4.55
547.516	4.48
547.86	4.6
548.204	4.58
548.548	4.58
548.892	4.76
549.236	4.77
549.58	4.73
549.924	4.8
550.268	4.89
550.612	4.75
550.956	4.87
551.3	4.93
551.643	4.82
551.987	4.77
552.33	4.7
552.674	4.75
553.017	4.64
553.361	4.92
553.704	4.85
554.048	4.83
554.391	4.84
554.734	4.8
555.077	4.9
555.42	4.88
555.764	4.91
556.107	4.79
556.45	4.96
556.793	4.9
557.135	5
557.478	4.85
557.821	5.1
558.164	4.98
558.507	4.99
558.849	4.87
559.192	5.07
559.534	5.23
559.877	5.23
560.219	5.2
560.562	5.26
560.904	5.03
561.246	5.02
561.589	5.25
561.931	5.15
562.273	5.22
562.615	5.01
562.957	5.02
563.299	5.17
563.641	5.13
563.983	5.11
564.325	5.13
564.667	5.25
565.008	5.04
565.35	5.32
565.692	5.02
566.033	5.2
566.375	5.04
566.716	5.22
567.058	5.27
567.399	5.24
567.741	5.36
568.082	5.25
568.423	5.36
568.764	5.26
569.105	5.33
569.447	5.21
569.788	5.27
570.129	5.13
570.47	5.12
570.811	5.28
571.151	5.5
571.492	5.3
571.833	5.47
572.174	5.43
572.514	5.43
572.855	5.34
573.195	5.44
573.536	5.3
573.876	5.41
574.217	5.29
574.557	5.38
574.898	5.47
575.238	5.61
575.578	5.51
575.918	5.38
576.258	5.57
576.598	5.61
576.938	5.51
577.278	5.74
577.618	5.76
577.958	5.55
578.298	5.77
578.638	5.61
578.977	5.64
579.317	5.7
579.657	5.77
579.996	5.61
580.336	5.47
580.675	5.66
581.014	5.68
581.354	5.7
581.693	5.68
582.032	5.85
582.372	6.03
582.711	5.91
583.05	5.92
583.389	5.91
583.728	6.01
584.067	5.96
584.406	5.75
584.745	5.91
585.083	6.05
585.422	5.85
585.761	5.98
586.1	5.87
586.438	5.85
586.777	6.08
587.115	5.97
587.454	6
587.792	6
588.13	6.11
588.469	6.02
588.807	6.14
589.145	6.1
589.483	6.15
589.821	5.87
590.159	6.07
590.497	6.16
590.835	6.06
591.173	6.21
591.511	6.26
591.849	6.24
592.187	6.22
592.524	5.93
592.862	6.32
593.2	6.33
593.537	6.09
593.875	6.35
594.212	6.43
594.55	6.43
594.887	6.24
595.224	6.29
595.561	6.36
595.899	6.24
596.236	6.39
596.573	6.24
596.91	6.24
597.247	6.2
597.584	6.22
597.921	6.27
598.258	6.36
598.594	6.3
598.931	6.3
599.268	6.32
599.604	6.53
599.941	6.43
600.277	6.28
600.614	6.54
600.95	6.66
601.287	6.57
601.623	6.59
601.959	6.56
602.296	6.5
602.632	6.54
602.968	6.52
603.304	6.76
603.64	6.47
603.976	6.57
604.312	6.54
604.648	6.38
604.984	6.8
605.319	6.68
605.655	6.73
605.991	6.62
606.326	6.62
606.662	6.42
606.998	6.63
607.333	6.6
607.668	6.81
608.004	6.75
608.339	7.05
608.674	6.83
609.01	6.76
609.345	6.86
609.68	7.03
610.015	6.93
610.35	6.93
610.685	6.97
611.02	7.14
611.355	6.71
611.689	6.87
612.024	7.03
612.359	6.84
612.694	7.01
613.028	7.12
613.363	7.17
613.697	7.13
614.032	7.19
614.366	6.95
614.7	7.13
615.035	7.2
615.369	7.31
615.703	7.15
616.037	7.09
616.371	7.19
616.705	7.2
617.039	6.89
617.373	7.49
617.707	7.4
618.041	7.29
618.375	7.64
618.709	7.27
619.042	7.45
619.376	7.42
619.71	7.19
620.043	7.51
620.377	7.63
620.71	7.33
621.043	7.32
621.377	7.68
621.71	7.63
622.043	7.43
622.376	7.51
622.709	7.4
623.043	7.45
623.376	7.63
623.709	7.69
624.041	7.35
624.374	7.47
624.707	7.47
625.04	7.83
625.373	7.89
625.705	7.47
626.038	7.6
626.37	7.45
626.703	7.77
627.035	7.65
627.368	7.86
627.7	7.7
628.032	7.83
628.365	8.06
628.697	7.92
629.029	7.72
629.361	7.82
629.693	7.96
630.025	7.59
630.357	7.88
630.689	7.9
631.021	7.79
631.353	7.75
631.684	8.2
632.016	7.99
632.348	7.98
632.679	8.16
633.011	8.06
633.342	7.9
633.674	8.07
634.005	8.13
634.336	8.04
634.668	7.78
634.999	8.01
635.33	7.9
635.661	8.3
635.992	8.24
636.323	8.35
636.654	8.27
636.985	8.47
637.316	8.03
637.647	8.14
637.977	8.35
638.308	8.17
638.639	8.58
638.969	8.73
639.3	7.92
639.63	8.27
639.961	8.31
640.291	8.58
640.622	8.39
640.952	8.3
641.282	8.73
641.612	8.47
641.943	8.77
642.273	8.96
642.603	8.63
642.933	8.39
643.263	8.45
643.592	8.92
643.922	8.55
644.252	8.9
644.582	8.45
644.911	8.57
645.241	9.12
645.571	9.11
645.9	8.31
646.23	8.5
646.559	8.78
646.888	9.38
647.218	8.54
647.547	8.61
647.876	8.5
648.205	8.89
648.534	9.11
648.863	8.86
649.192	9.19
649.521	8.82
649.85	9.18
650.179	8.75
650.508	9.11
650.837	9.05
651.165	9.31
651.494	9.43
651.822	9.35
652.151	9.09
652.479	9.2
652.808	9.62
653.136	9.03
653.465	9.26
653.793	9.23
654.121	9.43
654.449	9.47
654.777	9.43
655.105	9.42
655.433	8.91
655.761	9.31
656.089	9.54
656.417	9.71
656.745	9.55
657.073	9.18
657.4	9.28
657.728	9.43
658.056	9.27
658.383	10.06
658.711	9.79
659.038	9.47
659.365	9.39
659.693	9.41
660.02	9.87
660.347	9.92
660.674	9.39
661.001	9.72
661.329	9.89
661.656	9.94
661.982	9.96
662.309	9.9
662.636	9.8
662.963	9.91
663.29	10.2
663.616	10.37
663.943	10.31
664.27	9.91
664.596	10.07
664.923	10.22
665.249	10.19
665.576	9.93
665.902	10.16
666.228	9.77
666.554	10.02
666.881	9.85
667.207	9.76
667.533	10.31
667.859	10.09
668.185	9.83
668.511	10.24
668.837	10.76
669.162	9.94
669.488	10.33
669.814	10.13
670.139	10.56
670.465	10.38
670.791	9.6
671.116	10.38
671.442	10.01
671.767	10.48
672.092	10.21
672.418	10.52
672.743	10.17
673.068	10.49
673.393	9.99
673.718	10.16
674.043	10.75
674.368	10.59
674.693	11.15
675.018	10.43
675.343	10.6
675.667	10.67
675.992	10.38
676.317	10.66
676.641	11.05
676.966	10.37
677.29	10.31
677.615	11.06
677.939	10.9
678.264	10.46
678.588	11.21
678.912	11.07
679.236	10.69
679.56	11.61
679.885	11.82
680.209	10.73
680.532	10.59
680.856	11.39
681.18	10.64
681.504	11.3
681.828	10.77
682.152	11.55
682.475	11.09
682.799	10.74
683.122	11.25
683.446	11.19
683.769	11.25
684.093	11.06
684.416	11.14
684.739	11.17
685.062	11.3
685.386	11.02
685.709	11.34
686.032	11.3
686.355	11.1
686.678	11.62
687.001	12
687.324	11.2
687.646	11.8
687.969	11.45
688.292	11.95
688.614	11.31
688.937	10.97
689.26	11.95
689.582	11.79
689.904	11.04
690.227	11.96
690.549	11.43
690.871	11.49
691.194	11.76
691.516	11.55
691.838	11.77
692.16	12.14
692.482	11.36
692.804	11.84
693.126	11.24
693.448	12.23
693.769	11.95
694.091	12.32
694.413	12.1
694.735	11.81
695.056	11.58
695.378	11.27
695.699	11.69
696.021	12.64
696.342	12.09
696.663	12.35
696.984	11.54
697.306	12.02
697.627	12.06
697.948	12.64
698.269	12.5
698.59	11.9
698.911	12.02
699.232	12.73
699.553	11.85
699.873	11.83
700.194	12.15
700.515	11.89
700.835	12.31
701.156	11.99
701.477	12.5
701.797	12.69
702.117	12.21
702.438	12.07
702.758	12.84
703.078	12.14
703.398	11.17
703.719	12.35
704.039	12.37
704.359	12.28
704.679	11.44
704.999	13.12
705.319	12.91
705.638	12.74
705.958	11.59
706.278	13.31
706.597	12.76
706.917	11.55
707.237	12.33
707.556	13.52
707.876	13.14
708.195	12.19
708.514	12.8
708.834	13.62
709.153	12.39
709.472	13.01
709.791	13.18
710.11	13.65
710.429	11.6
710.748	13.29
711.067	12.59
711.386	13.68
711.705	13.55
712.023	13.2
712.342	12.8
712.661	12.5
712.979	13.54
713.298	13.7
713.616	12.59
713.935	13.99
714.253	13.81
714.572	13.47
714.89	13.74
715.208	13.8
715.526	12.79
715.844	13.49
716.162	13.34
716.48	12.98
716.798	12.59
717.116	14
717.434	13.67
717.752	13.94
718.069	13.87
718.387	13.32
718.705	13.37
719.022	13.81
719.34	13.57
719.657	13.89
719.975	13.6
720.292	14.02
720.609	13.88
720.927	14.38
721.244	14.78
721.561	13.53
721.878	15.01
722.195	14.47
722.512	13.87
722.829	14.08
723.146	14.57
723.463	14.91
723.779	14.79
724.096	13.87
724.413	13.78
724.729	13.73
725.046	14.22
725.362	14.35
725.679	13.58
725.995	14.35
726.311	14.76
726.628	13.93
726.944	15.2
727.26	14.98
727.576	15.32
727.892	13.61
728.208	13.4
728.524	15.09
728.84	15
729.156	14.5
729.472	14.58
729.787	14.73
730.103	14.07
730.419	14.98
730.734	14.2
731.05	15.05
731.365	13.3
731.681	13.9
731.996	13.95
732.311	14.79
732.626	14.98
732.942	15.05
733.257	15.37
733.572	16.34
733.887	14.39
734.202	16.03
734.517	14.18
734.832	14.51
735.146	14.36
735.461	14.25
735.776	14.88
736.091	15.31
736.405	15.53
736.72	13.64
737.034	15.05
737.349	16.04
737.663	14.64
737.977	15.82
738.292	14.24
738.606	16.06
738.92	14.79
739.234	14.49
739.548	15.34
739.862	14
740.176	14.81
740.49	15.98
740.804	15.02
741.117	16.17
741.431	16.21
741.745	14.32
742.058	16.9
742.372	17.47
742.685	15.87
742.999	15.13
743.312	17.14
743.626	17.24
743.939	14.98
744.252	14
744.565	16.48
744.878	15.96
745.191	14.94
745.505	15.17
745.817	16.22
746.13	16.58
746.443	15.5
746.756	14.92
747.069	15.85
747.381	15.73
747.694	16.56
748.007	15.51
748.319	17.4
748.632	17.11
748.944	17.22
749.256	15.64
749.569	15.63
749.881	15.47
750.193	16.3
750.505	15.12
750.817	15.61
751.129	15.88
751.441	17.8
751.753	16.83
752.065	18.06
752.377	17.23
752.689	16.52
753	18.03
753.312	15.5
753.624	15.39
753.935	17.47
754.247	15.31
754.558	14.73
754.869	15.65
755.181	16.76
755.492	15.18
755.803	17.82
756.114	18.06
756.425	17.81
756.736	15.41
757.047	14.82
757.358	16.75
757.669	18.61
757.98	16.31
758.291	16.06
758.601	17.73
758.912	17.61
759.223	16.46
759.533	17.85
759.844	18.35
760.154	16.22
760.464	18.17
760.775	18.4
761.085	15.45
761.395	16.3
761.705	17.3
762.016	17.3
762.326	18.11
762.636	18.5
762.945	17.8
763.255	16.38
763.565	16.71
763.875	18
764.185	16.96
764.494	16.85
764.804	17.22
765.113	19.05
765.423	18.46
765.732	17.57
766.042	18.08
766.351	17.87
766.66	18.22
766.97	17.95
767.279	16.95
767.588	19.57
767.897	18
768.206	18.42
768.515	18.89
768.824	17.65
769.133	17.86
769.441	18.79
769.75	16.46
770.059	17.67
770.367	18.17
770.676	17.4
770.984	17.95
771.293	16.21
771.601	17.43
771.91	19.42
772.218	20.89
772.526	19.62
772.834	15.65
773.142	15.19
773.45	17.91
773.758	19.59
774.066	16.92
774.374	15.99
774.682	20.14
774.99	16.18
775.298	20.28
775.605	14.51
775.913	20.88
776.22	18.51
776.528	19.15
776.835	19.14
777.143	17.72
777.45	17.96
777.757	18.87
778.065	18.3
778.372	18.55
778.679	18.45
778.986	15.12
779.293	17.52
779.6	23.21
779.907	17.58
780.214	16.78
780.52	21.64
780.827	18.15
781.134	19.6
781.44	15.81
781.747	21.09
782.053	21.22
782.36	18.64
782.666	21.05
782.973	17.96
783.279	14.99
783.585	19.28
783.891	16.36
784.197	18.61
784.503	16.7
784.809	19.53
785.115	21.32
785.421	20.96
785.727	16.89
786.033	21.35
786.339	17.8
786.644	17.65
786.95	17.89
787.255	22.98
787.561	20.6
787.866	17.29
788.172	14.86
788.477	17.58
788.782	15.87
789.088	21.79
789.393	20.3
789.698	18.46
790.003	19.27
790.308	21.06
790.613	20.27
790.918	18.37
791.223	19.76
791.527	14.76
791.832	17.88
792.137	20.95
792.441	20.48
792.746	20.21
793.05	20.03
793.355	20.59
793.659	23.78
793.963	16.8
794.268	21.44
794.572	20.4
794.876	18.61
795.18	19.63
795.484	22.87
795.788	20.88
796.092	19.91
796.396	23.89
796.7	22.24
797.004	20.04
797.307	18.93
797.611	19.37
797.915	18.01
798.218	24.58
798.522	17.56
798.825	17.72
799.128	21.67
799.432	21.52
799.735	20.2
800.038	20.43
800.341	21.86
800.644	18.1
800.947	21.35
801.25	25.87
801.553	17.73
801.856	20.92
802.159	21.27
802.462	20.29
802.764	19.78
803.067	21.05
803.37	14.87
803.672	17.53
803.975	25.94
804.277	17.78
804.579	15.89
804.882	26.44
805.184	19.01
805.486	21.19
805.788	20.31
806.09	23.02
806.392	17.06
806.694	18.95
806.996	24.49
807.298	19.77
807.6	19.1
807.902	22.8
808.203	22.42
808.505	14.42
808.807	20.04
809.108	19.8
809.409	22.01
809.711	24.73
810.012	20.56
810.313	21.23
810.615	22.14
810.916	18.52
811.217	20.1
811.518	15.61
811.819	21.74
812.12	21.62
812.421	24.2
812.722	18.1
813.023	20.67
813.323	19.87
813.624	19.8
813.925	23.95
814.225	24.13
814.526	24.42
814.826	24.45
815.126	20.62
815.427	27.2
815.727	16.84
816.027	19.77
816.327	20.11
816.627	20.83
816.927	21.45
817.227	17.18
817.527	18.29
817.827	16.79
818.127	22.54
818.427	23.57
818.727	18.48
819.026	21.71
819.326	15.98
819.625	17.65
819.925	18.53
820.224	24.63
820.524	17.59
820.823	25.08
821.122	25.69
821.421	22.52
821.72	23.26
822.019	20.24
822.318	23.94
822.617	16.92
822.916	20.23
823.215	21.7
823.514	21.51
823.813	26.33
824.111	22.25
824.41	21.38
824.709	21.39
825.007	22.89
825.306	23.21
825.604	22.73
825.902	23.09
826.201	23.21
826.499	22.76
826.797	24.13
827.095	23.9
827.393	23.84
827.691	24.55
827.989	23.49
828.287	23.74
828.585	23.46
828.882	25.03
829.18	21.75
829.478	25.14
829.775	24.7
830.073	24.09
830.37	24.69
830.668	23.78
830.965	23.01
831.263	25.85
831.56	23.06
831.857	20.19
832.154	22.6
832.451	23.81
832.748	19.32
833.045	22.17
833.342	27.39
833.639	22.85
833.936	22.53
834.232	30.19
834.529	22.09
834.826	22.14
835.122	26.1
835.419	24.55
835.715	23.17
836.012	24.81
836.308	27.38
836.604	20.12
836.901	24.58
837.197	25.22
837.493	23.06
837.789	22.13
838.085	26.12
838.381	27.83
838.677	26.25
838.972	21.47
839.268	26.4
839.564	27.66
839.86	21.22
840.155	16.75
840.451	19.48
840.746	20.99
841.042	27.09
841.337	24.07
841.632	28.11
841.928	32.61
842.223	22.27
842.518	23.52
842.813	12.41
843.108	23.71
843.403	25.53
843.698	17.51
843.993	24.25
844.287	30.68
844.582	24.11
844.877	29.96
845.171	34.05
845.466	28.99
845.761	30.76
846.055	26.78
846.349	14.44
846.644	24.59
846.938	9.34
847.232	27.35
847.526	21.44
847.82	28.16
848.114	31.58
848.408	24.14
848.702	16.28
848.996	26.87
849.29	12.61
849.584	31.71
849.877	22.44
850.171	28.14
850.465	26.07
850.758	2.59
851.052	20.14
851.345	43.35
851.638	30.17
851.932	18.53
852.225	26.03
852.518	32.85
852.811	-2.23
853.104	1.86
853.397	26.75
853.69	23.16
853.983	7.9
854.276	29.06
854.569	27.37
854.861	37.95
855.154	30.05
855.447	36.08
855.739	24.79
856.032	37.43
856.324	8.52
856.616	22.09
856.909	14.71
857.201	40.64
857.493	11.92
857.785	24.27
858.077	9.74
858.369	27.67
858.661	22.01
858.953	20.11
859.245	12.83
859.537	27.07
859.829	4.71
860.12	-7.29
860.412	18.62
860.703	20.49
860.995	40.57
861.286	-0.75
861.578	14.88
861.869	25.92
862.16	11.24
862.452	-2.95
862.743	12.42
863.034	57.64
863.325	42.51
863.616	32.54
863.907	19.05
864.198	28.4
864.488	-0.87
864.779	27.16
865.07	52.71
865.36	11.86
865.651	26.44
865.941	29.84
866.232	7.99
866.522	-0.5
866.813	29.48
867.103	34.12
867.393	13.97
867.683	15.62
867.973	15.95
868.263	33.86
868.553	4.27
868.843	10.44
869.133	7.86
869.423	31.01
869.713	21.29
870.002	5.76
870.292	18.67
870.582	40.36
870.871	43.6
871.161	17.23
871.45	27.54
871.739	-3.45
872.029	15.09
872.318	29.27
872.607	12.54
872.896	-9.08
873.185	19.82
873.474	15.19
873.763	49.89
874.052	21.95
874.341	55.73
874.63	4.53
874.918	-8.94
875.207	26.29
875.496	31.14
875.784	6.23
876.073	-3.97
876.361	-8.75
876.649	13.3
876.938	47.99
877.226	14.07
877.514	14.01
877.802	1.71
878.09	40.67
878.378	11.27
878.666	1.17
878.954	24.55
879.242	9.14
879.53	24.91
879.817	24.37
880.105	52.71
880.392	19.67
880.68	44.91
880.967	-15.67
881.255	20.43
881.542	4.18
881.83	32.28
882.117	15.76
882.404	33.09
882.691	36.31
882.978	11.41
883.265	27.1
883.552	15.88
883.839	35.15
884.126	16.49
884.413	28.72
884.699	24.95
884.986	29.72
885.273	27.03
885.559	27.03
885.846	27.03
