Data from 21-8_crown_Reflection__1__21.txt Node

Date: Thu Dec 15 16:36:48 CST 2022
User: ToomeyLab
Spectrometer: FLMS14357
Trigger mode: 0
Integration Time (sec): 1.000000E-2
Scans to average: 100
Electric dark correction enabled: true
Nonlinearity correction enabled: false
Boxcar width: 0
XAxis mode: Wavelengths
Number of Pixels in Spectrum: 2048
>>>>>Begin Spectral Data<<<<<
189.047	60.48
189.435	60.48
189.823	60.48
190.211	-115.45
190.599	22.35
190.987	17.22
191.375	286.21
191.763	63.24
192.151	11.14
192.538	44.01
192.926	67.17
193.314	-359.96
193.702	-275.43
194.089	-485.83
194.477	301.4
194.864	42
195.252	126.28
195.639	74.23
196.027	-75.16
196.414	-104.55
196.801	-26.99
197.189	48.89
197.576	-23.16
197.963	-324.61
198.351	8.22
198.738	-52.16
199.125	-26.42
199.512	32.67
199.899	-40.97
200.286	-8.13
200.673	16.42
201.06	-24.04
201.447	-23.53
201.833	10.85
202.22	23.43
202.607	-68.59
202.994	2.33
203.38	45.32
203.767	1.41
204.154	13.02
204.54	22.66
204.927	-23.39
205.313	4.81
205.699	1.26
206.086	32.92
206.472	22.41
206.858	5.59
207.245	-6.03
207.631	31.13
208.017	23.32
208.403	-23.28
208.789	-1.96
209.175	16.22
209.561	-28.83
209.947	-10.89
210.333	-10.73
210.719	23.73
211.105	15.23
211.491	28.95
211.876	11.46
212.262	6.12
212.648	43.17
213.034	10.29
213.419	0.83
213.805	-25.07
214.19	16.86
214.576	14.18
214.961	31.81
215.346	-2.74
215.732	12.44
216.117	14.87
216.502	-6.84
216.888	28.15
217.273	17.04
217.658	15.03
218.043	6.85
218.428	-2.18
218.813	37.22
219.198	-17.11
219.583	1.45
219.968	-5.32
220.353	-0.8
220.738	26.35
221.122	-4.6
221.507	4.45
221.892	-17.48
222.276	-20.8
222.661	-12.67
223.046	-9.43
223.43	12.65
223.815	1.42
224.199	3.13
224.583	-3.82
224.968	4.55
225.352	-5.53
225.736	11
226.121	1.93
226.505	3.22
226.889	10.22
227.273	-3.67
227.657	1.22
228.041	-0.13
228.425	-1.77
228.809	0.14
229.193	3.25
229.577	2.74
229.961	3.39
230.344	3.84
230.728	3.66
231.112	3.76
231.495	2.8
231.879	1.24
232.263	3.2
232.646	3.17
233.03	4.63
233.413	3.32
233.797	2.04
234.18	3.55
234.563	4.83
234.946	3.25
235.33	2.65
235.713	3.47
236.096	5.54
236.479	4.76
236.862	2.98
237.245	3.73
237.628	4.05
238.011	3.83
238.394	1.55
238.777	4.26
239.16	5.12
239.543	4.65
239.925	3.82
240.308	2.25
240.691	3.43
241.073	2.49
241.456	3.93
241.838	2.65
242.221	4.21
242.603	4.17
242.986	3.98
243.368	3.26
243.75	3.78
244.133	3.51
244.515	3.06
244.897	3.5
245.279	2.92
245.661	4.1
246.043	2.34
246.425	3.04
246.807	2.8
247.189	3.3
247.571	3.08
247.953	3.14
248.335	3.04
248.717	3.17
249.098	3.21
249.48	2.77
249.862	3.2
250.243	3.33
250.625	2.7
251.006	4.07
251.388	3.01
251.769	2.43
252.151	4.3
252.532	3.26
252.913	3.08
253.295	3.49
253.676	3.3
254.057	3.33
254.438	3.57
254.819	2.05
255.2	3.95
255.581	3.39
255.962	3.5
256.343	3.37
256.724	2.87
257.105	3.31
257.486	2.16
257.867	2.91
258.247	4.24
258.628	2.96
259.009	2.83
259.389	2.16
259.77	3.05
260.15	3.33
260.531	2.73
260.911	2.94
261.292	2.97
261.672	2.96
262.052	2.87
262.432	2.97
262.813	3.2
263.193	3.01
263.573	3.07
263.953	2.21
264.333	2.78
264.713	3.5
265.093	2.85
265.473	2.2
265.853	3.24
266.233	3.27
266.612	2.85
266.992	2.09
267.372	3
267.752	3.51
268.131	3.61
268.511	2.94
268.89	3.37
269.27	2.6
269.649	2.46
270.029	2.61
270.408	2.84
270.787	2.97
271.167	3.32
271.546	3.65
271.925	2.53
272.304	2.52
272.683	2.38
273.062	2.61
273.441	3.04
273.82	2.84
274.199	2.69
274.578	3.09
274.957	2.71
275.336	3.43
275.715	2.73
276.093	2.61
276.472	2.74
276.851	3.4
277.229	2.84
277.608	2.3
277.986	2.71
278.365	3.36
278.743	2.94
279.122	2.54
279.5	2.41
279.878	2.01
280.257	2.55
280.635	2.77
281.013	2.35
281.391	2.5
281.769	3.17
282.147	2.38
282.525	2.46
282.903	2.81
283.281	3.44
283.659	2.68
284.037	2.64
284.415	2.33
284.792	2.88
285.17	2.66
285.548	2.43
285.925	2.45
286.303	3.13
286.68	2.8
287.058	2.79
287.435	2.62
287.813	2.57
288.19	2.15
288.567	2.7
288.945	2.33
289.322	2.86
289.699	3.18
290.076	2.41
290.453	2.3
290.83	2.69
291.207	2.49
291.584	2.75
291.961	2.52
292.338	2.64
292.715	2.47
293.092	2.73
293.469	2.47
293.845	2.9
294.222	3.11
294.599	2.18
294.975	1.97
295.352	2.91
295.728	2.48
296.105	2.32
296.481	2.69
296.858	2.36
297.234	2.17
297.61	2.79
297.986	2.99
298.363	2.52
298.739	2.7
299.115	2.65
299.491	3.11
299.867	2.38
300.243	2.72
300.619	2.24
300.995	2.63
301.371	2.66
301.746	2.34
302.122	1.92
302.498	2.67
302.874	2.55
303.249	2.77
303.625	2.38
304	2.97
304.376	2.81
304.751	2.73
305.127	2.34
305.502	2.56
305.878	2.64
306.253	2.22
306.628	2.65
307.003	2.5
307.378	2.4
307.754	2.88
308.129	2.23
308.504	2.7
308.879	2.23
309.254	3.33
309.629	2.84
310.003	2.34
310.378	2.83
310.753	2.72
311.128	2.56
311.502	2.53
311.877	2.65
312.252	2.6
312.626	2.65
313.001	2.44
313.375	2.8
313.75	2.24
314.124	3.13
314.498	2.94
314.873	2.73
315.247	2.69
315.621	2.6
315.995	2.88
316.369	2.62
316.743	2.62
317.117	2.46
317.491	2.5
317.865	2.08
318.239	2.83
318.613	2.48
318.987	2.19
319.361	2.6
319.734	2.46
320.108	2.84
320.482	2.45
320.855	2.15
321.229	2.94
321.602	2.56
321.976	2.05
322.349	2.67
322.723	3.12
323.096	2.01
323.469	2.26
323.843	2
324.216	2.35
324.589	2.89
324.962	2.34
325.335	1.88
325.708	2.31
326.081	2.14
326.454	2.66
326.827	2.78
327.2	2.31
327.573	3.16
327.945	2.54
328.318	2.24
328.691	2.47
329.063	2.33
329.436	2.09
329.809	2.84
330.181	2.8
330.553	2.8
330.926	3.26
331.298	2.46
331.671	2.92
332.043	3.04
332.415	2.84
332.787	2.71
333.159	2.51
333.532	2.69
333.904	2.47
334.276	2.42
334.648	2.72
335.02	2.72
335.391	2.28
335.763	2.29
336.135	2.65
336.507	2.26
336.879	3.07
337.25	2.35
337.622	2.55
337.993	2.45
338.365	2.83
338.736	2.39
339.108	2.61
339.479	2.44
339.851	2.43
340.222	3.1
340.593	2.22
340.964	2.49
341.336	2.39
341.707	2.52
342.078	2.1
342.449	2.82
342.82	2.3
343.191	2.44
343.562	2.51
343.933	2.45
344.303	2.6
344.674	2.29
345.045	2.59
345.416	2.76
345.786	2.43
346.157	2.59
346.527	2.53
346.898	2.2
347.268	2.86
347.639	2.43
348.009	2.58
348.38	2.4
348.75	2.27
349.12	2.78
349.49	2.21
349.861	2.25
350.231	2.52
350.601	2.34
350.971	2.3
351.341	2.7
351.711	2.59
352.081	2.33
352.45	2.18
352.82	2.35
353.19	2.23
353.56	2.53
353.929	2.09
354.299	2.58
354.669	2.64
355.038	2.7
355.408	2.36
355.777	2.6
356.147	2.61
356.516	2.22
356.885	2.35
357.254	2.42
357.624	1.93
357.993	2.29
358.362	2.39
358.731	3.08
359.1	2.47
359.469	2.5
359.838	2.39
360.207	2.39
360.576	2.53
360.945	2.64
361.314	2.32
361.682	2.16
362.051	2.28
362.42	2.42
362.788	2.68
363.157	2.4
363.525	2.55
363.894	2.48
364.262	2.42
364.631	2.63
364.999	2.34
365.367	2.29
365.735	2.45
366.104	2.85
366.472	2.55
366.84	2.54
367.208	2.82
367.576	2.27
367.944	2.43
368.312	2.41
368.68	2.66
369.048	2.47
369.416	2.41
369.783	2.42
370.151	2.71
370.519	2.99
370.886	2.48
371.254	3.1
371.621	2.72
371.989	2.63
372.356	2.4
372.724	2.77
373.091	2.44
373.458	2.15
373.826	2.28
374.193	2.73
374.56	2.5
374.927	2.64
375.294	2.7
375.661	2.89
376.028	2.46
376.395	2.54
376.762	2.22
377.129	2.29
377.496	2.54
377.863	2.56
378.229	2.78
378.596	2.81
378.963	2.73
379.329	2.56
379.696	2.5
380.062	2.57
380.429	2.39
380.795	2.68
381.161	2.4
381.528	2.39
381.894	2.65
382.26	2.6
382.626	2.56
382.993	2.82
383.359	2.5
383.725	2.55
384.091	2.68
384.457	2.44
384.823	2.72
385.188	2.92
385.554	2.69
385.92	2.48
386.286	2.44
386.651	2.49
387.017	2.8
387.383	2.62
387.748	2.84
388.114	2.88
388.479	2.55
388.845	2.47
389.21	2.95
389.575	2.71
389.94	2.78
390.306	2.62
390.671	2.68
391.036	2.81
391.401	2.84
391.766	2.5
392.131	2.82
392.496	2.94
392.861	2.46
393.226	2.34
393.591	2.46
393.956	2.61
394.32	2.74
394.685	2.74
395.05	2.55
395.414	2.71
395.779	2.84
396.143	2.5
396.508	2.56
396.872	2.48
397.236	2.89
397.601	2.84
397.965	2.88
398.329	3
398.694	2.48
399.058	2.78
399.422	2.37
399.786	2.58
400.15	2.6
400.514	2.66
400.878	2.7
401.242	2.54
401.605	2.68
401.969	2.56
402.333	2.47
402.697	2.98
403.06	2.76
403.424	2.5
403.787	2.72
404.151	2.77
404.514	2.66
404.878	2.57
405.241	2.75
405.604	2.62
405.968	2.51
406.331	2.78
406.694	2.7
407.057	2.53
407.42	2.6
407.783	2.86
408.146	2.67
408.509	2.64
408.872	2.81
409.235	2.78
409.598	2.6
409.961	2.85
410.323	2.57
410.686	2.65
411.049	2.61
411.411	2.68
411.774	2.65
412.136	2.85
412.499	2.99
412.861	2.51
413.223	2.65
413.586	2.82
413.948	2.58
414.31	2.86
414.672	2.71
415.035	2.77
415.397	2.44
415.759	2.6
416.121	2.85
416.483	2.55
416.845	2.57
417.206	2.81
417.568	2.66
417.93	2.69
418.292	2.58
418.653	2.49
419.015	2.63
419.377	2.64
419.738	2.66
420.1	2.62
420.461	2.6
420.822	2.72
421.184	2.6
421.545	2.74
421.906	2.72
422.267	2.59
422.629	2.57
422.99	2.55
423.351	2.64
423.712	2.68
424.073	2.84
424.434	2.72
424.795	2.56
425.155	2.61
425.516	2.63
425.877	2.62
426.238	2.63
426.598	2.73
426.959	2.81
427.32	2.68
427.68	2.69
428.041	2.7
428.401	2.73
428.761	2.77
429.122	2.81
429.482	2.64
429.842	2.67
430.202	2.89
430.563	2.68
430.923	2.76
431.283	2.79
431.643	2.87
432.003	2.83
432.363	2.84
432.722	2.67
433.082	2.86
433.442	2.93
433.802	2.73
434.161	2.81
434.521	2.82
434.881	2.77
435.24	2.65
435.6	2.81
435.959	2.9
436.319	2.8
436.678	2.85
437.037	2.73
437.396	2.85
437.756	2.65
438.115	2.87
438.474	2.72
438.833	2.82
439.192	2.81
439.551	2.8
439.91	2.79
440.269	2.84
440.628	2.74
440.987	2.82
441.345	2.82
441.704	2.77
442.063	2.8
442.421	2.74
442.78	2.86
443.138	2.74
443.497	2.79
443.855	2.83
444.214	2.62
444.572	3
444.93	2.81
445.288	2.9
445.647	2.69
446.005	2.75
446.363	2.85
446.721	2.73
447.079	2.63
447.437	2.76
447.795	2.86
448.153	2.8
448.51	2.88
448.868	2.67
449.226	2.82
449.584	2.82
449.941	2.88
450.299	2.82
450.656	2.83
451.014	3.01
451.371	2.95
451.729	2.81
452.086	2.97
452.443	2.97
452.801	2.89
453.158	3
453.515	2.92
453.872	2.81
454.229	2.62
454.586	2.8
454.943	2.98
455.3	2.87
455.657	2.94
456.014	2.99
456.371	2.91
456.727	3
457.084	3.03
457.441	2.89
457.797	2.76
458.154	2.94
458.51	2.83
458.867	2.88
459.223	2.87
459.58	2.91
459.936	3.05
460.292	2.77
460.648	2.8
461.005	2.83
461.361	2.77
461.717	2.82
462.073	2.94
462.429	2.87
462.785	2.98
463.141	3.02
463.496	3.06
463.852	2.97
464.208	2.94
464.564	2.88
464.919	2.84
465.275	2.76
465.631	3.09
465.986	3.07
466.342	2.79
466.697	2.95
467.052	3.17
467.408	2.9
467.763	2.93
468.118	2.77
468.473	3
468.829	2.9
469.184	3.06
469.539	2.87
469.894	2.92
470.249	3.06
470.603	3.1
470.958	3.12
471.313	3.02
471.668	2.99
472.023	2.95
472.377	2.9
472.732	2.94
473.086	2.98
473.441	2.97
473.795	3.09
474.15	2.89
474.504	2.84
474.859	2.79
475.213	3.04
475.567	2.92
475.921	2.95
476.275	3.05
476.63	3.04
476.984	2.79
477.338	3.04
477.692	2.95
478.045	2.93
478.399	3.02
478.753	2.93
479.107	2.94
479.461	2.91
479.814	2.87
480.168	2.93
480.521	3.03
480.875	2.94
481.228	2.94
481.582	2.91
481.935	3.08
482.289	3.05
482.642	3.06
482.995	2.87
483.348	2.95
483.701	3.04
484.055	2.88
484.408	2.9
484.761	2.78
485.114	2.72
485.466	2.68
485.819	2.66
486.172	2.75
486.525	2.81
486.878	2.87
487.23	2.89
487.583	2.93
487.936	2.87
488.288	2.8
488.641	2.79
488.993	2.75
489.345	2.76
489.698	2.76
490.05	2.77
490.402	2.86
490.754	2.88
491.107	2.85
491.459	3
491.811	2.91
492.163	2.93
492.515	2.8
492.866	2.76
493.218	2.74
493.57	2.84
493.922	2.77
494.274	2.95
494.625	2.95
494.977	2.97
495.328	2.95
495.68	2.99
496.031	3.07
496.383	2.96
496.734	2.95
497.086	2.99
497.437	3.03
497.788	3.02
498.139	2.93
498.49	2.96
498.842	3
499.193	2.95
499.544	3
499.894	2.94
500.245	2.98
500.596	2.92
500.947	2.87
501.298	2.96
501.648	2.99
501.999	3.03
502.35	2.98
502.7	3.16
503.051	3.1
503.401	3.12
503.752	2.89
504.102	2.89
504.452	2.97
504.803	2.92
505.153	2.98
505.503	3.04
505.853	3.12
506.203	3.05
506.553	2.96
506.903	3.07
507.253	2.95
507.603	3.07
507.953	2.94
508.303	3.02
508.652	2.9
509.002	3.03
509.352	3.07
509.701	2.85
510.051	3.12
510.4	2.97
510.75	2.89
511.099	2.79
511.449	3.05
511.798	2.98
512.147	2.91
512.496	2.94
512.846	3.03
513.195	2.9
513.544	3.1
513.893	3.06
514.242	2.87
514.591	2.95
514.939	3.04
515.288	3.15
515.637	3.02
515.986	2.98
516.334	2.99
516.683	3
517.032	3.07
517.38	2.99
517.729	3
518.077	3.04
518.426	3.1
518.774	2.94
519.122	3.02
519.47	3.01
519.819	2.94
520.167	2.88
520.515	2.97
520.863	2.88
521.211	2.95
521.559	3.03
521.907	3.02
522.255	2.94
522.602	3.02
522.95	3.06
523.298	3.13
523.645	3.01
523.993	3.06
524.341	3.01
524.688	3.02
525.036	2.96
525.383	2.96
525.73	2.97
526.078	3.02
526.425	3.05
526.772	3
527.119	2.97
527.466	3.08
527.814	3
528.161	3.03
528.508	2.97
528.854	2.91
529.201	2.95
529.548	2.9
529.895	2.76
530.242	2.81
530.588	2.79
530.935	2.8
531.282	2.83
531.628	2.89
531.975	2.94
532.321	2.92
532.667	2.95
533.014	2.98
533.36	2.99
533.706	2.95
534.052	3.01
534.399	2.97
534.745	2.82
535.091	2.85
535.437	2.85
535.783	2.92
536.129	2.91
536.474	3.08
536.82	3.08
537.166	2.91
537.512	3.01
537.857	2.9
538.203	2.91
538.549	2.88
538.894	2.96
539.239	3.09
539.585	2.95
539.93	3.08
540.276	2.94
540.621	3.14
540.966	3.1
541.311	2.98
541.656	3
542.001	3.02
542.346	2.93
542.691	2.85
543.036	2.83
543.381	2.89
543.726	2.94
544.071	2.93
544.415	2.96
544.76	2.94
545.105	2.95
545.449	2.94
545.794	2.96
546.138	2.91
546.483	3.07
546.827	2.95
547.171	3
547.516	3.01
547.86	3
548.204	3.03
548.548	2.94
548.892	2.96
549.236	2.99
549.58	2.99
549.924	3.2
550.268	3.17
550.612	3.13
550.956	3.22
551.3	3.23
551.643	3.04
551.987	3.15
552.33	3.19
552.674	3.06
553.017	3.2
553.361	3.24
553.704	3.21
554.048	3.14
554.391	3.17
554.734	2.9
555.077	3.06
555.42	3.19
555.764	3.04
556.107	3.15
556.45	3.11
556.793	3.19
557.135	3.07
557.478	3.04
557.821	3.25
558.164	3.24
558.507	3.06
558.849	3.21
559.192	3.25
559.534	3.03
559.877	3.21
560.219	3.15
560.562	3.14
560.904	3.28
561.246	2.89
561.589	3.33
561.931	3.16
562.273	3.06
562.615	2.99
562.957	3.04
563.299	3.29
563.641	3.24
563.983	2.88
564.325	3.18
564.667	3.11
565.008	2.96
565.35	3.13
565.692	3.1
566.033	3.14
566.375	3.29
566.716	3
567.058	3.11
567.399	3.12
567.741	3.11
568.082	3.07
568.423	2.9
568.764	3.17
569.105	3.11
569.447	3.07
569.788	3.14
570.129	3.17
570.47	3.05
570.811	3.1
571.151	3.22
571.492	3.12
571.833	3.15
572.174	3.23
572.514	3.22
572.855	3.21
573.195	3.03
573.536	3.22
573.876	3.07
574.217	3.02
574.557	2.99
574.898	3.02
575.238	3.25
575.578	3.21
575.918	3.11
576.258	3.35
576.598	3.02
576.938	2.93
577.278	3.16
577.618	3.21
577.958	3.08
578.298	3.21
578.638	3.12
578.977	3.24
579.317	3.12
579.657	3.18
579.996	3.25
580.336	3.26
580.675	3.17
581.014	3.1
581.354	3.02
581.693	3.15
582.032	3.21
582.372	3.12
582.711	3.29
583.05	3.23
583.389	3.1
583.728	3.27
584.067	3.16
584.406	3.29
584.745	3.02
585.083	3.08
585.422	3.5
585.761	3.44
586.1	3.49
586.438	3.29
586.777	3.37
587.115	3.41
587.454	2.97
587.792	3.11
588.13	3.11
588.469	3.15
588.807	3.06
589.145	3.29
589.483	3
589.821	3.3
590.159	3.5
590.497	3.22
590.835	3.35
591.173	3.35
591.511	3.37
591.849	3.47
592.187	3.16
592.524	3.15
592.862	3.12
593.2	3.3
593.537	3
593.875	3.1
594.212	3.26
594.55	3.26
594.887	3.4
595.224	3.4
595.561	3.26
595.899	3.29
596.236	3.22
596.573	2.9
596.91	3.06
597.247	3.29
597.584	3.09
597.921	3.24
598.258	3.41
598.594	3.18
598.931	2.99
599.268	3.11
599.604	3.28
599.941	3.19
600.277	3.26
600.614	3.05
600.95	2.97
601.287	2.81
601.623	2.82
601.959	3.53
602.296	3.21
602.632	3.07
602.968	3.19
603.304	3.31
603.64	3.11
603.976	3.06
604.312	3.21
604.648	3.18
604.984	3.29
605.319	3.12
605.655	3.08
605.991	3.23
606.326	3.15
606.662	3.1
606.998	3.26
607.333	3.2
607.668	3.17
608.004	3.16
608.339	3.14
608.674	3.32
609.01	3.65
609.345	3.27
609.68	2.77
610.015	3.42
610.35	3.28
610.685	3.08
611.02	3.01
611.355	3.09
611.689	2.94
612.024	3.27
612.359	3.21
612.694	3.41
613.028	3.24
613.363	3.37
613.697	3.12
614.032	3.28
614.366	3.04
614.7	3.21
615.035	3.17
615.369	3.55
615.703	3.39
616.037	3.14
616.371	3.03
616.705	3.24
617.039	3.27
617.373	3.22
617.707	3.23
618.041	3.13
618.375	2.7
618.709	3.37
619.042	3.13
619.376	3.15
619.71	3.08
620.043	3.1
620.377	3.38
620.71	3.21
621.043	3.36
621.377	3.23
621.71	3.4
622.043	3.48
622.376	3.26
622.709	3.53
623.043	2.99
623.376	3.15
623.709	3.73
624.041	3.17
624.374	3.4
624.707	3.47
625.04	3.13
625.373	3.53
625.705	3.39
626.038	3.66
626.37	3.31
626.703	3.35
627.035	3.15
627.368	3.7
627.7	3.17
628.032	3.07
628.365	3.2
628.697	3.57
629.029	3.22
629.361	3.31
629.693	3.2
630.025	3.34
630.357	3.19
630.689	3.26
631.021	3.47
631.353	3.2
631.684	3.35
632.016	2.98
632.348	3.14
632.679	3.28
633.011	3.42
633.342	3.29
633.674	3.29
634.005	3.34
634.336	3.38
634.668	3.43
634.999	3.36
635.33	3.25
635.661	3.09
635.992	3.53
636.323	3.1
636.654	3.19
636.985	3.13
637.316	3.25
637.647	3.33
637.977	3.08
638.308	3.6
638.639	3.34
638.969	3.37
639.3	3.34
639.63	3.09
639.961	3.36
640.291	3.51
640.622	3.8
640.952	3.48
641.282	3.14
641.612	3.31
641.943	3.35
642.273	3.46
642.603	3.52
642.933	3.71
643.263	3.58
643.592	3.7
643.922	3.83
644.252	3.27
644.582	3.65
644.911	3.21
645.241	3.26
645.571	3.25
645.9	3.41
646.23	3.39
646.559	2.93
646.888	3.97
647.218	3.52
647.547	3.47
647.876	3.65
648.205	3.08
648.534	3.3
648.863	3.39
649.192	3.46
649.521	3.56
649.85	3.2
650.179	3.26
650.508	3.1
650.837	3.31
651.165	3.13
651.494	3.68
651.822	3.7
652.151	3.32
652.479	3.27
652.808	3.14
653.136	3.07
653.465	3.28
653.793	3.12
654.121	3.29
654.449	2.99
654.777	3.04
655.105	2.78
655.433	3.3
655.761	3.25
656.089	2.83
656.417	4.26
656.745	3.78
657.073	3.19
657.4	3.03
657.728	3.01
658.056	3.06
658.383	3.05
658.711	3.28
659.038	4.2
659.365	3.79
659.693	3.22
660.02	3.4
660.347	3.37
660.674	3.1
661.001	3.37
661.329	3.31
661.656	3.05
661.982	2.77
662.309	3.17
662.636	2.93
662.963	3.1
663.29	3.46
663.616	3.3
663.943	3.43
664.27	3.07
664.596	2.95
664.923	3.46
665.249	3.54
665.576	3.6
665.902	3.38
666.228	3.45
666.554	3.8
666.881	3.15
667.207	3.5
667.533	3.51
667.859	3.42
668.185	3.49
668.511	3.84
668.837	3.21
669.162	3.51
669.488	3.23
669.814	2.88
670.139	2.72
670.465	4.05
670.791	3.13
671.116	2.73
671.442	2.99
671.767	3.59
672.092	3.12
672.418	3.2
672.743	3.14
673.068	3.09
673.393	3.7
673.718	3.01
674.043	2.91
674.368	3.53
674.693	3.6
675.018	3.63
675.343	3.97
675.667	3.34
675.992	3.17
676.317	2.56
676.641	3.43
676.966	3.57
677.29	3.42
677.615	2.97
677.939	3.29
678.264	3.22
678.588	3.72
678.912	3.68
679.236	3.16
679.56	3.55
679.885	3.53
680.209	3.23
680.532	3.92
680.856	3.56
681.18	3.9
681.504	3.26
681.828	3.24
682.152	3.29
682.475	3.55
682.799	2.99
683.122	3.16
683.446	2.53
683.769	3.88
684.093	3.75
684.416	3.22
684.739	3.28
685.062	3.31
685.386	3.07
685.709	3.51
686.032	3.38
686.355	3.32
686.678	3.59
687.001	3.32
687.324	3.59
687.646	3.36
687.969	3.58
688.292	3.05
688.614	3.87
688.937	4.13
689.26	3.58
689.582	3.88
689.904	3.64
690.227	3.36
690.549	3.55
690.871	2.73
691.194	3.28
691.516	3.63
691.838	3.11
692.16	2.64
692.482	2.93
692.804	3.65
693.126	3.23
693.448	3.77
693.769	3.95
694.091	3.41
694.413	3.03
694.735	3.66
695.056	4.28
695.378	2.92
695.699	3.66
696.021	3.8
696.342	3.73
696.663	4.16
696.984	3.09
697.306	3.12
697.627	4.18
697.948	2.77
698.269	4.12
698.59	3.64
698.911	2.86
699.232	3.74
699.553	3.76
699.873	2.94
700.194	3.46
700.515	3.22
700.835	3.38
701.156	3.92
701.477	3.67
701.797	3.07
702.117	3.01
702.438	3.59
702.758	3.31
703.078	3.62
703.398	2.58
703.719	3.61
704.039	4.44
704.359	4.1
704.679	3.34
704.999	2.88
705.319	2.59
705.638	3.57
705.958	4.04
706.278	3.85
706.597	3.15
706.917	4.45
707.237	3.43
707.556	3.72
707.876	3.91
708.195	4.04
708.514	4.03
708.834	2.52
709.153	3.53
709.472	4.45
709.791	2.81
710.11	4.14
710.429	3.04
710.748	2.98
711.067	4
711.386	3.66
711.705	4.29
712.023	4.9
712.342	3.58
712.661	3.97
712.979	3.59
713.298	4.38
713.616	3.94
713.935	3.66
714.253	3.17
714.572	3.51
714.89	3.1
715.208	3.33
715.526	3.29
715.844	4.02
716.162	4.22
716.48	3.5
716.798	3.33
717.116	4.2
717.434	3.92
717.752	3.35
718.069	3.3
718.387	3.47
718.705	3.87
719.022	4.25
719.34	3.68
719.657	4
719.975	2.99
720.292	3.36
720.609	2.45
720.927	3.63
721.244	3.39
721.561	2.54
721.878	3.98
722.195	4.38
722.512	3.26
722.829	4.26
723.146	4.49
723.463	3.05
723.779	1.8
724.096	2.97
724.413	3.9
724.729	4.29
725.046	3.64
725.362	4.06
725.679	2.98
725.995	1.87
726.311	3.36
726.628	3.11
726.944	4.59
727.26	3.93
727.576	3.94
727.892	4.35
728.208	2.96
728.524	3.31
728.84	3.66
729.156	2.8
729.472	2.85
729.787	4.22
730.103	4.39
730.419	2.41
730.734	2.98
731.05	3.47
731.365	4.05
731.681	3.64
731.996	4.04
732.311	3.78
732.626	4.56
732.942	3.98
733.257	3.39
733.572	3.64
733.887	4.83
734.202	3.29
734.517	4.16
734.832	3.56
735.146	4.65
735.461	3.82
735.776	4.8
736.091	5.18
736.405	4.38
736.72	3.28
737.034	3.59
737.349	2.88
737.663	4.7
737.977	4.93
738.292	2.03
738.606	4.61
738.92	4.17
739.234	2.9
739.548	2.73
739.862	5.32
740.176	4.63
740.49	4.88
740.804	4.45
741.117	3.68
741.431	4.3
741.745	2.99
742.058	4.04
742.372	3.66
742.685	5.21
742.999	3.86
743.312	2.35
743.626	5.68
743.939	3.94
744.252	3.45
744.565	4.69
744.878	2.64
745.191	5.17
745.505	3.54
745.817	4.09
746.13	3.44
746.443	3.12
746.756	4.39
747.069	4.6
747.381	4.68
747.694	5.02
748.007	5.93
748.319	5.04
748.632	3.28
748.944	4.44
749.256	2.97
749.569	3.51
749.881	2.77
750.193	3.94
750.505	4.65
750.817	3.86
751.129	3.74
751.441	4.35
751.753	4.72
752.065	3.48
752.377	3.64
752.689	2
753	5.34
753.312	4.77
753.624	3.47
753.935	3.21
754.247	3.5
754.558	3.28
754.869	4.01
755.181	3.46
755.492	4.1
755.803	5.55
756.114	2.77
756.425	1.37
756.736	4.46
757.047	4.57
757.358	3.48
757.669	4.01
757.98	2.96
758.291	4.13
758.601	2.75
758.912	2
759.223	3.44
759.533	4.58
759.844	3.12
760.154	2.58
760.464	4.77
760.775	5.71
761.085	2.64
761.395	1.74
761.705	2.11
762.016	4.48
762.326	6.39
762.636	4.26
762.945	3.8
763.255	2.62
763.565	5.36
763.875	2.98
764.185	4.33
764.494	3.52
764.804	3.25
765.113	4.56
765.423	3.54
765.732	3.87
766.042	4.48
766.351	4.14
766.66	3.5
766.97	2.96
767.279	3.49
767.588	1.38
767.897	3.12
768.206	2.97
768.515	4.75
768.824	5
769.133	1.93
769.441	1.4
769.75	2.24
770.059	3.98
770.367	3.55
770.676	3.65
770.984	2.79
771.293	4.13
771.601	1.68
771.91	3.19
772.218	5.51
772.526	3.86
772.834	0.89
773.142	2.93
773.45	4.46
773.758	5.75
774.066	2.92
774.374	4.51
774.682	4.71
774.99	0.62
775.298	4.38
775.605	2.33
775.913	2.44
776.22	2.71
776.528	4.23
776.835	2.84
777.143	6.54
777.45	4.51
777.757	8.18
778.065	3.18
778.372	2.3
778.679	7.11
778.986	2.64
779.293	2.87
779.6	5.91
779.907	3.15
780.214	3.14
780.52	6.03
780.827	4.04
781.134	4.61
781.44	8.7
781.747	5.88
782.053	-0.1
782.36	0.97
782.666	2.15
782.973	3.77
783.279	4.36
783.585	6.09
783.891	3.08
784.197	5.41
784.503	1.02
784.809	6.56
785.115	6.37
785.421	5.79
785.727	7.32
786.033	8.22
786.339	5.38
786.644	0.37
786.95	3.22
787.255	1.55
787.561	2.32
787.866	6.74
788.172	6.99
788.477	4.93
788.782	3.15
789.088	-2.49
789.393	5.95
789.698	3.67
790.003	4.56
790.308	2.82
790.613	3.35
790.918	3.87
791.223	4.66
791.527	6.66
791.832	4.73
792.137	4.13
792.441	5.48
792.746	7.62
793.05	3.71
793.355	5.4
793.659	5.26
793.963	7.29
794.268	4.81
794.572	3.91
794.876	6.3
795.18	7.97
795.484	6.06
795.788	3.77
796.092	4.04
796.396	-0.37
796.7	3.82
797.004	-1.8
797.307	-1.17
797.611	2.65
797.915	1.84
798.218	4.67
798.522	2.8
798.825	10.36
799.128	7.43
799.432	2.07
799.735	9.75
800.038	8.97
800.341	6.44
800.644	-1.35
800.947	5.93
801.25	4.67
801.553	9.4
801.856	8.25
802.159	3.46
802.462	4.77
802.764	6.2
803.067	7.19
803.37	4.35
803.672	0.31
803.975	5.06
804.277	4.5
804.579	2.84
804.882	4.93
805.184	5.66
805.486	8.03
805.788	6.81
806.09	-1.05
806.392	8.69
806.694	5.25
806.996	6.81
807.298	-2.33
807.6	8.52
807.902	1.28
808.203	-0.16
808.505	0.89
808.807	2.73
809.108	7.77
809.409	2.13
809.711	-0.18
810.012	7.76
810.313	7.22
810.615	9.27
810.916	3.86
811.217	2.19
811.518	4.21
811.819	2.43
812.12	10.26
812.421	-1.2
812.722	5.1
813.023	4.84
813.323	4.7
813.624	9.38
813.925	3.61
814.225	6.7
814.526	-1.88
814.826	3.46
815.126	4.22
815.427	4.75
815.727	7.53
816.027	6.77
816.327	6.27
816.627	5.98
816.927	0.11
817.227	10.46
817.527	8.77
817.827	-2.51
818.127	2.1
818.427	-1.16
818.727	-2.32
819.026	0.75
819.326	3.65
819.625	4.74
819.925	5.55
820.224	6.72
820.524	-0.16
820.823	6.32
821.122	1.81
821.421	6.25
821.72	1.35
822.019	0.75
822.318	8.33
822.617	4.83
822.916	-0.26
823.215	2.27
823.514	4.8
823.813	1.92
824.111	3.59
824.41	5.04
824.709	4.44
825.007	3.74
825.306	4.79
825.604	4.66
825.902	4.67
826.201	4.73
826.499	4.51
826.797	4.49
827.095	4.63
827.393	5.89
827.691	6.68
827.989	6.29
828.287	5.77
828.585	4.24
828.882	2.39
829.18	3.83
829.478	5.48
829.775	4.62
830.073	7.38
830.37	3.57
830.668	5.48
830.965	6.03
831.263	2.76
831.56	6.74
831.857	7.29
832.154	3.71
832.451	6.95
832.748	3.94
833.045	8.85
833.342	2.98
833.639	5.55
833.936	1.72
834.232	7.9
834.529	3.85
834.826	8.23
835.122	1.03
835.419	9.47
835.715	5.66
836.012	2.35
836.308	8.31
836.604	1.77
836.901	1.69
837.197	7.66
837.493	5.82
837.789	7.95
838.085	4.6
838.381	5.55
838.677	6.02
838.972	1.83
839.268	5.4
839.564	10.23
839.86	0.76
840.155	8.72
840.451	11.28
840.746	6.18
841.042	2.78
841.337	4.6
841.632	4.81
841.928	6.79
842.223	8.91
842.518	5.41
842.813	5.64
843.108	8.38
843.403	3.05
843.698	-0.59
843.993	15.1
844.287	2.94
844.582	7.32
844.877	11.02
845.171	11.89
845.466	-0.98
845.761	8.89
846.055	13.96
846.349	-6.54
846.644	0.29
846.938	6.69
847.232	14.6
847.526	7.62
847.82	6.22
848.114	13.28
848.408	3.12
848.702	4.56
848.996	19.42
849.29	12.81
849.584	14.29
849.877	21.8
850.171	7.84
850.465	9.91
850.758	1.74
851.052	3.92
851.345	9.3
851.638	0.15
851.932	4.65
852.225	12.01
852.518	13.71
852.811	-5.4
853.104	-9.33
853.397	5.19
853.69	15.02
853.983	10.22
854.276	12.58
854.569	1.21
854.861	-3.68
855.154	27.41
855.447	3.69
855.739	-22.83
856.032	4.9
856.324	6.3
856.616	5.12
856.909	24.81
857.201	-18.35
857.493	-2.66
857.785	0.22
858.077	-1.57
858.369	10.27
858.661	8.23
858.953	11.68
859.245	6.98
859.537	-21.09
859.829	-4.09
860.12	-2.38
860.412	-0.85
860.703	9.35
860.995	31.8
861.286	-23.16
861.578	14.25
861.869	7.5
862.16	-11.61
862.452	-1.16
862.743	14.73
863.034	20.05
863.325	25.62
863.616	24.91
863.907	1.29
864.198	-0.48
864.488	8.96
864.779	2.69
865.07	3.85
865.36	12.76
865.651	36.63
865.941	-13.22
866.232	35.02
866.522	4.11
866.813	8.64
867.103	-2.89
867.393	-6.11
867.683	4.72
867.973	4.89
868.263	-11.72
868.553	21.65
868.843	1.02
869.133	-10.45
869.423	-2.1
869.713	-5.86
870.002	14.64
870.292	-20.28
870.582	3.74
870.871	0.14
871.161	-4.51
871.45	-11.36
871.739	27.17
872.029	-19.32
872.318	5.57
872.607	29.58
872.896	0.8
873.185	27.7
873.474	-19.29
873.763	-5.5
874.052	-0.85
874.341	-22.15
874.63	-2.21
874.918	20.2
875.207	6.68
875.496	20.99
875.784	5.19
876.073	5.01
876.361	16.1
876.649	-3.53
876.938	7.9
877.226	29.01
877.514	7.11
877.802	-1.35
878.09	43.58
878.378	10.51
878.666	10.63
878.954	14.67
879.242	19.71
879.53	1.35
879.817	-9.11
880.105	12.92
880.392	4.55
880.68	2.85
880.967	7.52
881.255	6.71
881.542	-7.26
881.83	27.09
882.117	10.32
882.404	-2.05
882.691	11.45
882.978	24.33
883.265	7.9
883.552	5.27
883.839	12.79
884.126	-3.26
884.413	8.22
884.699	4.48
884.986	8.17
885.273	7.6
885.559	7.6
885.846	7.6
