Data from 2019-1_chest_Reflection__0__175.txt Node

Date: Fri Nov 11 18:15:39 CST 2022
User: ToomeyLab
Spectrometer: FLMS14357
Trigger mode: 0
Integration Time (sec): 1.000000E-2
Scans to average: 100
Electric dark correction enabled: true
Nonlinearity correction enabled: false
Boxcar width: 0
XAxis mode: Wavelengths
Number of Pixels in Spectrum: 2048
>>>>>Begin Spectral Data<<<<<
189.047	98.7
189.435	98.7
189.823	98.7
190.211	-445.48
190.599	90.74
190.987	110.28
191.375	-167.32
191.763	174.82
192.151	-222.62
192.538	-36.97
192.926	131.99
193.314	-195.8
193.702	-37.56
194.089	-4.94
194.477	113.35
194.864	1865.67
195.252	-24.04
195.639	-212.01
196.027	138.86
196.414	100.61
196.801	-162.84
197.189	94.64
197.576	38.87
197.963	-7.37
198.351	20
198.738	-12.69
199.125	1.34
199.512	16.2
199.899	42.55
200.286	-73.02
200.673	-71.89
201.06	-67.68
201.447	-34.09
201.833	74.52
202.22	-21.59
202.607	-5.43
202.994	11.01
203.38	-30.2
203.767	19.08
204.154	-40.15
204.54	23.39
204.927	-11.03
205.313	-9.34
205.699	-7.13
206.086	-81.47
206.472	-14.71
206.858	1.69
207.245	-1.59
207.631	-15.11
208.017	-45.9
208.403	48.84
208.789	50.55
209.175	-32
209.561	-10.42
209.947	-30.43
210.333	0.32
210.719	-21.2
211.105	-27.9
211.491	8.16
211.876	-24.08
212.262	-23.56
212.648	7.75
213.034	-12.22
213.419	-26.5
213.805	-3.32
214.19	-3.25
214.576	-8.92
214.961	14.21
215.346	-18.49
215.732	13.18
216.117	7.37
216.502	10.47
216.888	-40.86
217.273	-20.63
217.658	-19.05
218.043	-16.2
218.428	16.97
218.813	-15.7
219.198	-12.82
219.583	5.28
219.968	-5.08
220.353	6.19
220.738	-6.49
221.122	-19.96
221.507	1.32
221.892	11.02
222.276	-10.74
222.661	6.76
223.046	1.42
223.43	2.26
223.815	-6.51
224.199	-4.6
224.583	15.47
224.968	10.76
225.352	5
225.736	-7.06
226.121	-3.28
226.505	4.2
226.889	-1.93
227.273	4.92
227.657	4.59
228.041	3.23
228.425	-5.35
228.809	1.5
229.193	1.59
229.577	1.24
229.961	2.19
230.344	2.63
230.728	1.39
231.112	2.06
231.495	3.27
231.879	2
232.263	2.13
232.646	2.05
233.03	1
233.413	0.49
233.797	3.32
234.18	0.57
234.563	-0.63
234.946	-1.33
235.33	2.91
235.713	-0.93
236.096	1.66
236.479	1.48
236.862	1.19
237.245	4.5
237.628	0.39
238.011	-0.02
238.394	3.81
238.777	1.66
239.16	-0.42
239.543	3.65
239.925	1.58
240.308	3.05
240.691	2.94
241.073	2.33
241.456	0.96
241.838	1.27
242.221	1.76
242.603	1
242.986	1.92
243.368	1.5
243.75	1.96
244.133	2.11
244.515	2.6
244.897	1.96
245.279	1.37
245.661	2.23
246.043	1.41
246.425	1.62
246.807	2.33
247.189	2.26
247.571	1.96
247.953	2.16
248.335	2.24
248.717	2.49
249.098	2.6
249.48	2.18
249.862	2.26
250.243	2.14
250.625	1.85
251.006	1.41
251.388	2.42
251.769	2.14
252.151	2.22
252.532	2.64
252.913	2.16
253.295	1.65
253.676	2.79
254.057	2.3
254.438	1.61
254.819	1.68
255.2	2.42
255.581	1.93
255.962	1.56
256.343	2.21
256.724	1.85
257.105	3.22
257.486	1.13
257.867	1.91
258.247	1.58
258.628	1.79
259.009	1.75
259.389	2.4
259.77	2.2
260.15	1.61
260.531	2.38
260.911	1.85
261.292	1.99
261.672	1.89
262.052	2.16
262.432	1.9
262.813	2.37
263.193	2.48
263.573	2.13
263.953	1.88
264.333	1.84
264.713	1.75
265.093	2.17
265.473	2.44
265.853	2.82
266.233	2.09
266.612	2.81
266.992	2.07
267.372	2.33
267.752	1.8
268.131	2.52
268.511	2.19
268.89	2.62
269.27	1.99
269.649	1.84
270.029	1.88
270.408	1.52
270.787	2.18
271.167	1.79
271.546	2.05
271.925	2.43
272.304	2.57
272.683	1.88
273.062	2.11
273.441	1.61
273.82	2.41
274.199	2.12
274.578	2.06
274.957	2.15
275.336	2.01
275.715	2
276.093	2.11
276.472	2.7
276.851	2.4
277.229	2.33
277.608	1.83
277.986	2.53
278.365	1.55
278.743	2.69
279.122	2.24
279.5	2.07
279.878	1.79
280.257	2.25
280.635	2.01
281.013	2.02
281.391	2.17
281.769	1.45
282.147	2.36
282.525	1.93
282.903	2.29
283.281	2.6
283.659	1.92
284.037	2
284.415	1.95
284.792	2.17
285.17	2.24
285.548	2.3
285.925	1.77
286.303	1.71
286.68	1.83
287.058	2.52
287.435	2.11
287.813	2.14
288.19	1.9
288.567	1.33
288.945	1.78
289.322	2.33
289.699	2.41
290.076	2.12
290.453	2.13
290.83	1.78
291.207	2.17
291.584	2.49
291.961	2.25
292.338	2.16
292.715	2.33
293.092	2.55
293.469	1.57
293.845	2.19
294.222	2.31
294.599	2.04
294.975	1.78
295.352	2.46
295.728	2.18
296.105	2.26
296.481	2.87
296.858	2.99
297.234	2.35
297.61	2.18
297.986	2.28
298.363	2.4
298.739	2.49
299.115	2.54
299.491	2.28
299.867	2.82
300.243	2.34
300.619	2.4
300.995	2.75
301.371	3.06
301.746	1.95
302.122	2.26
302.498	2.87
302.874	2.3
303.249	2.13
303.625	2.73
304	2.72
304.376	2.73
304.751	2.39
305.127	3.08
305.502	2.69
305.878	2.59
306.253	2.5
306.628	2.72
307.003	2.7
307.378	2.47
307.754	2.24
308.129	3.34
308.504	2.03
308.879	3.06
309.254	2.66
309.629	2.72
310.003	2.79
310.378	3.28
310.753	2.67
311.128	3.25
311.502	2.82
311.877	2.92
312.252	3.6
312.626	3.1
313.001	2.81
313.375	2.48
313.75	3.26
314.124	2.98
314.498	3.03
314.873	3.12
315.247	2.9
315.621	3.26
315.995	2.43
316.369	2.67
316.743	3.04
317.117	2.81
317.491	3.18
317.865	3.3
318.239	3.14
318.613	3.31
318.987	2.97
319.361	3.03
319.734	3.39
320.108	3.19
320.482	3.09
320.855	3.31
321.229	2.84
321.602	2.94
321.976	3.34
322.349	3.77
322.723	3.18
323.096	3.03
323.469	3.11
323.843	3.41
324.216	3.08
324.589	3.32
324.962	2.38
325.335	2.8
325.708	3.26
326.081	2.98
326.454	3.09
326.827	3.55
327.2	3.73
327.573	2.9
327.945	3.78
328.318	3.37
328.691	3.19
329.063	3.36
329.436	3.71
329.809	3.3
330.181	2.72
330.553	3
330.926	3.03
331.298	3.2
331.671	3.31
332.043	3.41
332.415	3.08
332.787	3.04
333.159	3.22
333.532	3.4
333.904	3.89
334.276	3.22
334.648	3.22
335.02	2.94
335.391	2.87
335.763	3.54
336.135	3.44
336.507	3.41
336.879	3.66
337.25	3.17
337.622	3.61
337.993	3.55
338.365	3.42
338.736	3.22
339.108	3.28
339.479	3.25
339.851	3.2
340.222	3.65
340.593	3.14
340.964	3.34
341.336	3.5
341.707	3.24
342.078	3.1
342.449	3.4
342.82	3.72
343.191	3.42
343.562	3.64
343.933	3.18
344.303	3.44
344.674	3.44
345.045	3.57
345.416	3.36
345.786	3.3
346.157	3.39
346.527	3.42
346.898	3.62
347.268	3.13
347.639	3.33
348.009	3.56
348.38	3.62
348.75	3.59
349.12	3.48
349.49	3.59
349.861	3.28
350.231	3.69
350.601	3.64
350.971	3.56
351.341	3.48
351.711	3.27
352.081	3.56
352.45	3.23
352.82	4.02
353.19	3.83
353.56	3.71
353.929	3.33
354.299	3.56
354.669	3.63
355.038	3.76
355.408	3.28
355.777	3.76
356.147	3.45
356.516	3.63
356.885	3.72
357.254	3.86
357.624	3.29
357.993	3.31
358.362	3.48
358.731	3.57
359.1	3.73
359.469	3.41
359.838	3.76
360.207	3.63
360.576	3.28
360.945	3.72
361.314	3.58
361.682	3.49
362.051	3.77
362.42	3.63
362.788	3.45
363.157	3.39
363.525	3.53
363.894	3.44
364.262	3.34
364.631	3.71
364.999	3.7
365.367	3.57
365.735	3.98
366.104	3.93
366.472	3.69
366.84	3.74
367.208	3.42
367.576	3.8
367.944	3.57
368.312	3.47
368.68	3.66
369.048	3.67
369.416	3.59
369.783	3.79
370.151	3.61
370.519	3.66
370.886	3.45
371.254	3.6
371.621	3.59
371.989	4.06
372.356	3.57
372.724	3.63
373.091	3.82
373.458	3.79
373.826	3.97
374.193	3.54
374.56	3.66
374.927	3.62
375.294	3.69
375.661	3.5
376.028	4.12
376.395	3.9
376.762	3.85
377.129	3.76
377.496	3.91
377.863	3.77
378.229	3.93
378.596	3.69
378.963	4.01
379.329	3.94
379.696	3.93
380.062	3.63
380.429	3.81
380.795	3.79
381.161	3.98
381.528	4.07
381.894	3.66
382.26	3.88
382.626	3.85
382.993	3.74
383.359	3.63
383.725	3.85
384.091	3.73
384.457	3.79
384.823	3.93
385.188	3.76
385.554	4.06
385.92	4.01
386.286	3.89
386.651	3.74
387.017	3.77
387.383	3.87
387.748	3.89
388.114	3.8
388.479	3.8
388.845	3.6
389.21	3.62
389.575	3.71
389.94	3.65
390.306	3.97
390.671	3.75
391.036	3.86
391.401	3.95
391.766	4.19
392.131	3.81
392.496	3.85
392.861	3.61
393.226	3.73
393.591	3.84
393.956	3.87
394.32	3.93
394.685	3.92
395.05	3.68
395.414	4.02
395.779	3.7
396.143	3.8
396.508	3.97
396.872	3.54
397.236	4.02
397.601	3.91
397.965	4.04
398.329	3.87
398.694	4.21
399.058	3.89
399.422	3.96
399.786	3.89
400.15	4.06
400.514	4.05
400.878	3.92
401.242	3.86
401.605	3.83
401.969	3.82
402.333	3.87
402.697	3.93
403.06	4.04
403.424	3.93
403.787	4.12
404.151	4.07
404.514	3.93
404.878	3.78
405.241	3.81
405.604	3.89
405.968	3.87
406.331	3.77
406.694	3.93
407.057	3.78
407.42	3.84
407.783	3.89
408.146	4.1
408.509	3.94
408.872	3.93
409.235	4.07
409.598	4.04
409.961	4.06
410.323	4.21
410.686	4.04
411.049	4.01
411.411	4.03
411.774	3.87
412.136	3.74
412.499	4.04
412.861	4.17
413.223	3.97
413.586	3.78
413.948	3.93
414.31	3.9
414.672	3.83
415.035	3.81
415.397	3.93
415.759	4.12
416.121	4
416.483	4.1
416.845	3.85
417.206	4.02
417.568	4.15
417.93	4
418.292	3.9
418.653	3.99
419.015	3.94
419.377	3.81
419.738	3.99
420.1	4.01
420.461	4.09
420.822	4.02
421.184	3.94
421.545	4.01
421.906	3.9
422.267	3.94
422.629	3.81
422.99	3.97
423.351	3.99
423.712	3.8
424.073	3.87
424.434	4.04
424.795	3.94
425.155	3.98
425.516	3.96
425.877	4
426.238	4.04
426.598	3.97
426.959	3.95
427.32	4.11
427.68	4.14
428.041	4.04
428.401	4.15
428.761	4.26
429.122	4.04
429.482	4.07
429.842	4.14
430.202	4.23
430.563	4.11
430.923	4.17
431.283	4.25
431.643	4.13
432.003	4.33
432.363	4.16
432.722	4.03
433.082	4.25
433.442	4.33
433.802	4.05
434.161	4.12
434.521	4.21
434.881	4.1
435.24	4.22
435.6	4.21
435.959	4.21
436.319	4.33
436.678	4.16
437.037	4.32
437.396	4.33
437.756	4.23
438.115	4.28
438.474	4.27
438.833	4.25
439.192	4.24
439.551	4.24
439.91	4.21
440.269	4.16
440.628	4.3
440.987	4.27
441.345	4.26
441.704	4.29
442.063	4.32
442.421	4.25
442.78	4.16
443.138	4.42
443.497	4.23
443.855	4.3
444.214	4.35
444.572	4.44
444.93	4.36
445.288	4.32
445.647	4.44
446.005	4.32
446.363	4.29
446.721	4.36
447.079	4.34
447.437	4.33
447.795	4.3
448.153	4.32
448.51	4.39
448.868	4.33
449.226	4.35
449.584	4.4
449.941	4.38
450.299	4.34
450.656	4.49
451.014	4.39
451.371	4.45
451.729	4.37
452.086	4.55
452.443	4.57
452.801	4.6
453.158	4.5
453.515	4.49
453.872	4.45
454.229	4.41
454.586	4.51
454.943	4.49
455.3	4.5
455.657	4.38
456.014	4.61
456.371	4.64
456.727	4.61
457.084	4.53
457.441	4.44
457.797	4.57
458.154	4.76
458.51	4.6
458.867	4.56
459.223	4.62
459.58	4.49
459.936	4.59
460.292	4.55
460.648	4.55
461.005	4.58
461.361	4.47
461.717	4.44
462.073	4.51
462.429	4.47
462.785	4.56
463.141	4.55
463.496	4.5
463.852	4.72
464.208	4.52
464.564	4.56
464.919	4.72
465.275	4.62
465.631	4.6
465.986	4.55
466.342	4.79
466.697	4.58
467.052	4.64
467.408	4.79
467.763	4.84
468.118	4.72
468.473	4.82
468.829	4.57
469.184	4.62
469.539	4.61
469.894	4.73
470.249	4.51
470.603	4.69
470.958	4.77
471.313	4.56
471.668	4.79
472.023	4.7
472.377	4.85
472.732	4.8
473.086	4.83
473.441	4.9
473.795	4.78
474.15	4.78
474.504	4.71
474.859	4.74
475.213	4.68
475.567	4.91
475.921	4.93
476.275	4.74
476.63	4.82
476.984	4.79
477.338	4.7
477.692	4.86
478.045	4.68
478.399	4.76
478.753	4.76
479.107	4.89
479.461	4.76
479.814	4.76
480.168	4.84
480.521	4.73
480.875	4.79
481.228	4.79
481.582	4.9
481.935	4.8
482.289	4.76
482.642	4.81
482.995	4.69
483.348	4.76
483.701	4.77
484.055	4.76
484.408	4.61
484.761	4.65
485.114	4.52
485.466	4.51
485.819	4.49
486.172	4.56
486.525	4.62
486.878	4.71
487.23	4.71
487.583	4.73
487.936	4.71
488.288	4.74
488.641	4.72
488.993	4.62
489.345	4.68
489.698	4.65
490.05	4.65
490.402	4.74
490.754	4.79
491.107	4.75
491.459	4.85
491.811	4.8
492.163	4.88
492.515	4.83
492.866	4.7
493.218	4.72
493.57	4.73
493.922	4.68
494.274	4.82
494.625	4.98
494.977	4.9
495.328	4.94
495.68	4.95
496.031	5.02
496.383	5.03
496.734	5
497.086	4.99
497.437	5.05
497.788	4.94
498.139	4.98
498.49	4.97
498.842	4.97
499.193	5.02
499.544	5
499.894	5.08
500.245	5.05
500.596	5.05
500.947	5.02
501.298	5.08
501.648	5.06
501.999	5.16
502.35	5.03
502.7	5.08
503.051	5.17
503.401	5.06
503.752	5.1
504.102	5.06
504.452	5.08
504.803	5.09
505.153	5.26
505.503	5.16
505.853	5.16
506.203	5.31
506.553	5.28
506.903	5.19
507.253	5.26
507.603	5.13
507.953	5.26
508.303	5.24
508.652	5.3
509.002	5.25
509.352	5.18
509.701	5.1
510.051	5.12
510.4	5.2
510.75	5.29
511.099	5.2
511.449	5.19
511.798	5.27
512.147	5.3
512.496	5.16
512.846	5.33
513.195	5.2
513.544	5.25
513.893	5.13
514.242	5.26
514.591	5.18
514.939	5.28
515.288	5.23
515.637	5.28
515.986	5.31
516.334	5.38
516.683	5.36
517.032	5.4
517.38	5.42
517.729	5.33
518.077	5.43
518.426	5.28
518.774	5.31
519.122	5.29
519.47	5.33
519.819	5.26
520.167	5.33
520.515	5.2
520.863	5.27
521.211	5.26
521.559	5.35
521.907	5.49
522.255	5.37
522.602	5.56
522.95	5.43
523.298	5.48
523.645	5.34
523.993	5.45
524.341	5.4
524.688	5.37
525.036	5.47
525.383	5.54
525.73	5.64
526.078	5.5
526.425	5.46
526.772	5.43
527.119	5.34
527.466	5.37
527.814	5.34
528.161	5.37
528.508	5.43
528.854	5.39
529.201	5.46
529.548	5.32
529.895	5.24
530.242	5.23
530.588	5.21
530.935	5.27
531.282	5.32
531.628	5.39
531.975	5.42
532.321	5.42
532.667	5.48
533.014	5.54
533.36	5.57
533.706	5.59
534.052	5.57
534.399	5.46
534.745	5.36
535.091	5.43
535.437	5.48
535.783	5.48
536.129	5.53
536.474	5.61
536.82	5.58
537.166	5.57
537.512	5.69
537.857	5.6
538.203	5.58
538.549	5.6
538.894	5.57
539.239	5.58
539.585	5.8
539.93	5.72
540.276	5.89
540.621	5.89
540.966	5.77
541.311	5.84
541.656	5.8
542.001	5.79
542.346	5.76
542.691	5.65
543.036	5.52
543.381	5.62
543.726	5.56
544.071	5.7
544.415	5.69
544.76	5.64
545.105	5.73
545.449	5.67
545.794	5.91
546.138	5.87
546.483	5.88
546.827	5.85
547.171	5.86
547.516	5.85
547.86	5.84
548.204	5.93
548.548	5.96
548.892	5.9
549.236	5.94
549.58	5.93
549.924	6
550.268	6.15
550.612	6.16
550.956	6.06
551.3	6.06
551.643	5.9
551.987	6.12
552.33	6.24
552.674	6.37
553.017	6.38
553.361	6.28
553.704	6.22
554.048	6.19
554.391	6.12
554.734	6.08
555.077	6.23
555.42	6.26
555.764	6.16
556.107	6.15
556.45	6.26
556.793	6.52
557.135	6.47
557.478	6.33
557.821	6.38
558.164	6.44
558.507	6.39
558.849	6.31
559.192	6.37
559.534	6.45
559.877	6.49
560.219	6.39
560.562	6.51
560.904	6.5
561.246	6.42
561.589	6.45
561.931	6.53
562.273	6.55
562.615	6.55
562.957	6.51
563.299	6.51
563.641	6.54
563.983	6.57
564.325	6.35
564.667	6.46
565.008	6.63
565.35	6.63
565.692	6.5
566.033	6.66
566.375	6.68
566.716	6.58
567.058	6.7
567.399	6.72
567.741	6.89
568.082	6.72
568.423	6.7
568.764	6.68
569.105	6.7
569.447	6.74
569.788	6.79
570.129	6.82
570.47	6.72
570.811	6.66
571.151	6.88
571.492	6.82
571.833	6.81
572.174	6.67
572.514	6.86
572.855	6.65
573.195	6.63
573.536	6.89
573.876	6.76
574.217	6.76
574.557	6.85
574.898	7
575.238	7.06
575.578	6.84
575.918	6.71
576.258	6.88
576.598	6.91
576.938	7.08
577.278	6.94
577.618	6.96
577.958	6.88
578.298	7.04
578.638	6.93
578.977	7.12
579.317	7.25
579.657	7.21
579.996	7.13
580.336	7.2
580.675	7.03
581.014	6.99
581.354	7.3
581.693	7.36
582.032	7.14
582.372	6.93
582.711	7.06
583.05	7.18
583.389	7.2
583.728	7.31
584.067	7.4
584.406	7.23
584.745	7.4
585.083	7.47
585.422	7.28
585.761	7.18
586.1	7.48
586.438	7.19
586.777	7.41
587.115	7.54
587.454	7.32
587.792	7.48
588.13	7.7
588.469	7.43
588.807	7.45
589.145	7.5
589.483	7.48
589.821	7.71
590.159	7.43
590.497	7.39
590.835	7.61
591.173	7.41
591.511	7.58
591.849	7.53
592.187	7.65
592.524	7.59
592.862	7.65
593.2	7.66
593.537	7.55
593.875	7.8
594.212	7.7
594.55	7.59
594.887	7.68
595.224	7.78
595.561	7.86
595.899	7.64
596.236	7.87
596.573	7.83
596.91	7.77
597.247	7.64
597.584	7.84
597.921	7.88
598.258	7.75
598.594	7.67
598.931	7.82
599.268	7.79
599.604	7.86
599.941	7.93
600.277	8.06
600.614	7.91
600.95	8
601.287	7.85
601.623	8.11
601.959	8.15
602.296	8.02
602.632	7.89
602.968	7.93
603.304	7.93
603.64	8.24
603.976	8.11
604.312	8.09
604.648	8.04
604.984	8.03
605.319	8.16
605.655	7.96
605.991	8.17
606.326	8.08
606.662	8.11
606.998	7.96
607.333	8.29
607.668	8.18
608.004	8.2
608.339	8.29
608.674	8.47
609.01	8.32
609.345	8.41
609.68	8.25
610.015	8.31
610.35	8.19
610.685	8.26
611.02	8.4
611.355	8.33
611.689	8.35
612.024	8.48
612.359	8.22
612.694	8.58
613.028	8.42
613.363	8.45
613.697	8.4
614.032	8.51
614.366	8.72
614.7	8.7
615.035	8.42
615.369	8.66
615.703	8.41
616.037	8.52
616.371	8.66
616.705	8.87
617.039	8.63
617.373	8.58
617.707	8.92
618.041	8.87
618.375	8.91
618.709	8.78
619.042	8.65
619.376	8.72
619.71	8.84
620.043	8.84
620.377	8.84
620.71	9.01
621.043	8.84
621.377	9.02
621.71	8.75
622.043	8.91
622.376	9.29
622.709	9.07
623.043	9.46
623.376	9.06
623.709	8.68
624.041	9.26
624.374	9.17
624.707	9.1
625.04	9.17
625.373	9.52
625.705	9.11
626.038	9.3
626.37	8.97
626.703	9.11
627.035	9.23
627.368	9.07
627.7	9.02
628.032	9.21
628.365	9.02
628.697	9
629.029	9.23
629.361	9.24
629.693	9.28
630.025	9.46
630.357	9.23
630.689	8.94
631.021	9.1
631.353	9.47
631.684	9.24
632.016	9.26
632.348	9.17
632.679	9.31
633.011	9.39
633.342	9.65
633.674	9.28
634.005	8.93
634.336	9.65
634.668	9.36
634.999	9.4
635.33	9.63
635.661	9
635.992	9.49
636.323	9.21
636.654	9.76
636.985	9.76
637.316	9.68
637.647	9.87
637.977	9.76
638.308	9.94
638.639	9.67
638.969	9.86
639.3	9.88
639.63	9.42
639.961	9.73
640.291	9.89
640.622	9.58
640.952	10.11
641.282	9.92
641.612	10.22
641.943	10.11
642.273	9.92
642.603	9.85
642.933	9.46
643.263	9.9
643.592	10.01
643.922	9.72
644.252	9.98
644.582	10.07
644.911	9.94
645.241	9.48
645.571	10.11
645.9	9.93
646.23	9.83
646.559	10.11
646.888	10.5
647.218	10.36
647.547	10.41
647.876	10.2
648.205	10.3
648.534	10
648.863	10.38
649.192	10.39
649.521	10.3
649.85	10.02
650.179	10.32
650.508	10.44
650.837	10.15
651.165	10.17
651.494	9.85
651.822	10.43
652.151	10.45
652.479	10.54
652.808	10.42
653.136	10.51
653.465	10.33
653.793	10.39
654.121	10.49
654.449	10.37
654.777	10.64
655.105	10.35
655.433	10.56
655.761	10.39
656.089	10.26
656.417	11.04
656.745	10.57
657.073	10.84
657.4	11
657.728	10.66
658.056	10.49
658.383	10.54
658.711	10.37
659.038	10.9
659.365	11.06
659.693	10.57
660.02	10.87
660.347	10.83
660.674	10.13
661.001	10.92
661.329	10.77
661.656	10.55
661.982	10.71
662.309	10.76
662.636	11.14
662.963	10.6
663.29	10.96
663.616	10.77
663.943	10.86
664.27	11.37
664.596	10.79
664.923	10.38
665.249	10.68
665.576	10.63
665.902	10.85
666.228	10.33
666.554	11.04
666.881	11.37
667.207	10.91
667.533	10.79
667.859	11.03
668.185	10.11
668.511	11.29
668.837	10.81
669.162	11.43
669.488	11.29
669.814	11.47
670.139	11.31
670.465	11.13
670.791	11.36
671.116	10.82
671.442	11.65
671.767	11.36
672.092	10.71
672.418	11.49
672.743	10.79
673.068	11.34
673.393	11.39
673.718	11.27
674.043	11.28
674.368	11.99
674.693	11.57
675.018	11.64
675.343	11.18
675.667	11.6
675.992	11.53
676.317	11.46
676.641	11.21
676.966	12.12
677.29	11.45
677.615	11.13
677.939	12.14
678.264	11.73
678.588	11.92
678.912	11.85
679.236	10.98
679.56	11.24
679.885	11.65
680.209	11.33
680.532	11.23
680.856	11.54
681.18	11.5
681.504	11.62
681.828	11.69
682.152	11.58
682.475	11.81
682.799	11.92
683.122	11.44
683.446	11.88
683.769	12.06
684.093	11.8
684.416	12.25
684.739	12.46
685.062	11.58
685.386	11.84
685.709	11.66
686.032	12.17
686.355	11.73
686.678	11.83
687.001	11.78
687.324	11.16
687.646	12.47
687.969	12.03
688.292	11.52
688.614	12.24
688.937	12
689.26	11.25
689.582	11.82
689.904	11.67
690.227	12.49
690.549	12.24
690.871	12
691.194	12.48
691.516	12.02
691.838	11.38
692.16	11.66
692.482	12.15
692.804	12.05
693.126	12.03
693.448	11.97
693.769	12.01
694.091	12.11
694.413	12.35
694.735	12.25
695.056	11.72
695.378	12.77
695.699	12.97
696.021	12.38
696.342	12.11
696.663	11.61
696.984	12.72
697.306	12.93
697.627	12.75
697.948	12.37
698.269	12.21
698.59	13.08
698.911	12.74
699.232	12.62
699.553	13.04
699.873	12.01
700.194	12.08
700.515	12.94
700.835	12.44
701.156	12.68
701.477	13.13
701.797	12.54
702.117	12.85
702.438	13.07
702.758	12.78
703.078	12.79
703.398	12.11
703.719	12.4
704.039	13.42
704.359	13.02
704.679	12.24
704.999	12.8
705.319	12.66
705.638	12.82
705.958	12.93
706.278	13.3
706.597	12.8
706.917	12.34
707.237	13.63
707.556	12.25
707.876	12.7
708.195	12.93
708.514	12.41
708.834	13.26
709.153	12.75
709.472	12.22
709.791	12.47
710.11	12.57
710.429	13.48
710.748	13.06
711.067	13.64
711.386	14.04
711.705	12.29
712.023	12.31
712.342	13.58
712.661	13.32
712.979	14.02
713.298	12.75
713.616	12.8
713.935	13.97
714.253	12.35
714.572	13.33
714.89	12.82
715.208	13.39
715.526	13.71
715.844	13.53
716.162	12.79
716.48	13.42
716.798	13.31
717.116	12.56
717.434	14.07
717.752	13.75
718.069	13.5
718.387	13.04
718.705	12.92
719.022	13.83
719.34	13.55
719.657	13.21
719.975	14.42
720.292	13.26
720.609	13.82
720.927	13.87
721.244	14.69
721.561	13.82
721.878	14.18
722.195	13.8
722.512	13.3
722.829	12.72
723.146	13.19
723.463	14.32
723.779	13.57
724.096	13.95
724.413	14.32
724.729	12.88
725.046	13.83
725.362	14.19
725.679	13.96
725.995	13.45
726.311	13.94
726.628	13.38
726.944	14.72
727.26	14.24
727.576	15.31
727.892	13.61
728.208	14.66
728.524	13.37
728.84	13.64
729.156	13.72
729.472	15.53
729.787	13.55
730.103	13.89
730.419	12.97
730.734	14.03
731.05	13.67
731.365	13.77
731.681	13.65
731.996	13.5
732.311	14.03
732.626	12.44
732.942	14.37
733.257	14.03
733.572	13.37
733.887	14.69
734.202	13.17
734.517	14.22
734.832	14.06
735.146	13.9
735.461	15.24
735.776	14.13
736.091	14.14
736.405	13.52
736.72	14.02
737.034	15.05
737.349	14.48
737.663	15.59
737.977	14.95
738.292	14.36
738.606	15.51
738.92	13.38
739.234	15.42
739.548	12.98
739.862	13.76
740.176	13.74
740.49	15.64
740.804	14.48
741.117	13.56
741.431	14.61
741.745	14.6
742.058	15.57
742.372	13.27
742.685	14.91
742.999	15.02
743.312	14.89
743.626	13.42
743.939	14.19
744.252	14.53
744.565	14.98
744.878	13.59
745.191	14.66
745.505	14.59
745.817	13.84
746.13	14.31
746.443	15.74
746.756	13.89
747.069	15.3
747.381	16.02
747.694	15.06
748.007	13.37
748.319	14.04
748.632	15.2
748.944	14.62
749.256	14.69
749.569	14.76
749.881	14.17
750.193	15.78
750.505	15.14
750.817	15.7
751.129	15.16
751.441	14.92
751.753	14.81
752.065	16.26
752.377	14.95
752.689	14.28
753	15.19
753.312	16.35
753.624	15.38
753.935	14.08
754.247	16.24
754.558	14.91
754.869	16.18
755.181	14.22
755.492	15.82
755.803	16.28
756.114	14.44
756.425	15.93
756.736	13.73
757.047	16.22
757.358	16.93
757.669	13.65
757.98	15.44
758.291	14.65
758.601	16.43
758.912	14.63
759.223	15.2
759.533	14.76
759.844	15.59
760.154	15.8
760.464	15.42
760.775	13.55
761.085	15.18
761.395	14.99
761.705	17.27
762.016	16.23
762.326	14.75
762.636	16.53
762.945	15.96
763.255	15.75
763.565	13.99
763.875	15.52
764.185	14.67
764.494	16.56
764.804	14.83
765.113	14.38
765.423	16.99
765.732	15.27
766.042	15.55
766.351	15.87
766.66	15.76
766.97	14.45
767.279	15.51
767.588	15.81
767.897	16.75
768.206	15.51
768.515	16.64
768.824	16.42
769.133	15.34
769.441	15.54
769.75	14.91
770.059	15.4
770.367	15.21
770.676	14.82
770.984	15.09
771.293	14.52
771.601	16.72
771.91	12.1
772.218	14.67
772.526	17.61
772.834	17.22
773.142	15.95
773.45	18.45
773.758	15.83
774.066	17.05
774.374	11.92
774.682	17.1
774.99	15.65
775.298	13.66
775.605	13.48
775.913	16.67
776.22	17.54
776.528	15.6
776.835	16.89
777.143	13.06
777.45	13.92
777.757	15.1
778.065	15.42
778.372	15.6
778.679	16.22
778.986	12.84
779.293	18.71
779.6	17.02
779.907	17.78
780.214	17.57
780.52	15.07
780.827	16.64
781.134	18
781.44	15.88
781.747	13.64
782.053	14.38
782.36	15.17
782.666	18.99
782.973	13.47
783.279	14.69
783.585	17.07
783.891	15.73
784.197	15.11
784.503	16.67
784.809	13.82
785.115	17.82
785.421	18.86
785.727	20.62
786.033	13.04
786.339	13.37
786.644	18.06
786.95	13.98
787.255	13.11
787.561	16.35
787.866	16.1
788.172	14.35
788.477	15.44
788.782	12.11
789.088	12.18
789.393	19.84
789.698	15.46
790.003	17.76
790.308	15.07
790.613	17.11
790.918	15.48
791.223	14.9
791.527	15.52
791.832	18.33
792.137	14.95
792.441	16.99
792.746	16.62
793.05	15.96
793.355	13
793.659	17.05
793.963	16.08
794.268	15.37
794.572	18.53
794.876	15.56
795.18	18.3
795.484	15.05
795.788	17.91
796.092	12.49
796.396	12.91
796.7	15.94
797.004	16.21
797.307	15.03
797.611	19.33
797.915	14.08
798.218	16.43
798.522	17.66
798.825	15.42
799.128	17.89
799.432	15.7
799.735	13.93
800.038	10.59
800.341	18.25
800.644	16.8
800.947	17.04
801.25	18.78
801.553	12.41
801.856	21.42
802.159	15.27
802.462	16.86
802.764	19.24
803.067	16.87
803.37	15.09
803.672	9.85
803.975	14.3
804.277	14.38
804.579	16.34
804.882	19.2
805.184	16.81
805.486	16.8
805.788	21.69
806.09	22.17
806.392	16.54
806.694	17.65
806.996	17.82
807.298	17.83
807.6	19.04
807.902	18.67
808.203	23.04
808.505	17.77
808.807	18.43
809.108	18.7
809.409	16.89
809.711	17.07
810.012	16.98
810.313	19.77
810.615	19.34
810.916	16.36
811.217	14.35
811.518	12.36
811.819	15.65
812.12	15.15
812.421	15.93
812.722	15.81
813.023	16.51
813.323	19.55
813.624	15.15
813.925	14.47
814.225	16.34
814.526	18.32
814.826	17.15
815.126	17.19
815.427	15.42
815.727	22.91
816.027	18.67
816.327	16.41
816.627	18.19
816.927	14.89
817.227	18.63
817.527	19.88
817.827	19.78
818.127	22.79
818.427	17.71
818.727	25.71
819.026	17.9
819.326	17.43
819.625	21.75
819.925	18.25
820.224	19.74
820.524	23.86
820.823	17.29
821.122	20.47
821.421	12.81
821.72	17.11
822.019	19.09
822.318	18.73
822.617	20.29
822.916	20.62
823.215	18.1
823.514	18.82
823.813	20.31
824.111	21.77
824.41	17.97
824.709	19.23
825.007	19.13
825.306	18.35
825.604	19.32
825.902	17.95
826.201	19.22
826.499	18.94
826.797	18.15
827.095	18.87
827.393	20.95
827.691	20.01
827.989	17.24
828.287	18.55
828.585	18.55
828.882	21.15
829.18	19.68
829.478	18.62
829.775	18.49
830.073	18.08
830.37	18.56
830.668	20.31
830.965	19.35
831.263	16.32
831.56	17.57
831.857	18.34
832.154	18.29
832.451	18.87
832.748	17.8
833.045	19.62
833.342	18.85
833.639	17.17
833.936	18.2
834.232	20.95
834.529	17.7
834.826	18.53
835.122	20.08
835.419	20.71
835.715	20.4
836.012	17.24
836.308	18.05
836.604	17.18
836.901	17.42
837.197	19.63
837.493	16.05
837.789	20.97
838.085	20.24
838.381	18.11
838.677	14.99
838.972	20.42
839.268	20.95
839.564	18.15
839.86	14.91
840.155	19.78
840.451	17.2
840.746	27.26
841.042	16.77
841.337	13.59
841.632	18.18
841.928	15.37
842.223	19.8
842.518	20.11
842.813	21.66
843.108	16.02
843.403	19.83
843.698	17.22
843.993	21.67
844.287	19.23
844.582	20.64
844.877	20.63
845.171	14
845.466	20.33
845.761	24.11
846.055	20.55
846.349	22.54
846.644	18.41
846.938	20.9
847.232	19.71
847.526	26.64
847.82	17.18
848.114	3.54
848.408	16.42
848.702	9.21
848.996	6.51
849.29	21.98
849.584	12.59
849.877	27.3
850.171	20.54
850.465	16.66
850.758	23.11
851.052	16.82
851.345	17.66
851.638	23.5
851.932	28.73
852.225	7.7
852.518	16.49
852.811	17.67
853.104	1.2
853.397	9.12
853.69	21.99
853.983	2.76
854.276	29.36
854.569	21.97
854.861	7.76
855.154	-3.36
855.447	11.7
855.739	24.56
856.032	15.14
856.324	8.9
856.616	19.24
856.909	12.26
857.201	19.93
857.493	13.68
857.785	13.21
858.077	-11.49
858.369	-12.07
858.661	26.79
858.953	11.65
859.245	34.4
859.537	16.18
859.829	30.64
860.12	10.09
860.412	21.88
860.703	0.05
860.995	18.7
861.286	35.38
861.578	3.12
861.869	26
862.16	36.03
862.452	24.42
862.743	23.32
863.034	2.3
863.325	15.12
863.616	11.82
863.907	1.87
864.198	14.65
864.488	14.21
864.779	11.16
865.07	8.87
865.36	10.19
865.651	30.35
865.941	35.02
866.232	31.6
866.522	31.94
866.813	-0.02
867.103	10.53
867.393	33.75
867.683	-19.3
867.973	47.63
868.263	7.58
868.553	3.49
868.843	16.14
869.133	-21.21
869.423	14.39
869.713	-15.25
870.002	27.66
870.292	40.76
870.582	11.61
870.871	12.21
871.161	-0.47
871.45	5.83
871.739	3.07
872.029	2.27
872.318	22.57
872.607	-3.78
872.896	25.14
873.185	21.94
873.474	11.88
873.763	18.13
874.052	22.12
874.341	-0.78
874.63	34.47
874.918	32.89
875.207	2.26
875.496	10.92
875.784	17.41
876.073	-4.68
876.361	20.27
876.649	-2.72
876.938	28.13
877.226	21.04
877.514	8.41
877.802	-2.65
878.09	15.67
878.378	21.51
878.666	29.61
878.954	4.42
879.242	29.53
879.53	5.36
879.817	50.42
880.105	6.69
880.392	35.44
880.68	14
880.967	6.53
881.255	3.45
881.542	29.6
881.83	6.92
882.117	33.98
882.404	-1.24
882.691	15.25
882.978	3.03
883.265	18
883.552	19.24
883.839	12.47
884.126	11.44
884.413	27.69
884.699	24.4
884.986	24.41
885.273	25.1
885.559	25.1
885.846	25.1
