Data from 2019-1_chest_Reflection__3__178.txt Node

Date: Fri Nov 11 18:16:20 CST 2022
User: ToomeyLab
Spectrometer: FLMS14357
Trigger mode: 0
Integration Time (sec): 1.000000E-2
Scans to average: 100
Electric dark correction enabled: true
Nonlinearity correction enabled: false
Boxcar width: 0
XAxis mode: Wavelengths
Number of Pixels in Spectrum: 2048
>>>>>Begin Spectral Data<<<<<
189.047	125.19
189.435	125.19
189.823	125.19
190.211	260.68
190.599	91.93
190.987	-14.44
191.375	-43.13
191.763	9.31
192.151	94.47
192.538	0.04
192.926	350.58
193.314	98.56
193.702	531.73
194.089	-15.73
194.477	27.06
194.864	764.93
195.252	5.22
195.639	216.07
196.027	62.91
196.414	211.38
196.801	-201.69
197.189	-462.59
197.576	-58.87
197.963	-78.31
198.351	7.51
198.738	-7.01
199.125	-8.31
199.512	8.73
199.899	31.9
200.286	-67.91
200.673	-4.31
201.06	-58.8
201.447	15.69
201.833	19.49
202.22	-22.69
202.607	8.64
202.994	38.22
203.38	-7.04
203.767	5.21
204.154	14.6
204.54	31.81
204.927	5.81
205.313	-0.76
205.699	27.38
206.086	-5.01
206.472	-27.71
206.858	3.33
207.245	-11.23
207.631	-26.17
208.017	-12.41
208.403	0.48
208.789	21.09
209.175	-35.55
209.561	24.41
209.947	-12.24
210.333	18.31
210.719	0.48
211.105	-10.75
211.491	-13.33
211.876	-10.73
212.262	-21.12
212.648	42.43
213.034	8.57
213.419	-7.63
213.805	-14.78
214.19	-1.11
214.576	-12.07
214.961	10.07
215.346	2.05
215.732	-10.02
216.117	5.55
216.502	1.09
216.888	-57.21
217.273	-18.18
217.658	-19.26
218.043	-1.85
218.428	20.69
218.813	-28.07
219.198	3.11
219.583	-6.11
219.968	-22.4
220.353	0.31
220.738	12.76
221.122	-22.32
221.507	16.95
221.892	-5.15
222.276	11.72
222.661	3.69
223.046	1.48
223.43	-0.3
223.815	-7.78
224.199	-1.85
224.583	13.72
224.968	7.05
225.352	4.1
225.736	3.27
226.121	4.13
226.505	1.88
226.889	1.17
227.273	8.67
227.657	8.54
228.041	4.95
228.425	2.62
228.809	5.33
229.193	1.67
229.577	3.61
229.961	3.88
230.344	2.73
230.728	2.73
231.112	3.42
231.495	4.5
231.879	2.09
232.263	4.01
232.646	2.27
233.03	1.81
233.413	4.16
233.797	3.59
234.18	0.81
234.563	0.28
234.946	0.66
235.33	4.33
235.713	2.18
236.096	3.32
236.479	1.18
236.862	1.04
237.245	3.87
237.628	1.77
238.011	0.77
238.394	2.41
238.777	2.07
239.16	2.33
239.543	3.94
239.925	1.75
240.308	3.89
240.691	4.07
241.073	3.44
241.456	3.03
241.838	2.61
242.221	3.25
242.603	2.06
242.986	3.39
243.368	3.32
243.75	3.27
244.133	3.17
244.515	3.45
244.897	3.32
245.279	3.69
245.661	2.77
246.043	2.3
246.425	2.7
246.807	3.52
247.189	2.25
247.571	3.01
247.953	3.24
248.335	3.57
248.717	3.44
249.098	3.43
249.48	3.42
249.862	3.34
250.243	3.45
250.625	3.21
251.006	2.99
251.388	3.49
251.769	3.26
252.151	3.85
252.532	3.29
252.913	2.82
253.295	3.24
253.676	3.88
254.057	3.38
254.438	2.7
254.819	3.05
255.2	3.97
255.581	3.1
255.962	3.15
256.343	2.17
256.724	1.9
257.105	3.07
257.486	3.24
257.867	3.49
258.247	2.25
258.628	3.96
259.009	2.97
259.389	2.91
259.77	3.29
260.15	3.14
260.531	3.09
260.911	3.26
261.292	3.2
261.672	3.09
262.052	3.23
262.432	3.07
262.813	3.54
263.193	3.44
263.573	2.94
263.953	3.65
264.333	3.2
264.713	3.15
265.093	3.68
265.473	3.53
265.853	4.03
266.233	3.32
266.612	2.96
266.992	3.17
267.372	2.83
267.752	2.62
268.131	3.76
268.511	3.3
268.89	3.3
269.27	2.87
269.649	3.3
270.029	2.92
270.408	2.79
270.787	3.25
271.167	3.74
271.546	3.15
271.925	3.14
272.304	3.41
272.683	2.9
273.062	2.8
273.441	2.87
273.82	3.64
274.199	3.08
274.578	2.79
274.957	2.88
275.336	2.81
275.715	2.64
276.093	3.03
276.472	3.32
276.851	3.19
277.229	3.02
277.608	2.84
277.986	3.22
278.365	3.11
278.743	3.54
279.122	2.91
279.5	3.01
279.878	3.56
280.257	3.02
280.635	2.8
281.013	2.76
281.391	3.64
281.769	2.85
282.147	3.56
282.525	3.24
282.903	3.29
283.281	3.62
283.659	2.87
284.037	3.31
284.415	2.84
284.792	3.15
285.17	3.01
285.548	3.18
285.925	2.66
286.303	3.08
286.68	2.75
287.058	3.13
287.435	3.37
287.813	3
288.19	2.95
288.567	2.79
288.945	3.08
289.322	3.06
289.699	2.74
290.076	3.07
290.453	3.17
290.83	2.54
291.207	3.04
291.584	3.3
291.961	3.01
292.338	3.25
292.715	3.22
293.092	3.27
293.469	3.08
293.845	3.43
294.222	3.29
294.599	2.68
294.975	2.72
295.352	3.42
295.728	3.35
296.105	3.21
296.481	3.38
296.858	3.49
297.234	3.8
297.61	3.27
297.986	3.61
298.363	3.54
298.739	3.47
299.115	3.57
299.491	3.48
299.867	3.67
300.243	3.37
300.619	3.31
300.995	3.74
301.371	4.11
301.746	3.54
302.122	2.94
302.498	3.82
302.874	3.67
303.249	3.41
303.625	3.84
304	3.47
304.376	3.24
304.751	3.91
305.127	3.37
305.502	3.45
305.878	3.7
306.253	3.36
306.628	3.54
307.003	4.05
307.378	3.04
307.754	3.15
308.129	4.18
308.504	3.4
308.879	4.15
309.254	3.74
309.629	4.1
310.003	3.96
310.378	3.96
310.753	3.82
311.128	3.87
311.502	3.34
311.877	3.95
312.252	4.12
312.626	4.17
313.001	3.66
313.375	3.49
313.75	4.24
314.124	3.7
314.498	4.01
314.873	3.86
315.247	3.72
315.621	3.99
315.995	4.08
316.369	3.87
316.743	3.92
317.117	4.05
317.491	4.2
317.865	4.3
318.239	4.61
318.613	4.05
318.987	3.95
319.361	4.54
319.734	4.19
320.108	3.69
320.482	4.47
320.855	3.87
321.229	3.85
321.602	4.17
321.976	4.46
322.349	4.42
322.723	4.5
323.096	3.94
323.469	4.46
323.843	4.04
324.216	3.9
324.589	4.31
324.962	3.58
325.335	3.75
325.708	4.25
326.081	3.62
326.454	3.86
326.827	3.97
327.2	4.36
327.573	4.07
327.945	4.55
328.318	4.03
328.691	4.31
329.063	4.24
329.436	4.09
329.809	4.21
330.181	4.19
330.553	3.9
330.926	4.07
331.298	4.08
331.671	3.65
332.043	4.26
332.415	3.8
332.787	4.04
333.159	4.12
333.532	4.18
333.904	4.02
334.276	4.35
334.648	3.68
335.02	4.49
335.391	3.87
335.763	4.33
336.135	4.33
336.507	4.42
336.879	4.54
337.25	4.53
337.622	4.67
337.993	4.24
338.365	4.33
338.736	4.22
339.108	4.52
339.479	4.15
339.851	3.92
340.222	4.08
340.593	3.99
340.964	3.92
341.336	4.01
341.707	4.48
342.078	4.24
342.449	4.34
342.82	4.3
343.191	4.24
343.562	4.72
343.933	3.92
344.303	4.21
344.674	4.75
345.045	4.61
345.416	4.37
345.786	4.11
346.157	4.58
346.527	4.27
346.898	4.32
347.268	4.5
347.639	4.2
348.009	4.16
348.38	4.66
348.75	4.3
349.12	4.53
349.49	4.14
349.861	4.06
350.231	4.22
350.601	4.62
350.971	4.24
351.341	4.3
351.711	4.47
352.081	3.97
352.45	4.15
352.82	3.87
353.19	4.68
353.56	4.97
353.929	4.08
354.299	3.9
354.669	4.37
355.038	4.56
355.408	4.26
355.777	4.67
356.147	4.2
356.516	4.07
356.885	4.17
357.254	4.69
357.624	4.18
357.993	4.1
358.362	4.46
358.731	4.2
359.1	4.76
359.469	4.36
359.838	4.54
360.207	4.37
360.576	4.12
360.945	4.06
361.314	4.59
361.682	4.35
362.051	4.54
362.42	4.19
362.788	4.4
363.157	4.18
363.525	4.41
363.894	4.31
364.262	4.1
364.631	4.32
364.999	4.28
365.367	4.4
365.735	4.49
366.104	4.49
366.472	4.51
366.84	4.56
367.208	4.31
367.576	4.54
367.944	4.26
368.312	4.38
368.68	4.36
369.048	4.19
369.416	4.46
369.783	4.65
370.151	4.16
370.519	4.31
370.886	4.32
371.254	4.37
371.621	4.83
371.989	4.53
372.356	4.29
372.724	4.43
373.091	4.58
373.458	4.38
373.826	4.7
374.193	4.26
374.56	4.23
374.927	4.4
375.294	4.66
375.661	4.35
376.028	4.78
376.395	4.64
376.762	4.52
377.129	4.41
377.496	4.71
377.863	4.29
378.229	4.54
378.596	4.45
378.963	4.68
379.329	4.69
379.696	4.58
380.062	4.3
380.429	4.3
380.795	4.36
381.161	4.65
381.528	5.08
381.894	4.48
382.26	4.34
382.626	4.34
382.993	4.58
383.359	4.33
383.725	4.55
384.091	4.73
384.457	4.44
384.823	4.4
385.188	4.39
385.554	4.46
385.92	4.74
386.286	4.63
386.651	4.61
387.017	4.46
387.383	4.32
387.748	4.25
388.114	4.33
388.479	4.44
388.845	4.59
389.21	4.41
389.575	4.45
389.94	4.49
390.306	4.56
390.671	4.32
391.036	4.69
391.401	4.66
391.766	4.91
392.131	4.59
392.496	4.7
392.861	4.44
393.226	4.34
393.591	4.62
393.956	4.6
394.32	4.58
394.685	4.45
395.05	4.35
395.414	4.61
395.779	4.25
396.143	4.46
396.508	4.64
396.872	4.36
397.236	4.72
397.601	4.83
397.965	4.58
398.329	4.52
398.694	4.58
399.058	4.26
399.422	4.63
399.786	4.64
400.15	4.65
400.514	4.55
400.878	4.62
401.242	4.65
401.605	4.61
401.969	4.47
402.333	4.45
402.697	4.69
403.06	4.54
403.424	4.32
403.787	4.39
404.151	4.56
404.514	4.64
404.878	4.19
405.241	4.43
405.604	4.64
405.968	4.59
406.331	4.29
406.694	4.47
407.057	4.6
407.42	4.4
407.783	4.35
408.146	4.6
408.509	4.4
408.872	4.48
409.235	4.7
409.598	4.53
409.961	4.75
410.323	4.47
410.686	4.74
411.049	4.57
411.411	4.45
411.774	4.47
412.136	4.43
412.499	4.66
412.861	4.58
413.223	4.55
413.586	4.43
413.948	4.39
414.31	4.54
414.672	4.46
415.035	4.6
415.397	4.61
415.759	4.69
416.121	4.67
416.483	4.58
416.845	4.27
417.206	4.58
417.568	4.63
417.93	4.7
418.292	4.61
418.653	4.55
419.015	4.48
419.377	4.51
419.738	4.58
420.1	4.5
420.461	4.57
420.822	4.64
421.184	4.55
421.545	4.54
421.906	4.6
422.267	4.6
422.629	4.44
422.99	4.46
423.351	4.52
423.712	4.5
424.073	4.49
424.434	4.57
424.795	4.55
425.155	4.49
425.516	4.43
425.877	4.47
426.238	4.6
426.598	4.58
426.959	4.55
427.32	4.58
427.68	4.76
428.041	4.62
428.401	4.72
428.761	4.82
429.122	4.72
429.482	4.68
429.842	4.67
430.202	4.8
430.563	4.93
430.923	4.76
431.283	4.91
431.643	4.74
432.003	4.93
432.363	4.82
432.722	4.83
433.082	4.72
433.442	5.05
433.802	4.77
434.161	4.78
434.521	4.77
434.881	4.83
435.24	4.85
435.6	4.95
435.959	4.82
436.319	4.87
436.678	4.86
437.037	4.99
437.396	5.01
437.756	4.9
438.115	4.71
438.474	4.9
438.833	4.94
439.192	4.88
439.551	4.85
439.91	4.91
440.269	4.9
440.628	4.86
440.987	4.88
441.345	4.92
441.704	4.96
442.063	5
442.421	4.98
442.78	4.89
443.138	4.88
443.497	4.91
443.855	5.01
444.214	5.08
444.572	5.19
444.93	5.03
445.288	4.96
445.647	4.98
446.005	4.95
446.363	5.03
446.721	5.08
447.079	4.93
447.437	4.96
447.795	4.97
448.153	4.94
448.51	4.96
448.868	4.99
449.226	4.98
449.584	5.01
449.941	4.99
450.299	4.98
450.656	5.03
451.014	5.19
451.371	5.11
451.729	5
452.086	5.24
452.443	5.27
452.801	5.07
453.158	4.98
453.515	5.09
453.872	5.22
454.229	5.19
454.586	5.12
454.943	5.21
455.3	5.31
455.657	5.15
456.014	5.35
456.371	5.31
456.727	5.22
457.084	5.17
457.441	5.22
457.797	5.17
458.154	5.37
458.51	5.26
458.867	5.29
459.223	5.28
459.58	5.19
459.936	5.2
460.292	5.26
460.648	5.25
461.005	5.26
461.361	5.21
461.717	5.26
462.073	5.2
462.429	5.13
462.785	5.26
463.141	5.28
463.496	5.28
463.852	5.4
464.208	5.35
464.564	5.34
464.919	5.34
465.275	5.29
465.631	5.21
465.986	5.51
466.342	5.38
466.697	5.5
467.052	5.44
467.408	5.58
467.763	5.39
468.118	5.44
468.473	5.45
468.829	5.28
469.184	5.34
469.539	5.43
469.894	5.46
470.249	5.51
470.603	5.51
470.958	5.43
471.313	5.34
471.668	5.41
472.023	5.44
472.377	5.38
472.732	5.53
473.086	5.51
473.441	5.45
473.795	5.51
474.15	5.39
474.504	5.61
474.859	5.48
475.213	5.49
475.567	5.54
475.921	5.63
476.275	5.45
476.63	5.38
476.984	5.61
477.338	5.4
477.692	5.63
478.045	5.57
478.399	5.3
478.753	5.49
479.107	5.56
479.461	5.44
479.814	5.57
480.168	5.54
480.521	5.54
480.875	5.48
481.228	5.66
481.582	5.63
481.935	5.5
482.289	5.45
482.642	5.59
482.995	5.57
483.348	5.35
483.701	5.45
484.055	5.55
484.408	5.4
484.761	5.34
485.114	5.23
485.466	5.15
485.819	5.17
486.172	5.25
486.525	5.35
486.878	5.4
487.23	5.45
487.583	5.47
487.936	5.42
488.288	5.42
488.641	5.34
488.993	5.36
489.345	5.34
489.698	5.32
490.05	5.39
490.402	5.49
490.754	5.52
491.107	5.5
491.459	5.64
491.811	5.5
492.163	5.62
492.515	5.61
492.866	5.44
493.218	5.38
493.57	5.41
493.922	5.47
494.274	5.56
494.625	5.64
494.977	5.65
495.328	5.73
495.68	5.82
496.031	5.76
496.383	5.77
496.734	5.76
497.086	5.77
497.437	5.84
497.788	5.82
498.139	5.71
498.49	5.77
498.842	5.71
499.193	5.78
499.544	5.76
499.894	5.89
500.245	5.77
500.596	5.79
500.947	5.97
501.298	5.9
501.648	5.96
501.999	5.84
502.35	5.85
502.7	5.96
503.051	5.93
503.401	5.85
503.752	6.06
504.102	5.96
504.452	5.97
504.803	5.87
505.153	5.97
505.503	5.89
505.853	5.9
506.203	6.03
506.553	6.03
506.903	6.05
507.253	5.97
507.603	6.04
507.953	5.97
508.303	6.09
508.652	6
509.002	6.11
509.352	5.96
509.701	5.92
510.051	6.01
510.4	6.08
510.75	6.01
511.099	6.02
511.449	6.12
511.798	6.07
512.147	6.08
512.496	6.03
512.846	6.12
513.195	5.99
513.544	6.04
513.893	5.97
514.242	6.02
514.591	5.94
514.939	6.11
515.288	6.18
515.637	6.18
515.986	6.32
516.334	6.16
516.683	6.19
517.032	6.24
517.38	6.24
517.729	6.19
518.077	6.27
518.426	6.18
518.774	6.14
519.122	6.18
519.47	6.1
519.819	6.09
520.167	6.13
520.515	6.05
520.863	6.08
521.211	6.15
521.559	6.21
521.907	6.3
522.255	6.26
522.602	6.33
522.95	6.31
523.298	6.45
523.645	6.38
523.993	6.39
524.341	6.32
524.688	6.39
525.036	6.28
525.383	6.37
525.73	6.41
526.078	6.42
526.425	6.35
526.772	6.36
527.119	6.34
527.466	6.26
527.814	6.21
528.161	6.27
528.508	6.37
528.854	6.34
529.201	6.36
529.548	6.21
529.895	6.17
530.242	6.07
530.588	6.12
530.935	6.18
531.282	6.27
531.628	6.32
531.975	6.37
532.321	6.4
532.667	6.48
533.014	6.46
533.36	6.58
533.706	6.5
534.052	6.53
534.399	6.39
534.745	6.34
535.091	6.4
535.437	6.4
535.783	6.49
536.129	6.54
536.474	6.68
536.82	6.71
537.166	6.63
537.512	6.66
537.857	6.72
538.203	6.55
538.549	6.61
538.894	6.57
539.239	6.61
539.585	6.66
539.93	6.8
540.276	6.78
540.621	6.93
540.966	6.78
541.311	6.83
541.656	6.89
542.001	6.89
542.346	6.72
542.691	6.63
543.036	6.55
543.381	6.64
543.726	6.62
544.071	6.76
544.415	6.82
544.76	6.85
545.105	6.82
545.449	6.79
545.794	6.94
546.138	6.86
546.483	6.92
546.827	6.99
547.171	7.06
547.516	7
547.86	7.04
548.204	7.05
548.548	7
548.892	7.04
549.236	7.07
549.58	7.14
549.924	7.24
550.268	7.29
550.612	7.42
550.956	7.37
551.3	7.18
551.643	7.23
551.987	7.38
552.33	7.53
552.674	7.39
553.017	7.52
553.361	7.36
553.704	7.46
554.048	7.39
554.391	7.23
554.734	7.35
555.077	7.42
555.42	7.55
555.764	7.63
556.107	7.38
556.45	7.54
556.793	7.67
557.135	7.61
557.478	7.58
557.821	7.58
558.164	7.63
558.507	7.55
558.849	7.74
559.192	7.58
559.534	7.92
559.877	7.74
560.219	7.74
560.562	7.7
560.904	7.88
561.246	7.79
561.589	7.83
561.931	7.73
562.273	7.84
562.615	7.87
562.957	7.8
563.299	7.8
563.641	7.97
563.983	7.81
564.325	7.7
564.667	7.86
565.008	7.85
565.35	8.15
565.692	8.02
566.033	8.09
566.375	8.06
566.716	7.93
567.058	8.03
567.399	8.06
567.741	8.06
568.082	8.1
568.423	8
568.764	8.16
569.105	8.21
569.447	8.19
569.788	8.31
570.129	8.26
570.47	8.24
570.811	8.32
571.151	8.18
571.492	8.31
571.833	8.37
572.174	8.22
572.514	8.46
572.855	8.34
573.195	8.31
573.536	8.46
573.876	8.25
574.217	8.49
574.557	8.34
574.898	8.65
575.238	8.49
575.578	8.54
575.918	8.34
576.258	8.42
576.598	8.6
576.938	8.55
577.278	8.59
577.618	8.55
577.958	8.55
578.298	8.58
578.638	8.68
578.977	8.74
579.317	9.07
579.657	9.02
579.996	8.94
580.336	8.7
580.675	8.98
581.014	8.79
581.354	9.13
581.693	8.94
582.032	8.89
582.372	8.9
582.711	9.15
583.05	8.95
583.389	9.16
583.728	9.19
584.067	9.37
584.406	9.4
584.745	9.34
585.083	9.15
585.422	9.26
585.761	9.24
586.1	9.52
586.438	9.25
586.777	9.21
587.115	9.68
587.454	9.18
587.792	9.53
588.13	9.54
588.469	9.4
588.807	9.31
589.145	9.57
589.483	9.55
589.821	9.51
590.159	9.55
590.497	9.36
590.835	9.77
591.173	9.42
591.511	9.57
591.849	9.69
592.187	9.65
592.524	9.66
592.862	9.69
593.2	9.71
593.537	9.57
593.875	10.01
594.212	9.76
594.55	9.86
594.887	10.08
595.224	9.9
595.561	10.06
595.899	9.95
596.236	9.79
596.573	9.77
596.91	10.02
597.247	10
597.584	10.02
597.921	9.71
598.258	10
598.594	9.9
598.931	10.02
599.268	9.99
599.604	10.02
599.941	10.29
600.277	10.28
600.614	10.19
600.95	10.26
601.287	10.18
601.623	10.38
601.959	10.26
602.296	10.45
602.632	10.52
602.968	10.4
603.304	10.64
603.64	10.73
603.976	10.65
604.312	10.53
604.648	10.57
604.984	10.21
605.319	10.43
605.655	10.29
605.991	10.52
606.326	10.55
606.662	10.5
606.998	10.5
607.333	10.71
607.668	10.72
608.004	10.86
608.339	10.8
608.674	11.04
609.01	10.86
609.345	11.13
609.68	10.71
610.015	10.81
610.35	10.87
610.685	10.91
611.02	10.85
611.355	10.97
611.689	10.91
612.024	11.06
612.359	10.95
612.694	11.43
613.028	11.3
613.363	11.23
613.697	11.05
614.032	11.21
614.366	11.22
614.7	11.28
615.035	11.5
615.369	11.22
615.703	11.43
616.037	11.32
616.371	11.42
616.705	11.76
617.039	11.87
617.373	11.46
617.707	11.76
618.041	11.87
618.375	11.51
618.709	11.73
619.042	11.81
619.376	11.71
619.71	11.7
620.043	11.68
620.377	11.85
620.71	12.27
621.043	11.88
621.377	12.01
621.71	11.63
622.043	12.04
622.376	12.17
622.709	11.82
623.043	12.05
623.376	11.84
623.709	11.56
624.041	12.22
624.374	12.03
624.707	12.09
625.04	12.38
625.373	12.17
625.705	12.25
626.038	12.12
626.37	12.24
626.703	12.4
627.035	12.18
627.368	12.15
627.7	12.47
628.032	12.35
628.365	12.58
628.697	12.49
629.029	12.56
629.361	12.43
629.693	12.64
630.025	12.83
630.357	12.49
630.689	12.35
631.021	12.36
631.353	13.05
631.684	12.95
632.016	12.84
632.348	12.45
632.679	13.02
633.011	12.74
633.342	13
633.674	12.74
634.005	12.61
634.336	13.18
634.668	13.06
634.999	13.12
635.33	12.8
635.661	12.96
635.992	13.31
636.323	12.92
636.654	13.27
636.985	13.24
637.316	13.41
637.647	13.27
637.977	13.39
638.308	13.12
638.639	13.28
638.969	13.08
639.3	13.51
639.63	13.23
639.961	13.45
640.291	13.96
640.622	13.39
640.952	13.59
641.282	13.63
641.612	13.8
641.943	14.02
642.273	13.86
642.603	13.3
642.933	13.76
643.263	13.38
643.592	13.38
643.922	13.68
644.252	14.12
644.582	14.16
644.911	13.89
645.241	13.74
645.571	13.66
645.9	13.69
646.23	14.23
646.559	14.03
646.888	14.03
647.218	14.13
647.547	14.69
647.876	14.33
648.205	14.29
648.534	13.98
648.863	14.32
649.192	14.26
649.521	14.05
649.85	14.36
650.179	14.41
650.508	14.48
650.837	14.12
651.165	14.01
651.494	14.57
651.822	14.35
652.151	15.06
652.479	14.59
652.808	14.88
653.136	14.76
653.465	14.62
653.793	14.63
654.121	14.8
654.449	14.29
654.777	14.51
655.105	14.85
655.433	14.25
655.761	15.07
656.089	14.81
656.417	14.83
656.745	15.01
657.073	14.6
657.4	15.21
657.728	15.64
658.056	15.03
658.383	14.71
658.711	14.95
659.038	15.33
659.365	15.43
659.693	15.2
660.02	15.03
660.347	15.09
660.674	15.17
661.001	15.3
661.329	15.42
661.656	15.3
661.982	15.55
662.309	15.51
662.636	15.71
662.963	15.48
663.29	15.29
663.616	15.44
663.943	15.57
664.27	15.89
664.596	15.29
664.923	14.83
665.249	15.21
665.576	15.91
665.902	15.7
666.228	15.1
666.554	16.06
666.881	15.83
667.207	15.19
667.533	16.26
667.859	15
668.185	14.93
668.511	15.55
668.837	15.75
669.162	15.98
669.488	16.64
669.814	16.13
670.139	16.33
670.465	16.3
670.791	16.05
671.116	16.05
671.442	16.57
671.767	16.09
672.092	16.04
672.418	16.19
672.743	16.05
673.068	16.7
673.393	16.88
673.718	16.17
674.043	15.82
674.368	16.42
674.693	16.93
675.018	16.8
675.343	16.43
675.667	16.66
675.992	16.19
676.317	16.32
676.641	16.88
676.966	16.44
677.29	16.56
677.615	16.12
677.939	17.05
678.264	16.8
678.588	16.56
678.912	16.45
679.236	16.3
679.56	16.35
679.885	16.82
680.209	16.07
680.532	16.57
680.856	16.84
681.18	16.72
681.504	16.89
681.828	17.06
682.152	17.1
682.475	17.37
682.799	17.27
683.122	17.31
683.446	17.74
683.769	17.68
684.093	16.94
684.416	17.38
684.739	17.87
685.062	17.66
685.386	17.44
685.709	17.83
686.032	17.79
686.355	17.2
686.678	17.14
687.001	17.61
687.324	17.89
687.646	18.26
687.969	18.05
688.292	17.82
688.614	17.47
688.937	16.81
689.26	17.81
689.582	17.9
689.904	17.24
690.227	17.97
690.549	18.96
690.871	18.19
691.194	18.32
691.516	17.88
691.838	17.04
692.16	17.27
692.482	18.48
692.804	17.83
693.126	17.34
693.448	18.47
693.769	18.3
694.091	18.76
694.413	17.78
694.735	18.87
695.056	18.37
695.378	18.19
695.699	18.42
696.021	18.96
696.342	18.74
696.663	18.38
696.984	19.62
697.306	18.21
697.627	18.8
697.948	18.35
698.269	19.46
698.59	18.56
698.911	19.14
699.232	18.76
699.553	19.29
699.873	19.02
700.194	18.46
700.515	19.02
700.835	18.46
701.156	19.02
701.477	18.76
701.797	18.52
702.117	19.05
702.438	19.27
702.758	19.66
703.078	18.91
703.398	19.1
703.719	18.7
704.039	19.04
704.359	19.6
704.679	18.91
704.999	19.8
705.319	19.16
705.638	19.54
705.958	19.14
706.278	19.53
706.597	19.45
706.917	19.72
707.237	19.49
707.556	18.76
707.876	19.88
708.195	19.52
708.514	19.02
708.834	19.48
709.153	19.94
709.472	19.67
709.791	19.54
710.11	19.9
710.429	19.75
710.748	19.32
711.067	20.3
711.386	19.9
711.705	19.2
712.023	20.31
712.342	20.46
712.661	20.23
712.979	20.51
713.298	20.69
713.616	19.61
713.935	20.59
714.253	18.81
714.572	20.5
714.89	19.96
715.208	20.95
715.526	20.88
715.844	19.77
716.162	20.09
716.48	20.45
716.798	20.03
717.116	19.99
717.434	20.81
717.752	20.78
718.069	20
718.387	20.56
718.705	20.41
719.022	20.66
719.34	19.64
719.657	20.42
719.975	21.56
720.292	22.25
720.609	20.68
720.927	20.83
721.244	20.29
721.561	19.49
721.878	21.43
722.195	21.38
722.512	20.97
722.829	21
723.146	19.99
723.463	21.61
723.779	19.73
724.096	21.73
724.413	21.09
724.729	20.06
725.046	19.76
725.362	20.72
725.679	21.1
725.995	21.16
726.311	21.05
726.628	20.3
726.944	21.36
727.26	20.96
727.576	20.98
727.892	22.05
728.208	20.93
728.524	21.32
728.84	22.12
729.156	21.73
729.472	21.86
729.787	21.53
730.103	21.18
730.419	20.4
730.734	21.94
731.05	22.57
731.365	20.64
731.681	21.35
731.996	21.4
732.311	21.98
732.626	20.5
732.942	21.32
733.257	21.41
733.572	21.2
733.887	21.14
734.202	22.3
734.517	23.07
734.832	21.95
735.146	22.23
735.461	21.74
735.776	22.1
736.091	21.6
736.405	21.27
736.72	21.46
737.034	22.22
737.349	21.15
737.663	22.98
737.977	21.91
738.292	22.48
738.606	22.74
738.92	23.25
739.234	24.17
739.548	22.41
739.862	20.69
740.176	22.16
740.49	22.52
740.804	22.17
741.117	23.01
741.431	21.31
741.745	22.99
742.058	24.28
742.372	21.16
742.685	23.26
742.999	22.53
743.312	22.9
743.626	21.56
743.939	23.05
744.252	23.38
744.565	21.76
744.878	22.99
745.191	21.58
745.505	23.09
745.817	21.9
746.13	20.74
746.443	22.99
746.756	21.83
747.069	21.7
747.381	22.19
747.694	24.24
748.007	22.25
748.319	22.75
748.632	22.82
748.944	23.99
749.256	22.4
749.569	22.34
749.881	21.04
750.193	22.64
750.505	23.17
750.817	23.35
751.129	22.85
751.441	23.19
751.753	22.64
752.065	22.58
752.377	22.77
752.689	24.72
753	23.25
753.312	24.53
753.624	24.31
753.935	22.04
754.247	23.71
754.558	22.26
754.869	25.48
755.181	24.19
755.492	22.65
755.803	23.62
756.114	24.11
756.425	23.61
756.736	23.77
757.047	25.93
757.358	26.04
757.669	23.77
757.98	23.94
758.291	24.06
758.601	25.61
758.912	24.33
759.223	25.07
759.533	22.91
759.844	23.11
760.154	24.08
760.464	25.63
760.775	23.88
761.085	23.27
761.395	24.88
761.705	24.39
762.016	23.25
762.326	24.35
762.636	23.82
762.945	25.15
763.255	24.12
763.565	22.14
763.875	25.15
764.185	23.13
764.494	24.76
764.804	24.09
765.113	25.13
765.423	25.79
765.732	23.83
766.042	23.99
766.351	25.02
766.66	24.78
766.97	24.48
767.279	26.33
767.588	25.45
767.897	25.58
768.206	23.86
768.515	25.66
768.824	25.25
769.133	24.89
769.441	25.29
769.75	23.6
770.059	25.08
770.367	26.38
770.676	25.22
770.984	25.81
771.293	26.83
771.601	26.47
771.91	25.24
772.218	24.6
772.526	27.12
772.834	25.68
773.142	24.37
773.45	26.49
773.758	25.58
774.066	23.8
774.374	21.94
774.682	26.81
774.99	24.91
775.298	23.68
775.605	24.82
775.913	25.33
776.22	24.56
776.528	28.99
776.835	25.91
777.143	22.19
777.45	23.9
777.757	24.25
778.065	25.48
778.372	24.19
778.679	25.06
778.986	22.95
779.293	24.35
779.6	25.38
779.907	23.84
780.214	27.98
780.52	25.82
780.827	26.97
781.134	26.47
781.44	23.06
781.747	24.88
782.053	29.26
782.36	25.71
782.666	27.62
782.973	25.22
783.279	25.03
783.585	24.45
783.891	27.24
784.197	27.79
784.503	26.59
784.809	26.22
785.115	27.66
785.421	22.37
785.727	25.89
786.033	24.32
786.339	24.02
786.644	27.51
786.95	23.68
787.255	29.81
787.561	25.62
787.866	30.96
788.172	24.47
788.477	25.37
788.782	24.6
789.088	23.63
789.393	26.58
789.698	25.81
790.003	28.95
790.308	25.96
790.613	26.86
790.918	26.82
791.223	23.06
791.527	26.87
791.832	28.38
792.137	28.06
792.441	29.34
792.746	25.14
793.05	28.4
793.355	24.04
793.659	26.26
793.963	28.66
794.268	25.17
794.572	25.91
794.876	26.41
795.18	28.46
795.484	23.52
795.788	25.56
796.092	24.72
796.396	25.57
796.7	24.75
797.004	24.29
797.307	24.17
797.611	26.59
797.915	25.8
798.218	24.65
798.522	24.96
798.825	28.54
799.128	28.07
799.432	26.33
799.735	24.56
800.038	23.61
800.341	27.34
800.644	21.84
800.947	26.93
801.25	29.54
801.553	26.7
801.856	27.09
802.159	23.32
802.462	29.91
802.764	29.75
803.067	29.55
803.37	27.83
803.672	23.69
803.975	28.99
804.277	26.78
804.579	29.13
804.882	28.15
805.184	27.83
805.486	21.95
805.788	25.52
806.09	26.88
806.392	29.44
806.694	25.44
806.996	24.23
807.298	30.43
807.6	27.72
807.902	26.37
808.203	25.66
808.505	29.25
808.807	29.43
809.108	29.24
809.409	29.26
809.711	25.73
810.012	27.66
810.313	31.89
810.615	24.67
810.916	23.98
811.217	27.27
811.518	25.15
811.819	27.03
812.12	27.68
812.421	27.26
812.722	25.73
813.023	25.24
813.323	27.39
813.624	27.52
813.925	25.34
814.225	25.53
814.526	26.28
814.826	34.73
815.126	32.81
815.427	24.43
815.727	28.93
816.027	24.56
816.327	29.2
816.627	26.12
816.927	30.5
817.227	26.83
817.527	30.08
817.827	25.75
818.127	27.13
818.427	25.37
818.727	31.16
819.026	30.5
819.326	26.84
819.625	34.5
819.925	22.55
820.224	30.89
820.524	31.63
820.823	30.68
821.122	28.51
821.421	25.51
821.72	26.16
822.019	29.25
822.318	28.17
822.617	29.33
822.916	31.61
823.215	29.59
823.514	28.66
823.813	30.22
824.111	30.63
824.41	28.47
824.709	29.13
825.007	29.96
825.306	28.64
825.604	29.99
825.902	29.94
826.201	30.28
826.499	30.02
826.797	30.58
827.095	31.29
827.393	31.49
827.691	30.85
827.989	30.24
828.287	31.19
828.585	31.24
828.882	32.84
829.18	31.47
829.478	29.96
829.775	30.39
830.073	30.43
830.37	31.11
830.668	31.46
830.965	30.44
831.263	29.18
831.56	29.5
831.857	32.03
832.154	27.89
832.451	31.57
832.748	31.56
833.045	28.47
833.342	30.91
833.639	28.95
833.936	27.38
834.232	28.57
834.529	31.96
834.826	23.56
835.122	25.74
835.419	29.55
835.715	33.5
836.012	28.41
836.308	30.43
836.604	30.87
836.901	29.23
837.197	28.99
837.493	29.6
837.789	32.36
838.085	30.49
838.381	27.53
838.677	32.34
838.972	28.47
839.268	30.31
839.564	30.83
839.86	21.81
840.155	31.58
840.451	30.6
840.746	33.8
841.042	26
841.337	25.51
841.632	27.09
841.928	30.94
842.223	30.39
842.518	32.64
842.813	32.18
843.108	23.11
843.403	24.06
843.698	30.57
843.993	35.06
844.287	28.94
844.582	35.74
844.877	25.39
845.171	35.86
845.466	27.84
845.761	33.48
846.055	38.26
846.349	27.24
846.644	30.76
846.938	25.2
847.232	30.32
847.526	31.96
847.82	20.49
848.114	19.58
848.408	24.38
848.702	21.42
848.996	23.43
849.29	24.39
849.584	19.69
849.877	36.58
850.171	34.5
850.465	29.82
850.758	32.31
851.052	25.38
851.345	21.64
851.638	28.52
851.932	38.28
852.225	13.26
852.518	30.65
852.811	32.55
853.104	13.81
853.397	37.7
853.69	35.42
853.983	30.12
854.276	29.83
854.569	26.35
854.861	28.16
855.154	23.95
855.447	12.44
855.739	25.31
856.032	19.68
856.324	10.36
856.616	10.51
856.909	42.97
857.201	15.6
857.493	23.32
857.785	35.38
858.077	26.5
858.369	3.24
858.661	31.82
858.953	23.45
859.245	57.1
859.537	21.08
859.829	25.14
860.12	15.66
860.412	34.59
860.703	17.76
860.995	4.89
861.286	25.85
861.578	23.43
861.869	27.59
862.16	24.7
862.452	23.08
862.743	38.73
863.034	44.49
863.325	10.2
863.616	17.49
863.907	20.89
864.198	4.7
864.488	34.62
864.779	21.49
865.07	-21.11
865.36	30.25
865.651	39.17
865.941	10.83
866.232	49.14
866.522	44.63
866.813	40.6
867.103	35.67
867.393	28.03
867.683	21.26
867.973	28.41
868.263	23.01
868.553	23.79
868.843	29.54
869.133	17.12
869.423	15.71
869.713	5.67
870.002	25.46
870.292	42.6
870.582	26.32
870.871	22.15
871.161	23.83
871.45	33.79
871.739	12.51
872.029	20.86
872.318	30.84
872.607	18.95
872.896	17.92
873.185	40.25
873.474	23.86
873.763	55.89
874.052	11.56
874.341	16.33
874.63	3.97
874.918	41.51
875.207	1.03
875.496	31.67
875.784	27.59
876.073	15.25
876.361	39.9
876.649	12.96
876.938	42.05
877.226	24.13
877.514	24.91
877.802	26.41
878.09	40.35
878.378	46.28
878.666	35.2
878.954	23.98
879.242	36.22
879.53	47.27
879.817	35.2
880.105	-3.23
880.392	36.14
880.68	1.55
880.967	23.23
881.255	11.2
881.542	25.39
881.83	18.11
882.117	26.01
882.404	14.65
882.691	18.23
882.978	43.22
883.265	34.25
883.552	15.17
883.839	30.13
884.126	30.89
884.413	30.43
884.699	36.33
884.986	31.9
885.273	34.63
885.559	34.63
885.846	34.63
