Data from 0069_chest_Reflection__0__299.txt Node

Date: Fri Dec 16 16:30:20 CST 2022
User: ToomeyLab
Spectrometer: FLMS14357
Trigger mode: 0
Integration Time (sec): 1.000000E-2
Scans to average: 100
Electric dark correction enabled: true
Nonlinearity correction enabled: false
Boxcar width: 0
XAxis mode: Wavelengths
Number of Pixels in Spectrum: 2048
>>>>>Begin Spectral Data<<<<<
189.047	108.76
189.435	108.76
189.823	108.76
190.211	-26.18
190.599	48.56
190.987	353.26
191.375	-22.54
191.763	55.45
192.151	450.56
192.538	-63.28
192.926	77.3
193.314	91.27
193.702	-5.65
194.089	-4.44
194.477	491.12
194.864	111.29
195.252	-7.43
195.639	70.61
196.027	-458.72
196.414	67.85
196.801	1049.44
197.189	66.36
197.576	-60.52
197.963	-22.02
198.351	24.65
198.738	-55.92
199.125	31.56
199.512	-3.28
199.899	-58.48
200.286	-81.19
200.673	8
201.06	25.94
201.447	14.87
201.833	29.81
202.22	14.37
202.607	-23.11
202.994	-9.06
203.38	-50.03
203.767	-49.02
204.154	-50.65
204.54	-2.48
204.927	-10.66
205.313	8.01
205.699	11.39
206.086	-30.8
206.472	-5.51
206.858	4.56
207.245	-23.78
207.631	-87.88
208.017	11.45
208.403	18.12
208.789	19.61
209.175	27.41
209.561	-1.32
209.947	4.13
210.333	-35.84
210.719	-6.92
211.105	-151.57
211.491	11
211.876	-11.88
212.262	-25.97
212.648	-48.59
213.034	-16.22
213.419	43.83
213.805	2.6
214.19	16.33
214.576	-46.83
214.961	-44.97
215.346	-46.52
215.732	-59.45
216.117	-51.13
216.502	-31.98
216.888	-45.97
217.273	-0.35
217.658	-3.85
218.043	3.14
218.428	-28.2
218.813	-35.33
219.198	-44.68
219.583	-9.07
219.968	-19.6
220.353	-11.91
220.738	-0.08
221.122	-27.58
221.507	-21.78
221.892	-14.96
222.276	-5.18
222.661	-33.65
223.046	-10.78
223.43	-14.12
223.815	-3.38
224.199	-4.41
224.583	-0.21
224.968	-3.48
225.352	-14.08
225.736	6.82
226.121	-10.37
226.505	-2.96
226.889	3.48
227.273	-6.29
227.657	-5.43
228.041	-5.05
228.425	4.32
228.809	2.67
229.193	-0.23
229.577	-0.31
229.961	2.84
230.344	1.43
230.728	1.64
231.112	1.61
231.495	0.13
231.879	1.02
232.263	0.82
232.646	1.25
233.03	-0.1
233.413	0.31
233.797	1.46
234.18	-0.75
234.563	-0.36
234.946	0.02
235.33	0.72
235.713	2.9
236.096	1.11
236.479	1.81
236.862	2.54
237.245	1
237.628	1.61
238.011	2.77
238.394	2.31
238.777	0.34
239.16	-0.57
239.543	0.48
239.925	0.11
240.308	-0.63
240.691	0.22
241.073	1.2
241.456	1.67
241.838	1.76
242.221	2.33
242.603	1.66
242.986	2.36
243.368	1.85
243.75	1.36
244.133	1.65
244.515	1.7
244.897	1.57
245.279	1.2
245.661	1.13
246.043	0.2
246.425	1.12
246.807	0.87
247.189	1.75
247.571	2.18
247.953	1.89
248.335	2.05
248.717	2.07
249.098	2.18
249.48	1.38
249.862	1.95
250.243	1.72
250.625	1.95
251.006	1.72
251.388	2.69
251.769	1.64
252.151	1.61
252.532	2.12
252.913	1.98
253.295	2
253.676	1.86
254.057	1.58
254.438	0.7
254.819	1.05
255.2	1.47
255.581	0.66
255.962	1.59
256.343	1.64
256.724	1.39
257.105	1.56
257.486	1.87
257.867	1.3
258.247	1.67
258.628	2.42
259.009	1.28
259.389	1.42
259.77	1.95
260.15	2.09
260.531	1.8
260.911	1.71
261.292	1.76
261.672	1.62
262.052	1.71
262.432	1.53
262.813	2.04
263.193	1.71
263.573	1.86
263.953	1.53
264.333	1.67
264.713	1.23
265.093	1.65
265.473	2.22
265.853	1.27
266.233	0.44
266.612	1.39
266.992	0.93
267.372	1.67
267.752	1.53
268.131	1.76
268.511	1.6
268.89	1.31
269.27	2.37
269.649	1.77
270.029	2.06
270.408	1.25
270.787	1.54
271.167	1.93
271.546	1.46
271.925	1.37
272.304	1.37
272.683	1.49
273.062	2.15
273.441	1.52
273.82	2.14
274.199	2.05
274.578	1.43
274.957	1.79
275.336	1.8
275.715	1.84
276.093	2.19
276.472	1.79
276.851	1.92
277.229	2.26
277.608	1.05
277.986	1.78
278.365	1.39
278.743	1.82
279.122	0.76
279.5	1.06
279.878	0.84
280.257	1.2
280.635	0.59
281.013	1.87
281.391	1.48
281.769	1.53
282.147	1.82
282.525	1.91
282.903	1.99
283.281	1.52
283.659	1.54
284.037	1.74
284.415	1.87
284.792	1.59
285.17	1.12
285.548	1.81
285.925	1.82
286.303	1.61
286.68	1.71
287.058	1.53
287.435	1.23
287.813	1.69
288.19	1.88
288.567	1.42
288.945	1.61
289.322	1.8
289.699	1.38
290.076	2.33
290.453	1.5
290.83	1.81
291.207	1.66
291.584	1.64
291.961	1.78
292.338	1.75
292.715	1.71
293.092	1.87
293.469	1.76
293.845	1.78
294.222	1.47
294.599	2.02
294.975	1.97
295.352	1.25
295.728	1.68
296.105	1.38
296.481	2.25
296.858	1.65
297.234	1.42
297.61	1.95
297.986	2.19
298.363	1.47
298.739	1.85
299.115	1.57
299.491	1.66
299.867	1.97
300.243	1.77
300.619	0.94
300.995	1.77
301.371	1.73
301.746	1.64
302.122	1.7
302.498	1.29
302.874	1.55
303.249	1.85
303.625	1.35
304	1.38
304.376	1.79
304.751	1.58
305.127	1.95
305.502	2.14
305.878	1.71
306.253	1.53
306.628	1.81
307.003	1.63
307.378	1.76
307.754	1.7
308.129	1.46
308.504	1.55
308.879	1.92
309.254	1.85
309.629	1.71
310.003	1.94
310.378	1.97
310.753	1.91
311.128	1.48
311.502	1.63
311.877	1.79
312.252	1.75
312.626	1.82
313.001	1.33
313.375	1.81
313.75	1.49
314.124	2.34
314.498	1.44
314.873	1.56
315.247	1.43
315.621	2.25
315.995	2.2
316.369	1.75
316.743	2.54
317.117	1.6
317.491	1.72
317.865	1.43
318.239	2.42
318.613	1.25
318.987	1.36
319.361	1.7
319.734	1.78
320.108	1.84
320.482	1.8
320.855	1.76
321.229	2.19
321.602	1.78
321.976	1.66
322.349	0.88
322.723	0.86
323.096	1.35
323.469	1.44
323.843	1.68
324.216	0.91
324.589	1.98
324.962	1.58
325.335	1.52
325.708	1.84
326.081	2.4
326.454	1.71
326.827	1.43
327.2	2.36
327.573	1.65
327.945	1.96
328.318	1.98
328.691	1.6
329.063	1.21
329.436	1.6
329.809	1.55
330.181	1.97
330.553	2.35
330.926	1.97
331.298	1.56
331.671	1.48
332.043	1.63
332.415	2.4
332.787	2.49
333.159	1.73
333.532	1.61
333.904	1.92
334.276	2.1
334.648	1.85
335.02	1.43
335.391	1.78
335.763	1.67
336.135	1.77
336.507	1.83
336.879	2.46
337.25	2.26
337.622	2.02
337.993	2.22
338.365	1.84
338.736	1.54
339.108	1.57
339.479	1.47
339.851	2.11
340.222	1.86
340.593	1.62
340.964	2.08
341.336	1.54
341.707	1.41
342.078	1.07
342.449	1.77
342.82	1.51
343.191	1.72
343.562	2.14
343.933	1.7
344.303	1.74
344.674	1.72
345.045	2.27
345.416	1.88
345.786	1.55
346.157	1.92
346.527	1.26
346.898	1.73
347.268	1.65
347.639	1.81
348.009	2.17
348.38	2.34
348.75	1.78
349.12	1.81
349.49	1.84
349.861	2.37
350.231	2.35
350.601	1.93
350.971	1.79
351.341	1.85
351.711	1.88
352.081	1.87
352.45	2.27
352.82	1.9
353.19	1.98
353.56	1.85
353.929	2.12
354.299	1.96
354.669	2.07
355.038	2.1
355.408	2.14
355.777	1.87
356.147	1.58
356.516	1.79
356.885	1.89
357.254	2.06
357.624	1.97
357.993	1.65
358.362	2.22
358.731	1.88
359.1	2.05
359.469	2.04
359.838	2.04
360.207	1.76
360.576	1.79
360.945	1.64
361.314	2.1
361.682	1.58
362.051	1.71
362.42	2.21
362.788	2.19
363.157	1.58
363.525	1.79
363.894	1.7
364.262	1.79
364.631	2.42
364.999	1.73
365.367	2.27
365.735	1.51
366.104	1.72
366.472	2.29
366.84	2.25
367.208	1.85
367.576	2.1
367.944	2.31
368.312	1.67
368.68	2.1
369.048	2.02
369.416	1.77
369.783	2.16
370.151	2.08
370.519	1.75
370.886	2.11
371.254	2.13
371.621	1.97
371.989	2.05
372.356	1.84
372.724	2.24
373.091	1.95
373.458	1.88
373.826	1.88
374.193	2.11
374.56	1.85
374.927	1.83
375.294	2.13
375.661	2.1
376.028	1.77
376.395	1.83
376.762	2.19
377.129	2.26
377.496	2.19
377.863	2.09
378.229	1.74
378.596	2.06
378.963	2.01
379.329	1.91
379.696	2.02
380.062	2.15
380.429	1.99
380.795	2.07
381.161	1.89
381.528	1.6
381.894	2.11
382.26	2
382.626	1.92
382.993	1.86
383.359	1.94
383.725	2.01
384.091	1.93
384.457	2.11
384.823	1.62
385.188	2.03
385.554	2.15
385.92	1.98
386.286	2.17
386.651	1.87
387.017	2.26
387.383	1.8
387.748	1.77
388.114	2.17
388.479	2.12
388.845	2.09
389.21	1.94
389.575	2.07
389.94	1.93
390.306	2.01
390.671	2.29
391.036	2.16
391.401	2.4
391.766	2.07
392.131	1.93
392.496	1.99
392.861	1.8
393.226	2.19
393.591	2.11
393.956	2
394.32	1.82
394.685	2.26
395.05	2.14
395.414	2.12
395.779	2.02
396.143	2.19
396.508	2.2
396.872	2.12
397.236	1.74
397.601	2.02
397.965	1.92
398.329	2.31
398.694	1.95
399.058	1.94
399.422	2
399.786	2.13
400.15	1.91
400.514	2.12
400.878	2.12
401.242	2.35
401.605	2.04
401.969	2.03
402.333	2.12
402.697	2.23
403.06	2.19
403.424	2.12
403.787	2.21
404.151	1.97
404.514	1.97
404.878	2.08
405.241	2.16
405.604	2.13
405.968	2.14
406.331	2.21
406.694	2.14
407.057	2.46
407.42	2.1
407.783	2.22
408.146	2.35
408.509	1.95
408.872	1.95
409.235	2.23
409.598	2.3
409.961	2.31
410.323	2.3
410.686	2.07
411.049	1.8
411.411	2.24
411.774	2.13
412.136	2.23
412.499	2.08
412.861	1.98
413.223	2.09
413.586	2.16
413.948	2.33
414.31	2.36
414.672	1.91
415.035	2.25
415.397	2.41
415.759	1.97
416.121	2.2
416.483	2.29
416.845	2.18
417.206	2.48
417.568	2.26
417.93	2.21
418.292	2.13
418.653	2.29
419.015	2.21
419.377	2.27
419.738	2.15
420.1	2.21
420.461	2.22
420.822	2.21
421.184	2.25
421.545	2.16
421.906	2.3
422.267	2.16
422.629	2.17
422.99	2.19
423.351	2.23
423.712	2.13
424.073	2.31
424.434	2.21
424.795	2.08
425.155	2.13
425.516	2.21
425.877	2.27
426.238	2.1
426.598	2.21
426.959	2.14
427.32	2.25
427.68	2.3
428.041	2.38
428.401	2.28
428.761	2.19
429.122	2.2
429.482	2.25
429.842	2.31
430.202	2.14
430.563	2.17
430.923	2.26
431.283	2.37
431.643	2.38
432.003	2.26
432.363	2.42
432.722	2.27
433.082	2.28
433.442	2.12
433.802	2.25
434.161	2.24
434.521	2.25
434.881	2.44
435.24	2.34
435.6	2.27
435.959	2.17
436.319	2.24
436.678	2.33
437.037	2.18
437.396	2.37
437.756	2.2
438.115	2.34
438.474	2.28
438.833	2.38
439.192	2.49
439.551	2.32
439.91	2.37
440.269	2.52
440.628	2.37
440.987	2.19
441.345	2.45
441.704	2.32
442.063	2.24
442.421	2.24
442.78	2.28
443.138	2.34
443.497	2.2
443.855	2.25
444.214	2.39
444.572	2.23
444.93	2.37
445.288	2.52
445.647	2.33
446.005	2.11
446.363	2.33
446.721	2.18
447.079	2.31
447.437	2.31
447.795	2.29
448.153	2.26
448.51	2.28
448.868	2.39
449.226	2.44
449.584	2.37
449.941	2.42
450.299	2.3
450.656	2.4
451.014	2.33
451.371	2.36
451.729	2.3
452.086	2.25
452.443	2.29
452.801	2.4
453.158	2.43
453.515	2.32
453.872	2.46
454.229	2.31
454.586	2.44
454.943	2.38
455.3	2.48
455.657	2.4
456.014	2.42
456.371	2.44
456.727	2.3
457.084	2.44
457.441	2.41
457.797	2.38
458.154	2.54
458.51	2.32
458.867	2.36
459.223	2.41
459.58	2.39
459.936	2.22
460.292	2.42
460.648	2.22
461.005	2.34
461.361	2.32
461.717	2.34
462.073	2.42
462.429	2.41
462.785	2.39
463.141	2.56
463.496	2.36
463.852	2.7
464.208	2.62
464.564	2.19
464.919	2.31
465.275	2.62
465.631	2.44
465.986	2.48
466.342	2.48
466.697	2.43
467.052	2.54
467.408	2.36
467.763	2.12
468.118	2.39
468.473	2.56
468.829	2.33
469.184	2.62
469.539	2.36
469.894	2.58
470.249	2.43
470.603	2.44
470.958	2.65
471.313	2.39
471.668	2.65
472.023	2.53
472.377	2.34
472.732	2.45
473.086	2.36
473.441	2.59
473.795	2.49
474.15	2.34
474.504	2.52
474.859	2.45
475.213	2.5
475.567	2.53
475.921	2.59
476.275	2.59
476.63	2.46
476.984	2.53
477.338	2.69
477.692	2.54
478.045	2.52
478.399	2.61
478.753	2.4
479.107	2.43
479.461	2.52
479.814	2.49
480.168	2.6
480.521	2.56
480.875	2.54
481.228	2.49
481.582	2.43
481.935	2.54
482.289	2.47
482.642	2.52
482.995	2.52
483.348	2.43
483.701	2.43
484.055	2.46
484.408	2.42
484.761	2.37
485.114	2.34
485.466	2.36
485.819	2.36
486.172	2.42
486.525	2.46
486.878	2.44
487.23	2.46
487.583	2.44
487.936	2.48
488.288	2.46
488.641	2.45
488.993	2.38
489.345	2.44
489.698	2.49
490.05	2.46
490.402	2.52
490.754	2.52
491.107	2.54
491.459	2.56
491.811	2.58
492.163	2.59
492.515	2.53
492.866	2.48
493.218	2.44
493.57	2.54
493.922	2.53
494.274	2.52
494.625	2.56
494.977	2.58
495.328	2.66
495.68	2.67
496.031	2.67
496.383	2.51
496.734	2.74
497.086	2.49
497.437	2.61
497.788	2.61
498.139	2.6
498.49	2.6
498.842	2.6
499.193	2.62
499.544	2.76
499.894	2.58
500.245	2.56
500.596	2.59
500.947	2.65
501.298	2.61
501.648	2.62
501.999	2.8
502.35	2.72
502.7	2.74
503.051	2.87
503.401	2.64
503.752	2.56
504.102	2.58
504.452	2.61
504.803	2.63
505.153	2.75
505.503	2.7
505.853	2.69
506.203	2.78
506.553	2.75
506.903	2.59
507.253	2.73
507.603	2.64
507.953	2.87
508.303	2.78
508.652	2.69
509.002	2.83
509.352	2.78
509.701	2.65
510.051	2.74
510.4	2.83
510.75	2.77
511.099	2.71
511.449	2.77
511.798	2.85
512.147	2.81
512.496	2.85
512.846	2.74
513.195	2.81
513.544	2.76
513.893	2.7
514.242	2.81
514.591	2.8
514.939	2.81
515.288	2.75
515.637	2.93
515.986	2.79
516.334	2.75
516.683	2.84
517.032	2.77
517.38	2.83
517.729	2.8
518.077	2.82
518.426	2.72
518.774	2.78
519.122	2.79
519.47	2.77
519.819	2.78
520.167	2.82
520.515	2.81
520.863	2.82
521.211	2.81
521.559	2.85
521.907	2.82
522.255	2.92
522.602	2.91
522.95	2.95
523.298	2.9
523.645	2.86
523.993	2.99
524.341	2.9
524.688	2.87
525.036	3.01
525.383	2.99
525.73	2.89
526.078	2.9
526.425	2.93
526.772	2.87
527.119	2.84
527.466	2.9
527.814	2.84
528.161	2.86
528.508	2.88
528.854	2.83
529.201	2.81
529.548	2.84
529.895	2.78
530.242	2.8
530.588	2.83
530.935	2.89
531.282	2.89
531.628	2.96
531.975	2.95
532.321	2.92
532.667	2.94
533.014	2.95
533.36	2.95
533.706	3.02
534.052	2.92
534.399	2.88
534.745	2.96
535.091	2.96
535.437	2.97
535.783	3.13
536.129	2.99
536.474	3.08
536.82	2.98
537.166	3.11
537.512	3.18
537.857	3.08
538.203	2.98
538.549	3.1
538.894	3.08
539.239	3.19
539.585	3.19
539.93	3.13
540.276	3.12
540.621	3.18
540.966	3.21
541.311	3.24
541.656	3.06
542.001	3.19
542.346	3.14
542.691	3.04
543.036	3.09
543.381	3.14
543.726	3.21
544.071	3.21
544.415	3.18
544.76	3.11
545.105	3.21
545.449	3.17
545.794	3.2
546.138	3.2
546.483	3.21
546.827	3.25
547.171	3.3
547.516	3.4
547.86	3.25
548.204	3.24
548.548	3.31
548.892	3.32
549.236	3.34
549.58	3.21
549.924	3.39
550.268	3.53
550.612	3.34
550.956	3.34
551.3	3.32
551.643	3.44
551.987	3.43
552.33	3.39
552.674	3.58
553.017	3.61
553.361	3.48
553.704	3.34
554.048	3.52
554.391	3.48
554.734	3.58
555.077	3.59
555.42	3.49
555.764	3.54
556.107	3.46
556.45	3.5
556.793	3.63
557.135	3.67
557.478	3.75
557.821	3.57
558.164	3.68
558.507	3.48
558.849	3.67
559.192	3.63
559.534	3.46
559.877	3.71
560.219	3.86
560.562	3.76
560.904	3.66
561.246	3.78
561.589	3.81
561.931	3.97
562.273	3.65
562.615	3.88
562.957	3.87
563.299	3.82
563.641	3.91
563.983	3.68
564.325	3.64
564.667	3.77
565.008	3.72
565.35	3.95
565.692	3.91
566.033	3.95
566.375	3.59
566.716	3.82
567.058	3.96
567.399	3.87
567.741	3.9
568.082	3.88
568.423	3.79
568.764	3.82
569.105	4.1
569.447	3.9
569.788	4.07
570.129	3.9
570.47	4.12
570.811	4.05
571.151	4.02
571.492	4.03
571.833	4.09
572.174	4.1
572.514	3.96
572.855	4.08
573.195	3.96
573.536	3.99
573.876	4.08
574.217	4.16
574.557	4.11
574.898	3.89
575.238	4.06
575.578	4.3
575.918	4.16
576.258	4.28
576.598	4.3
576.938	4.32
577.278	4.18
577.618	4.19
577.958	4.2
578.298	4.42
578.638	4.42
578.977	4.37
579.317	4.44
579.657	4.27
579.996	4.44
580.336	4.2
580.675	4.44
581.014	4.24
581.354	4.45
581.693	4.44
582.032	4.64
582.372	4.56
582.711	4.58
583.05	4.42
583.389	4.55
583.728	4.48
584.067	4.46
584.406	4.73
584.745	4.5
585.083	4.87
585.422	4.64
585.761	4.61
586.1	4.98
586.438	4.61
586.777	4.85
587.115	4.67
587.454	4.78
587.792	4.48
588.13	4.86
588.469	4.76
588.807	4.86
589.145	4.77
589.483	4.54
589.821	4.87
590.159	4.83
590.497	4.54
590.835	4.63
591.173	5
591.511	4.94
591.849	4.89
592.187	4.77
592.524	4.87
592.862	5.07
593.2	4.88
593.537	4.83
593.875	4.66
594.212	4.99
594.55	4.89
594.887	5.35
595.224	5.17
595.561	5.02
595.899	5.03
596.236	5.19
596.573	4.94
596.91	5.11
597.247	4.8
597.584	5.12
597.921	5.09
598.258	5.15
598.594	4.8
598.931	4.99
599.268	5
599.604	5.17
599.941	5.4
600.277	5.2
600.614	5.09
600.95	5.47
601.287	5.37
601.623	5.52
601.959	5.01
602.296	5.13
602.632	5.69
602.968	5.49
603.304	5.42
603.64	5.38
603.976	5.38
604.312	5.47
604.648	5.46
604.984	5.48
605.319	5.55
605.655	5.53
605.991	5.57
606.326	5.44
606.662	5.34
606.998	5.68
607.333	5.57
607.668	5.67
608.004	5.57
608.339	5.56
608.674	5.48
609.01	5.66
609.345	5.86
609.68	5.55
610.015	5.76
610.35	5.68
610.685	5.68
611.02	5.79
611.355	5.89
611.689	5.57
612.024	5.94
612.359	5.98
612.694	6.22
613.028	6.01
613.363	5.73
613.697	6.06
614.032	6.09
614.366	5.82
614.7	6.54
615.035	5.98
615.369	6.06
615.703	6.5
616.037	6.14
616.371	6.09
616.705	6.12
617.039	6.22
617.373	6.24
617.707	6.13
618.041	6.24
618.375	5.89
618.709	6.33
619.042	6.22
619.376	6.06
619.71	6.14
620.043	6.31
620.377	6.09
620.71	6.38
621.043	6.31
621.377	6.42
621.71	6.27
622.043	6.93
622.376	6.07
622.709	6.76
623.043	6.36
623.376	6.67
623.709	6.71
624.041	6.22
624.374	6.38
624.707	6.46
625.04	6.99
625.373	6.45
625.705	6.39
626.038	6.84
626.37	6.7
626.703	6.65
627.035	6.82
627.368	6.86
627.7	6.67
628.032	6.91
628.365	6.51
628.697	6.71
629.029	7.03
629.361	6.64
629.693	7.04
630.025	6.78
630.357	6.88
630.689	7.13
631.021	6.94
631.353	7.13
631.684	6.96
632.016	6.95
632.348	6.98
632.679	7.01
633.011	6.99
633.342	6.69
633.674	6.93
634.005	7.17
634.336	6.91
634.668	6.76
634.999	7.18
635.33	6.82
635.661	7.44
635.992	7.14
636.323	7.26
636.654	7.19
636.985	7.01
637.316	7.38
637.647	6.96
637.977	7.49
638.308	7.52
638.639	7.12
638.969	7.13
639.3	7.43
639.63	7.3
639.961	7.43
640.291	7.68
640.622	7.67
640.952	7.72
641.282	7.25
641.612	7.28
641.943	7.92
642.273	7.41
642.603	7.95
642.933	7.3
643.263	7.78
643.592	7.31
643.922	8.22
644.252	8.13
644.582	7.73
644.911	7.97
645.241	7.38
645.571	7.36
645.9	8.05
646.23	7.45
646.559	7.97
646.888	7.7
647.218	8.05
647.547	8
647.876	7.97
648.205	8.12
648.534	7.78
648.863	8.07
649.192	7.9
649.521	7.93
649.85	8.44
650.179	7.42
650.508	8.04
650.837	7.87
651.165	8.14
651.494	8.21
651.822	8.48
652.151	8.51
652.479	8.33
652.808	8.18
653.136	7.83
653.465	8.46
653.793	8.2
654.121	8.43
654.449	8.23
654.777	8.37
655.105	8.81
655.433	8.53
655.761	8
656.089	8.68
656.417	8.22
656.745	8.6
657.073	8.63
657.4	8.44
657.728	8.67
658.056	8.44
658.383	8.38
658.711	8.09
659.038	8.89
659.365	8.52
659.693	8.24
660.02	8.68
660.347	8.97
660.674	8.55
661.001	8.57
661.329	8.71
661.656	8.7
661.982	8.92
662.309	8.78
662.636	8.9
662.963	9.44
663.29	8.81
663.616	8.99
663.943	8.97
664.27	8.61
664.596	8.73
664.923	9.45
665.249	9.04
665.576	8.89
665.902	8.89
666.228	8.41
666.554	8.74
666.881	8.83
667.207	8.83
667.533	9.18
667.859	9.05
668.185	9.11
668.511	8.54
668.837	8.64
669.162	9.33
669.488	9.18
669.814	9.92
670.139	9.57
670.465	9.24
670.791	9.39
671.116	9.33
671.442	9.36
671.767	9.35
672.092	9.59
672.418	9.39
672.743	9.26
673.068	9.2
673.393	9.76
673.718	9.27
674.043	9.55
674.368	9.85
674.693	9.73
675.018	9.7
675.343	9.83
675.667	9.71
675.992	8.71
676.317	9.75
676.641	9.83
676.966	9.53
677.29	9.06
677.615	9.58
677.939	9.46
678.264	9.25
678.588	9.25
678.912	10.37
679.236	10.22
679.56	9.91
679.885	9.66
680.209	9.55
680.532	9.44
680.856	10.44
681.18	9.75
681.504	9.62
681.828	9.31
682.152	9.59
682.475	9.98
682.799	9.93
683.122	9.88
683.446	10
683.769	10.59
684.093	10.33
684.416	10.02
684.739	10.13
685.062	9.67
685.386	10.01
685.709	9.71
686.032	10.6
686.355	10.02
686.678	10.23
687.001	9.83
687.324	9.5
687.646	10.45
687.969	10.13
688.292	10.81
688.614	10.82
688.937	10.58
689.26	10.38
689.582	10.22
689.904	10.95
690.227	10.75
690.549	10.23
690.871	10.36
691.194	10.37
691.516	10.01
691.838	10.45
692.16	10.66
692.482	11.64
692.804	10.47
693.126	10.51
693.448	11
693.769	11.16
694.091	10.81
694.413	10.69
694.735	10.07
695.056	10.86
695.378	11.96
695.699	11.96
696.021	11.05
696.342	9.89
696.663	10.03
696.984	11.24
697.306	10.49
697.627	10.75
697.948	11.01
698.269	10.46
698.59	11.33
698.911	11.03
699.232	11.84
699.553	11.17
699.873	11.09
700.194	10.9
700.515	11.2
700.835	11.49
701.156	11.75
701.477	11.13
701.797	11.99
702.117	11.93
702.438	11.13
702.758	11.84
703.078	10.57
703.398	10.9
703.719	11.19
704.039	12.21
704.359	11.65
704.679	11.29
704.999	10.41
705.319	12.16
705.638	11.65
705.958	11.45
706.278	11.7
706.597	12.78
706.917	12
707.237	11.38
707.556	11.65
707.876	11.74
708.195	12.21
708.514	11.02
708.834	11.67
709.153	12.43
709.472	12.66
709.791	12.11
710.11	12
710.429	11.04
710.748	12.03
711.067	11.83
711.386	12.13
711.705	11.17
712.023	11.35
712.342	11.64
712.661	13.09
712.979	12.17
713.298	12.29
713.616	12.07
713.935	11.84
714.253	12.16
714.572	10.94
714.89	11.76
715.208	12.47
715.526	13
715.844	12.55
716.162	12.53
716.48	11.99
716.798	11.94
717.116	13.03
717.434	12.58
717.752	12.06
718.069	11.8
718.387	11.96
718.705	12.52
719.022	13.16
719.34	12.39
719.657	12.07
719.975	13.29
720.292	12.62
720.609	11.59
720.927	13.97
721.244	12.78
721.561	12.98
721.878	12.99
722.195	13.83
722.512	13.58
722.829	13.9
723.146	11.93
723.463	12.89
723.779	10.93
724.096	12.17
724.413	12.58
724.729	12.89
725.046	13.37
725.362	12.66
725.679	13.06
725.995	13.8
726.311	13.1
726.628	12.49
726.944	13.34
727.26	12
727.576	13.37
727.892	12.01
728.208	13.16
728.524	13.35
728.84	12.64
729.156	12.75
729.472	14.6
729.787	14.27
730.103	13.7
730.419	13.57
730.734	12.5
731.05	12.86
731.365	14
731.681	12.73
731.996	12.31
732.311	13.56
732.626	14.18
732.942	13.25
733.257	14.29
733.572	13.93
733.887	13.92
734.202	12.74
734.517	13.78
734.832	13.54
735.146	13.59
735.461	13.74
735.776	14.13
736.091	14
736.405	13.8
736.72	13.07
737.034	13.2
737.349	13.38
737.663	13.91
737.977	14.87
738.292	14.15
738.606	14.09
738.92	14.18
739.234	14.4
739.548	14.89
739.862	14.79
740.176	13.14
740.49	13.41
740.804	13.72
741.117	13.32
741.431	13.89
741.745	14.14
742.058	13.87
742.372	13.74
742.685	11.33
742.999	11.62
743.312	13.36
743.626	13.7
743.939	12.44
744.252	15.29
744.565	14.16
744.878	14.09
745.191	12.32
745.505	14.27
745.817	15.49
746.13	15.52
746.443	13.35
746.756	12.58
747.069	12.72
747.381	13.69
747.694	11.98
748.007	15.24
748.319	14.05
748.632	14.98
748.944	14.78
749.256	17.14
749.569	12.91
749.881	12.58
750.193	14.56
750.505	16.64
750.817	15.19
751.129	12.63
751.441	13.57
751.753	15.06
752.065	15.32
752.377	12.67
752.689	15.48
753	13.46
753.312	14.54
753.624	14.09
753.935	13.63
754.247	16.45
754.558	17.16
754.869	15.03
755.181	15.74
755.492	15.54
755.803	16.02
756.114	13.22
756.425	14.22
756.736	14.72
757.047	15.45
757.358	13.73
757.669	16.58
757.98	15.65
758.291	15.18
758.601	14.69
758.912	13.87
759.223	16.94
759.533	16.98
759.844	15.32
760.154	16.19
760.464	14.76
760.775	16.03
761.085	14.96
761.395	16.71
761.705	16.12
762.016	13.72
762.326	16.16
762.636	15.43
762.945	14.69
763.255	15.72
763.565	15.05
763.875	16.07
764.185	16.26
764.494	14.94
764.804	14.64
765.113	15.38
765.423	15.73
765.732	15.94
766.042	17.01
766.351	16.5
766.66	16.07
766.97	16.51
767.279	17.1
767.588	16.41
767.897	17.58
768.206	16.69
768.515	14.8
768.824	16.08
769.133	14.82
769.441	16.46
769.75	16.12
770.059	15.09
770.367	15.23
770.676	17.28
770.984	16.54
771.293	14.32
771.601	14.33
771.91	15.48
772.218	12.48
772.526	16.59
772.834	17.79
773.142	17.8
773.45	13.29
773.758	17.19
774.066	13.68
774.374	10.99
774.682	15.7
774.99	15.72
775.298	17.34
775.605	18.02
775.913	15.08
776.22	14.06
776.528	12.31
776.835	16.41
777.143	15.81
777.45	16.83
777.757	16.19
778.065	16.24
778.372	15.28
778.679	17.03
778.986	16.16
779.293	15.32
779.6	14.94
779.907	11.08
780.214	14.32
780.52	19.17
780.827	15.29
781.134	15.12
781.44	15.27
781.747	19.73
782.053	17.45
782.36	15.26
782.666	15.59
782.973	14.82
783.279	15.98
783.585	16.06
783.891	16.18
784.197	13.86
784.503	19.81
784.809	17.59
785.115	12.03
785.421	17.1
785.727	17.66
786.033	13.25
786.339	19.68
786.644	18.83
786.95	18.76
787.255	17.72
787.561	19.23
787.866	11.22
788.172	18.88
788.477	12.77
788.782	13.39
789.088	19.65
789.393	14.34
789.698	12.94
790.003	16.81
790.308	16.68
790.613	17.78
790.918	19.25
791.223	19.1
791.527	18.72
791.832	17.57
792.137	19.48
792.441	14.92
792.746	16.05
793.05	18.45
793.355	17
793.659	17.48
793.963	18.53
794.268	10.89
794.572	20.52
794.876	12.87
795.18	14.65
795.484	22.62
795.788	17.24
796.092	20.33
796.396	16.6
796.7	17.51
797.004	16.66
797.307	18.45
797.611	15.18
797.915	13.38
798.218	19
798.522	20.38
798.825	19.05
799.128	17.12
799.432	17.47
799.735	14.74
800.038	11.41
800.341	16.81
800.644	16.18
800.947	17.97
801.25	17.75
801.553	20.47
801.856	16.94
802.159	14.76
802.462	20.52
802.764	15.62
803.067	18.6
803.37	16.43
803.672	17.38
803.975	12.65
804.277	18.46
804.579	14.84
804.882	17.42
805.184	12.32
805.486	16.85
805.788	19.87
806.09	12.89
806.392	19.83
806.694	16.91
806.996	14.77
807.298	13.05
807.6	19.85
807.902	20.69
808.203	17.15
808.505	18.14
808.807	19.8
809.108	19.65
809.409	25.09
809.711	18.5
810.012	16.8
810.313	18.91
810.615	15.78
810.916	19.69
811.217	19.95
811.518	25
811.819	14.36
812.12	17.17
812.421	18.88
812.722	15.51
813.023	17.39
813.323	26.04
813.624	20.9
813.925	18.46
814.225	21.59
814.526	18.45
814.826	16.15
815.126	21.12
815.427	19.63
815.727	14.82
816.027	18
816.327	10.16
816.627	16.42
816.927	16.32
817.227	16.28
817.527	17.36
817.827	14.75
818.127	21.81
818.427	4.13
818.727	14.27
819.026	17.87
819.326	17.32
819.625	17.81
819.925	19.61
820.224	17.17
820.524	22.83
820.823	13.9
821.122	14.68
821.421	21.13
821.72	19.65
822.019	16.31
822.318	22.62
822.617	21.28
822.916	18.12
823.215	21.41
823.514	21.38
823.813	22.25
824.111	21.73
824.41	21.35
824.709	22.19
825.007	21.42
825.306	20.72
825.604	22.55
825.902	21.55
826.201	21.99
826.499	21.22
826.797	21.96
827.095	20.46
827.393	21.5
827.691	21.61
827.989	22.74
828.287	22
828.585	17.27
828.882	20.74
829.18	20.58
829.478	19.68
829.775	22.07
830.073	22.54
830.37	19.14
830.668	20.34
830.965	21.83
831.263	21.63
831.56	24.52
831.857	21.81
832.154	20.25
832.451	21.67
832.748	21.12
833.045	24.77
833.342	22.22
833.639	23.04
833.936	16.77
834.232	15.92
834.529	20.79
834.826	18.71
835.122	23
835.419	22.19
835.715	17.16
836.012	18.27
836.308	22.91
836.604	21.83
836.901	26.72
837.197	24.52
837.493	25.72
837.789	22.34
838.085	16.05
838.381	19.86
838.677	19.46
838.972	19.18
839.268	18.82
839.564	21.99
839.86	17.42
840.155	19.41
840.451	16.91
840.746	16.04
841.042	9.28
841.337	21.7
841.632	23.68
841.928	31.14
842.223	16.29
842.518	34.6
842.813	20.38
843.108	9.62
843.403	18.42
843.698	22.01
843.993	22.3
844.287	24.18
844.582	23.39
844.877	18.5
845.171	26.32
845.466	11.17
845.761	26.32
846.055	16.46
846.349	-18.74
846.644	18.88
846.938	3.72
847.232	10.92
847.526	2.7
847.82	2.9
848.114	7.43
848.408	14.56
848.702	14.16
848.996	16.03
849.29	9.19
849.584	6.84
849.877	9.85
850.171	16.91
850.465	-3.41
850.758	20.05
851.052	16.17
851.345	37.48
851.638	25.43
851.932	10.44
852.225	23.21
852.518	20.01
852.811	18.08
853.104	21.21
853.397	15.75
853.69	23.47
853.983	3.98
854.276	5.49
854.569	21.24
854.861	10.93
855.154	15.01
855.447	3.67
855.739	22.64
856.032	-11.96
856.324	13.86
856.616	43.6
856.909	13.22
857.201	44.3
857.493	31.54
857.785	-1.64
858.077	-0.76
858.369	-14.88
858.661	27.3
858.953	11.59
859.245	10.98
859.537	29.3
859.829	25
860.12	27.85
860.412	-20.31
860.703	10.95
860.995	-9.84
861.286	15.25
861.578	-36.3
861.869	3.55
862.16	40.7
862.452	32.09
862.743	32.35
863.034	8.35
863.325	11.93
863.616	0.48
863.907	18.21
864.198	23.34
864.488	2.21
864.779	8
865.07	37.28
865.36	15.83
865.651	38.92
865.941	31.79
866.232	-11.52
866.522	-2.1
866.813	29.15
867.103	18.53
867.393	15.29
867.683	20.74
867.973	-10.39
868.263	8.02
868.553	0.1
868.843	-16.86
869.133	10.87
869.423	30.97
869.713	24.71
870.002	4.44
870.292	10.01
870.582	13.65
870.871	-7.67
871.161	11.42
871.45	-11.07
871.739	0.31
872.029	-44.57
872.318	19.87
872.607	42.5
872.896	38.51
873.185	27.62
873.474	1.66
873.763	4.05
874.052	0.75
874.341	-80.9
874.63	5.71
874.918	27.06
875.207	14.77
875.496	27.96
875.784	-1.73
876.073	-12.59
876.361	-25.83
876.649	12.64
876.938	12.11
877.226	12.15
877.514	14.77
877.802	6.33
878.09	3.69
878.378	-1.36
878.666	-24.91
878.954	20.67
879.242	20.05
879.53	-4.72
879.817	22.53
880.105	-23.04
880.392	3.64
880.68	24.62
880.967	12.57
881.255	-9.36
881.542	16.2
881.83	27.1
882.117	37
882.404	-2.97
882.691	-5.49
882.978	-7.24
883.265	18.72
883.552	11.24
883.839	37.22
884.126	14.09
884.413	34.58
884.699	26.64
884.986	22.72
885.273	25.63
885.559	25.63
885.846	25.63
