Data from 0150_chest_Reflection__4__85.txt Node

Date: Fri Sep 22 20:58:35 CDT 2023
User: ToomeyLab
Spectrometer: FLMS14357
Trigger mode: 0
Integration Time (sec): 1.000000E-2
Scans to average: 100
Electric dark correction enabled: true
Nonlinearity correction enabled: false
Boxcar width: 0
XAxis mode: Wavelengths
Number of Pixels in Spectrum: 2048
>>>>>Begin Spectral Data<<<<<
189.047	78.23
189.435	78.23
189.823	78.23
190.211	-187.4
190.599	-2.7
190.987	82.25
191.375	63.25
191.763	-121.73
192.151	96.28
192.538	-70.58
192.926	47.01
193.314	-196.79
193.702	43.57
194.089	103.01
194.477	-138.15
194.864	-175.67
195.252	54.37
195.639	2124.23
196.027	88.16
196.414	91.72
196.801	130.94
197.189	118.18
197.576	98.41
197.963	-34.7
198.351	-5.76
198.738	36.73
199.125	26.87
199.512	8.37
199.899	25.03
200.286	12.68
200.673	2.37
201.06	50.66
201.447	31.36
201.833	-7.57
202.22	35.1
202.607	8.37
202.994	59.47
203.38	-3.97
203.767	14.46
204.154	33.6
204.54	30.79
204.927	33.76
205.313	16.51
205.699	44.18
206.086	31.83
206.472	69.97
206.858	27.56
207.245	5.48
207.631	26.87
208.017	19.04
208.403	13.5
208.789	16.45
209.175	56.12
209.561	48.16
209.947	40.9
210.333	13.54
210.719	36.74
211.105	33.6
211.491	24.37
211.876	32.96
212.262	9.13
212.648	26.53
213.034	23.8
213.419	17.67
213.805	4.57
214.19	17.16
214.576	26.91
214.961	-4.61
215.346	23.88
215.732	31.77
216.117	-2.17
216.502	31.77
216.888	22.92
217.273	22.74
217.658	14.85
218.043	8.61
218.428	31.29
218.813	0.42
219.198	17.97
219.583	18.48
219.968	-0.06
220.353	33.4
220.738	11.66
221.122	28.72
221.507	2.76
221.892	14.02
222.276	10.39
222.661	-2.87
223.046	20.53
223.43	37.67
223.815	1.67
224.199	6.97
224.583	9.2
224.968	17.42
225.352	0.26
225.736	12.86
226.121	0.03
226.505	6.46
226.889	7.15
227.273	7.42
227.657	9.51
228.041	2.91
228.425	9.75
228.809	3.55
229.193	5.33
229.577	9.01
229.961	5.75
230.344	4.97
230.728	2.59
231.112	4.58
231.495	3.25
231.879	3.37
232.263	2.62
232.646	3.16
233.03	3.5
233.413	4.28
233.797	4.89
234.18	4.58
234.563	5.51
234.946	5.64
235.33	1.92
235.713	4.25
236.096	4.4
236.479	4.25
236.862	5.12
237.245	5.29
237.628	4.4
238.011	5.76
238.394	4.03
238.777	5.89
239.16	3.09
239.543	5.89
239.925	3.31
240.308	3.51
240.691	5.82
241.073	3.8
241.456	4.08
241.838	3.78
242.221	3.27
242.603	4.05
242.986	3.69
243.368	2.72
243.75	3.96
244.133	3.93
244.515	3.17
244.897	3.13
245.279	3.38
245.661	3.23
246.043	4.02
246.425	2.64
246.807	3.19
247.189	1.85
247.571	3.8
247.953	3.65
248.335	3.74
248.717	3.38
249.098	3.33
249.48	2.92
249.862	3.27
250.243	3.38
250.625	3.18
251.006	3.04
251.388	3.24
251.769	3.34
252.151	3.53
252.532	3.45
252.913	4.47
253.295	3.64
253.676	4.2
254.057	3.07
254.438	3.62
254.819	2.92
255.2	3.24
255.581	3.47
255.962	3.79
256.343	2.65
256.724	3.13
257.105	3.92
257.486	3.94
257.867	4
258.247	3.79
258.628	2.7
259.009	3.08
259.389	3.54
259.77	4.31
260.15	3.59
260.531	3.28
260.911	3.16
261.292	2.75
261.672	2.6
262.052	3.16
262.432	2.94
262.813	3.26
263.193	2.75
263.573	3.42
263.953	3.64
264.333	3.71
264.713	3.25
265.093	3.05
265.473	3.61
265.853	2.38
266.233	2.52
266.612	3.28
266.992	3.81
267.372	4.17
267.752	4.16
268.131	3.11
268.511	3.13
268.89	3.35
269.27	3.1
269.649	2.87
270.029	3.24
270.408	2.89
270.787	2.95
271.167	3.25
271.546	3.13
271.925	2.93
272.304	2.58
272.683	3.05
273.062	3.31
273.441	3.07
273.82	3.33
274.199	3.35
274.578	3.45
274.957	2.98
275.336	2.91
275.715	2.99
276.093	2.85
276.472	3.2
276.851	2.86
277.229	2.43
277.608	3.43
277.986	3
278.365	2.84
278.743	2.85
279.122	2.99
279.5	3.53
279.878	2.57
280.257	3.78
280.635	2.85
281.013	3.26
281.391	2.58
281.769	3.29
282.147	3.52
282.525	2.74
282.903	3.06
283.281	3.42
283.659	3.05
284.037	2.82
284.415	3.07
284.792	2.94
285.17	3.37
285.548	3.49
285.925	3.1
286.303	3.36
286.68	2.4
287.058	2.58
287.435	2.56
287.813	3.16
288.19	2.52
288.567	3
288.945	2.52
289.322	2.87
289.699	3.45
290.076	3.66
290.453	2.81
290.83	2.69
291.207	2.54
291.584	3.09
291.961	2.65
292.338	2.88
292.715	3.1
293.092	3.21
293.469	2.9
293.845	2.97
294.222	3.54
294.599	3.19
294.975	3.4
295.352	3.2
295.728	2.73
296.105	3.44
296.481	3.31
296.858	3.05
297.234	2.6
297.61	2.87
297.986	2.89
298.363	3.05
298.739	2.83
299.115	3.13
299.491	3.1
299.867	3.28
300.243	2.57
300.619	2.78
300.995	2.6
301.371	3.32
301.746	3.49
302.122	3.23
302.498	2.44
302.874	2.66
303.249	3.16
303.625	2.76
304	3.36
304.376	3.28
304.751	3.34
305.127	2.96
305.502	3.42
305.878	3.12
306.253	3.18
306.628	2.72
307.003	3.31
307.378	3.15
307.754	3.14
308.129	2.81
308.504	2.88
308.879	3.17
309.254	3.27
309.629	3.13
310.003	3.1
310.378	3.57
310.753	3.4
311.128	3.04
311.502	3.11
311.877	2.87
312.252	2.87
312.626	2.84
313.001	3.33
313.375	3.19
313.75	3.44
314.124	3.4
314.498	2.71
314.873	3.37
315.247	3.17
315.621	3.28
315.995	3.26
316.369	3.3
316.743	3.14
317.117	3.07
317.491	3.47
317.865	2.88
318.239	3.15
318.613	3.73
318.987	3.47
319.361	2.89
319.734	2.73
320.108	3.51
320.482	2.74
320.855	3.34
321.229	3.84
321.602	2.9
321.976	3.04
322.349	3.02
322.723	3.34
323.096	3.23
323.469	3.46
323.843	2.93
324.216	3.4
324.589	3.66
324.962	2.72
325.335	2.64
325.708	3.09
326.081	2.93
326.454	3.18
326.827	2.95
327.2	3.25
327.573	3.62
327.945	2.96
328.318	3.26
328.691	3.35
329.063	2.96
329.436	3.24
329.809	3.05
330.181	3.31
330.553	3.11
330.926	2.87
331.298	3.1
331.671	3.25
332.043	2.81
332.415	3.15
332.787	3.35
333.159	2.34
333.532	3.27
333.904	3.46
334.276	2.62
334.648	3.41
335.02	3.18
335.391	3.44
335.763	3.59
336.135	3.11
336.507	3.35
336.879	2.88
337.25	3.23
337.622	3.5
337.993	3.35
338.365	3.61
338.736	2.97
339.108	2.94
339.479	2.71
339.851	2.8
340.222	3.33
340.593	3.1
340.964	2.88
341.336	2.71
341.707	3.18
342.078	3.5
342.449	2.84
342.82	3.18
343.191	2.73
343.562	3.1
343.933	3.15
344.303	3.4
344.674	3.53
345.045	3.08
345.416	3.34
345.786	2.92
346.157	3.04
346.527	2.93
346.898	3.1
347.268	3.03
347.639	3.07
348.009	2.87
348.38	3
348.75	3.46
349.12	3.05
349.49	3.35
349.861	3.17
350.231	3.1
350.601	3.36
350.971	3.32
351.341	2.95
351.711	3.18
352.081	3
352.45	3.01
352.82	3.51
353.19	3.29
353.56	3.06
353.929	3.35
354.299	3.41
354.669	3.06
355.038	3.05
355.408	3.22
355.777	3.47
356.147	3.38
356.516	3.38
356.885	2.81
357.254	3.38
357.624	2.67
357.993	3.12
358.362	3.08
358.731	2.97
359.1	3.23
359.469	3.13
359.838	2.8
360.207	2.74
360.576	3.25
360.945	2.95
361.314	3.34
361.682	3.38
362.051	3.16
362.42	2.94
362.788	3.07
363.157	3.01
363.525	2.85
363.894	3
364.262	2.98
364.631	3.05
364.999	2.7
365.367	3.04
365.735	3.06
366.104	3.05
366.472	3.33
366.84	3.03
367.208	3.46
367.576	3.29
367.944	3.3
368.312	3.23
368.68	3.6
369.048	3.06
369.416	3.27
369.783	2.84
370.151	3.03
370.519	3.2
370.886	2.89
371.254	3.21
371.621	2.83
371.989	2.99
372.356	3.04
372.724	3.38
373.091	3.37
373.458	3.15
373.826	3.24
374.193	3.43
374.56	3.31
374.927	2.93
375.294	2.86
375.661	3.13
376.028	3.38
376.395	3.38
376.762	3.06
377.129	3.32
377.496	3.16
377.863	3.35
378.229	3.37
378.596	3.21
378.963	3.07
379.329	3.26
379.696	3.45
380.062	2.9
380.429	3.36
380.795	3.16
381.161	2.7
381.528	3.16
381.894	2.96
382.26	3.32
382.626	3.19
382.993	3.38
383.359	3.02
383.725	3.06
384.091	3.28
384.457	3.06
384.823	3.04
385.188	3.02
385.554	3.2
385.92	3.42
386.286	3.23
386.651	3.02
387.017	3.12
387.383	2.98
387.748	3.21
388.114	2.99
388.479	3.32
388.845	2.98
389.21	3.02
389.575	3.43
389.94	2.98
390.306	3.23
390.671	3.33
391.036	2.91
391.401	3.1
391.766	3.23
392.131	2.9
392.496	3.58
392.861	2.95
393.226	3.21
393.591	3.3
393.956	2.97
394.32	3.15
394.685	3.14
395.05	3.21
395.414	3.19
395.779	3.09
396.143	3.21
396.508	3.15
396.872	3.03
397.236	3.04
397.601	3.15
397.965	3.36
398.329	3.36
398.694	3.26
399.058	3.13
399.422	3.12
399.786	3.29
400.15	3.26
400.514	3.23
400.878	3.32
401.242	3.13
401.605	2.98
401.969	2.98
402.333	3.35
402.697	2.94
403.06	3.21
403.424	2.97
403.787	3.16
404.151	3.23
404.514	3.19
404.878	3.25
405.241	3.21
405.604	3.23
405.968	3.28
406.331	3.23
406.694	3.47
407.057	3.02
407.42	3.37
407.783	3.45
408.146	3.02
408.509	3.2
408.872	3.1
409.235	3.13
409.598	3.03
409.961	3.28
410.323	3.09
410.686	3.15
411.049	3.44
411.411	3.29
411.774	3.16
412.136	3.17
412.499	3.2
412.861	3.29
413.223	3.2
413.586	3.24
413.948	3.48
414.31	3.39
414.672	3.29
415.035	3.4
415.397	3.42
415.759	3.7
416.121	3.07
416.483	3.2
416.845	3.21
417.206	3.16
417.568	3.2
417.93	3.18
418.292	3.33
418.653	3.15
419.015	3.1
419.377	3.11
419.738	3.35
420.1	3.02
420.461	3.23
420.822	3.24
421.184	3.16
421.545	3.18
421.906	3.2
422.267	3.13
422.629	3.22
422.99	3.15
423.351	3.11
423.712	3.14
424.073	3.18
424.434	3.25
424.795	3.19
425.155	3.23
425.516	3.14
425.877	3.22
426.238	3.12
426.598	3.05
426.959	3.12
427.32	3.14
427.68	3.02
428.041	3.11
428.401	3.24
428.761	3.33
429.122	3.22
429.482	3.23
429.842	2.97
430.202	3.29
430.563	3.35
430.923	3.31
431.283	3.26
431.643	3.35
432.003	3.24
432.363	3.43
432.722	3.32
433.082	3.43
433.442	3.26
433.802	3.53
434.161	3.31
434.521	3.25
434.881	3.35
435.24	3.08
435.6	3.17
435.959	3.19
436.319	3.32
436.678	3.38
437.037	3.32
437.396	3.37
437.756	3.27
438.115	3.21
438.474	3.18
438.833	3.34
439.192	3.31
439.551	3.42
439.91	3.3
440.269	3.36
440.628	3.07
440.987	3.31
441.345	3.38
441.704	3.38
442.063	3.21
442.421	3.22
442.78	3.27
443.138	3.18
443.497	3.23
443.855	3.32
444.214	3.2
444.572	3.32
444.93	3.31
445.288	3.33
445.647	3.28
446.005	3.29
446.363	3.23
446.721	3.39
447.079	3.23
447.437	3.26
447.795	3.41
448.153	3.18
448.51	3.22
448.868	3.2
449.226	3.19
449.584	3.24
449.941	3.2
450.299	3.37
450.656	3.33
451.014	3.41
451.371	3.27
451.729	3.23
452.086	3.27
452.443	3.36
452.801	3.51
453.158	3.32
453.515	3.56
453.872	3.41
454.229	3.3
454.586	3.37
454.943	3.27
455.3	3.34
455.657	3.31
456.014	3.28
456.371	3.39
456.727	3.59
457.084	3.37
457.441	3.3
457.797	3.47
458.154	3.43
458.51	3.33
458.867	3.34
459.223	3.41
459.58	3.43
459.936	3.34
460.292	3.62
460.648	3.47
461.005	3.52
461.361	3.42
461.717	3.12
462.073	3.26
462.429	3.18
462.785	3.27
463.141	3.32
463.496	3.4
463.852	3.42
464.208	3.47
464.564	3.55
464.919	3.47
465.275	3.55
465.631	3.52
465.986	3.55
466.342	3.49
466.697	3.7
467.052	3.34
467.408	3.53
467.763	3.51
468.118	3.62
468.473	3.43
468.829	3.42
469.184	3.48
469.539	3.51
469.894	3.44
470.249	3.46
470.603	3.5
470.958	3.54
471.313	3.53
471.668	3.42
472.023	3.56
472.377	3.44
472.732	3.42
473.086	3.57
473.441	3.37
473.795	3.69
474.15	3.5
474.504	3.45
474.859	3.69
475.213	3.43
475.567	3.57
475.921	3.53
476.275	3.67
476.63	3.41
476.984	3.43
477.338	3.69
477.692	3.6
478.045	3.67
478.399	3.58
478.753	3.54
479.107	3.58
479.461	3.4
479.814	3.61
480.168	3.58
480.521	3.53
480.875	3.55
481.228	3.56
481.582	3.32
481.935	3.54
482.289	3.53
482.642	3.35
482.995	3.43
483.348	3.52
483.701	3.45
484.055	3.48
484.408	3.43
484.761	3.46
485.114	3.27
485.466	3.35
485.819	3.21
486.172	3.21
486.525	3.2
486.878	3.26
487.23	3.32
487.583	3.38
487.936	3.41
488.288	3.42
488.641	3.41
488.993	3.36
489.345	3.37
489.698	3.36
490.05	3.34
490.402	3.35
490.754	3.31
491.107	3.35
491.459	3.42
491.811	3.43
492.163	3.5
492.515	3.47
492.866	3.54
493.218	3.52
493.57	3.47
493.922	3.36
494.274	3.38
494.625	3.42
494.977	3.47
495.328	3.62
495.68	3.54
496.031	3.52
496.383	3.65
496.734	3.52
497.086	3.61
497.437	3.62
497.788	3.59
498.139	3.58
498.49	3.77
498.842	3.5
499.193	3.61
499.544	3.69
499.894	3.7
500.245	3.65
500.596	3.64
500.947	3.72
501.298	3.67
501.648	3.79
501.999	3.73
502.35	3.7
502.7	3.79
503.051	3.8
503.401	3.7
503.752	3.8
504.102	3.68
504.452	3.77
504.803	3.72
505.153	3.74
505.503	3.66
505.853	3.82
506.203	3.68
506.553	3.76
506.903	3.67
507.253	3.74
507.603	3.89
507.953	3.85
508.303	3.75
508.652	3.73
509.002	3.79
509.352	3.77
509.701	3.83
510.051	3.86
510.4	3.82
510.75	3.83
511.099	3.75
511.449	3.81
511.798	3.76
512.147	3.75
512.496	3.8
512.846	3.81
513.195	3.82
513.544	3.85
513.893	3.79
514.242	3.74
514.591	3.91
514.939	3.88
515.288	3.76
515.637	3.91
515.986	3.81
516.334	3.91
516.683	4
517.032	3.98
517.38	4.06
517.729	3.86
518.077	3.91
518.426	4.01
518.774	3.87
519.122	3.92
519.47	3.85
519.819	3.9
520.167	3.94
520.515	3.88
520.863	3.78
521.211	3.88
521.559	3.96
521.907	3.93
522.255	4.01
522.602	3.88
522.95	3.98
523.298	4.11
523.645	3.95
523.993	3.99
524.341	3.96
524.688	4.01
525.036	4.02
525.383	3.97
525.73	4.11
526.078	4.16
526.425	3.99
526.772	4.2
527.119	3.95
527.466	4
527.814	3.91
528.161	3.9
528.508	3.93
528.854	3.99
529.201	3.94
529.548	3.94
529.895	3.94
530.242	3.9
530.588	3.86
530.935	3.8
531.282	3.84
531.628	3.92
531.975	3.88
532.321	3.91
532.667	4.01
533.014	4.07
533.36	4.1
533.706	4.15
534.052	4.15
534.399	4.19
534.745	4.15
535.091	4.06
535.437	3.99
535.783	3.96
536.129	4.03
536.474	4.07
536.82	3.99
537.166	4.22
537.512	4.3
537.857	4.22
538.203	4.2
538.549	4.19
538.894	4.07
539.239	4.2
539.585	4.2
539.93	4.23
540.276	4.23
540.621	4.28
540.966	4.4
541.311	4.37
541.656	4.29
542.001	4.33
542.346	4.32
542.691	4.36
543.036	4.24
543.381	4.19
543.726	4.14
544.071	4.14
544.415	4.24
544.76	4.28
545.105	4.19
545.449	4.24
545.794	4.33
546.138	4.39
546.483	4.4
546.827	4.41
547.171	4.37
547.516	4.63
547.86	4.48
548.204	4.49
548.548	4.46
548.892	4.57
549.236	4.41
549.58	4.43
549.924	4.57
550.268	4.7
550.612	4.64
550.956	4.71
551.3	4.81
551.643	4.69
551.987	4.82
552.33	4.77
552.674	4.61
553.017	4.54
553.361	4.77
553.704	4.83
554.048	4.84
554.391	4.91
554.734	4.86
555.077	4.63
555.42	4.77
555.764	4.78
556.107	4.84
556.45	4.78
556.793	4.71
557.135	4.92
557.478	4.63
557.821	4.98
558.164	4.98
558.507	5.05
558.849	4.93
559.192	5.17
559.534	5.08
559.877	4.88
560.219	4.96
560.562	5.08
560.904	4.97
561.246	5.33
561.589	5.04
561.931	5.08
562.273	4.84
562.615	4.93
562.957	5.01
563.299	5.13
563.641	5.3
563.983	5.19
564.325	5.2
564.667	5.27
565.008	5.17
565.35	5.28
565.692	5.37
566.033	5.23
566.375	5.13
566.716	5.16
567.058	5.24
567.399	5.28
567.741	5.28
568.082	5.35
568.423	5.17
568.764	5.63
569.105	5.09
569.447	5.16
569.788	5.15
570.129	5.3
570.47	5.56
570.811	5.42
571.151	5.45
571.492	5.31
571.833	5.29
572.174	5.34
572.514	5.49
572.855	5.53
573.195	5.33
573.536	5.59
573.876	5.37
574.217	5.46
574.557	5.43
574.898	5.53
575.238	5.48
575.578	5.64
575.918	5.59
576.258	5.46
576.598	5.65
576.938	5.78
577.278	5.74
577.618	5.5
577.958	5.78
578.298	5.74
578.638	5.64
578.977	5.88
579.317	5.81
579.657	5.87
579.996	6.04
580.336	6.07
580.675	5.93
581.014	5.72
581.354	5.84
581.693	6.03
582.032	6.08
582.372	5.96
582.711	6.09
583.05	5.88
583.389	5.99
583.728	6.08
584.067	6.08
584.406	6.19
584.745	5.84
585.083	6.53
585.422	6.32
585.761	6.09
586.1	6.29
586.438	6.18
586.777	6.26
587.115	6.34
587.454	6.16
587.792	6.3
588.13	6.34
588.469	6.3
588.807	6.54
589.145	6.41
589.483	6.25
589.821	6.48
590.159	6.3
590.497	6.56
590.835	6.49
591.173	6.67
591.511	6.47
591.849	6.67
592.187	6.28
592.524	6.68
592.862	6.68
593.2	6.54
593.537	6.35
593.875	6.73
594.212	6.78
594.55	6.99
594.887	6.74
595.224	6.82
595.561	6.85
595.899	6.96
596.236	7.02
596.573	7.17
596.91	6.9
597.247	6.63
597.584	6.93
597.921	7.16
598.258	7
598.594	6.94
598.931	6.96
599.268	6.85
599.604	6.86
599.941	6.88
600.277	6.99
600.614	6.86
600.95	7.15
601.287	6.91
601.623	7.1
601.959	7.36
602.296	7.32
602.632	7.2
602.968	7.27
603.304	7.12
603.64	7.22
603.976	7.11
604.312	7.31
604.648	7.27
604.984	7.25
605.319	7.21
605.655	7.28
605.991	7.43
606.326	7.39
606.662	7.24
606.998	7.32
607.333	7.39
607.668	7.22
608.004	7.37
608.339	7.33
608.674	7.59
609.01	7.62
609.345	7.68
609.68	7.93
610.015	7.69
610.35	7.73
610.685	7.92
611.02	7.85
611.355	7.6
611.689	7.64
612.024	7.7
612.359	7.7
612.694	7.74
613.028	7.76
613.363	7.65
613.697	7.87
614.032	8.09
614.366	7.79
614.7	8.1
615.035	7.98
615.369	8.25
615.703	7.88
616.037	8.11
616.371	8.23
616.705	8.55
617.039	8.13
617.373	7.9
617.707	8.04
618.041	8.38
618.375	8.56
618.709	8.16
619.042	8.32
619.376	8.36
619.71	8.25
620.043	8.22
620.377	8.15
620.71	8.32
621.043	8.76
621.377	8.14
621.71	8.24
622.043	8.43
622.376	8.75
622.709	8.48
623.043	8.49
623.376	8.85
623.709	8.67
624.041	8.52
624.374	8.84
624.707	9.06
625.04	9.04
625.373	8.36
625.705	8.91
626.038	8.64
626.37	8.92
626.703	8.96
627.035	8.68
627.368	8.86
627.7	9.09
628.032	8.72
628.365	9.12
628.697	8.53
629.029	8.77
629.361	8.9
629.693	8.96
630.025	8.95
630.357	8.76
630.689	9.06
631.021	8.96
631.353	8.93
631.684	9.29
632.016	9.13
632.348	9.2
632.679	8.92
633.011	9.25
633.342	9.27
633.674	9.76
634.005	9.16
634.336	9.47
634.668	9.47
634.999	9.39
635.33	9.99
635.661	9.37
635.992	9.45
636.323	9.53
636.654	9.46
636.985	9.34
637.316	9.61
637.647	9.49
637.977	8.98
638.308	10.04
638.639	9.89
638.969	9.74
639.3	9.76
639.63	10.03
639.961	9.29
640.291	9.72
640.622	9.99
640.952	9.75
641.282	9.7
641.612	9.68
641.943	9.84
642.273	9.9
642.603	9.61
642.933	9.9
643.263	9.56
643.592	10.02
643.922	10.35
644.252	10.1
644.582	10.58
644.911	10.4
645.241	10.31
645.571	10.12
645.9	10.55
646.23	10.24
646.559	10.25
646.888	10.18
647.218	10.39
647.547	10.57
647.876	10.5
648.205	10.55
648.534	11.06
648.863	10.34
649.192	9.82
649.521	10.35
649.85	11.11
650.179	10.7
650.508	10.43
650.837	10.74
651.165	10.57
651.494	10.55
651.822	10.65
652.151	10.48
652.479	10.8
652.808	10.39
653.136	11.24
653.465	10.87
653.793	10.57
654.121	10.98
654.449	10.9
654.777	10.78
655.105	10.9
655.433	11.24
655.761	11.3
656.089	10.81
656.417	10.78
656.745	10.99
657.073	10.89
657.4	11.82
657.728	11.31
658.056	11.18
658.383	11.33
658.711	11.02
659.038	11.32
659.365	11.16
659.693	10.76
660.02	11.66
660.347	11.38
660.674	11.11
661.001	10.79
661.329	11.3
661.656	11.2
661.982	11.11
662.309	11.65
662.636	11.35
662.963	11.53
663.29	11.69
663.616	11.6
663.943	11.55
664.27	12.09
664.596	11.53
664.923	11.48
665.249	11.84
665.576	11.93
665.902	12.01
666.228	12.16
666.554	11.32
666.881	11.96
667.207	11.69
667.533	11.34
667.859	11.71
668.185	12.56
668.511	12.51
668.837	11.53
669.162	12.21
669.488	12.47
669.814	12
670.139	11.9
670.465	12.53
670.791	12.49
671.116	11.65
671.442	12.56
671.767	11.41
672.092	12.69
672.418	12.65
672.743	12.55
673.068	13.21
673.393	12.13
673.718	13.21
674.043	12.33
674.368	12.73
674.693	12.45
675.018	11.92
675.343	12.65
675.667	12.4
675.992	12.69
676.317	12.77
676.641	12.41
676.966	12.94
677.29	12.38
677.615	12.92
677.939	13.14
678.264	13.23
678.588	13.69
678.912	13.23
679.236	13.07
679.56	13.28
679.885	13.31
680.209	13.77
680.532	12.63
680.856	12.82
681.18	12.85
681.504	12.66
681.828	13.68
682.152	13.22
682.475	13.51
682.799	13.26
683.122	12.67
683.446	12.98
683.769	13.53
684.093	13.36
684.416	12.8
684.739	14
685.062	13.83
685.386	13.24
685.709	13.49
686.032	12.65
686.355	13.49
686.678	13.37
687.001	13.02
687.324	14.38
687.646	13.98
687.969	13.98
688.292	14.16
688.614	14.27
688.937	13.7
689.26	13.53
689.582	13.5
689.904	13.75
690.227	14.39
690.549	14.18
690.871	13.79
691.194	14.02
691.516	14.1
691.838	14.07
692.16	13.45
692.482	14.14
692.804	14.57
693.126	13.82
693.448	14.89
693.769	13.92
694.091	14.42
694.413	14.67
694.735	14.52
695.056	14.49
695.378	14.37
695.699	14.61
696.021	14.11
696.342	14.9
696.663	13.39
696.984	14.12
697.306	14.8
697.627	14.37
697.948	14.46
698.269	14.97
698.59	14.16
698.911	14.64
699.232	14.33
699.553	13.96
699.873	14.44
700.194	14.41
700.515	13.8
700.835	14.75
701.156	14.49
701.477	15.31
701.797	14.66
702.117	14.78
702.438	14.17
702.758	14.48
703.078	15.28
703.398	15.63
703.719	14.58
704.039	14.96
704.359	14.18
704.679	14.95
704.999	15.81
705.319	14.97
705.638	15.09
705.958	15.79
706.278	15.69
706.597	16.13
706.917	15.18
707.237	15.43
707.556	14.74
707.876	15.56
708.195	16.64
708.514	15.02
708.834	15.05
709.153	16.21
709.472	15.36
709.791	15.42
710.11	15.7
710.429	15.89
710.748	16.21
711.067	15.02
711.386	15.57
711.705	15.17
712.023	15.95
712.342	15.83
712.661	16.11
712.979	15.17
713.298	17.33
713.616	15.36
713.935	15.49
714.253	16.41
714.572	17.08
714.89	17.09
715.208	16.07
715.526	15.09
715.844	16.56
716.162	14.92
716.48	15.97
716.798	16.5
717.116	15.82
717.434	16.32
717.752	16.49
718.069	15.14
718.387	16.39
718.705	15.86
719.022	16.15
719.34	16.18
719.657	15.69
719.975	16.55
720.292	16.36
720.609	17.25
720.927	17.23
721.244	16.85
721.561	16.77
721.878	18.27
722.195	16
722.512	18.05
722.829	16.98
723.146	17.1
723.463	17
723.779	17.2
724.096	17.57
724.413	17.78
724.729	18.79
725.046	17.01
725.362	16.73
725.679	16.83
725.995	17.9
726.311	16.31
726.628	17.44
726.944	15.86
727.26	17.32
727.576	17.5
727.892	16.07
728.208	17.98
728.524	18.87
728.84	16.46
729.156	17.27
729.472	19.35
729.787	16.86
730.103	17.04
730.419	17.55
730.734	16.96
731.05	16.88
731.365	17.46
731.681	17.7
731.996	18.57
732.311	18.09
732.626	17.12
732.942	18.08
733.257	18.25
733.572	16.92
733.887	16.56
734.202	18.32
734.517	17.63
734.832	18.32
735.146	17.8
735.461	18.66
735.776	17.55
736.091	18.31
736.405	17.84
736.72	17.61
737.034	18.42
737.349	17.3
737.663	17.8
737.977	17.93
738.292	18.53
738.606	17.78
738.92	18.16
739.234	17.39
739.548	17.9
739.862	17.21
740.176	18.25
740.49	18.15
740.804	18.18
741.117	18.76
741.431	17.78
741.745	18.66
742.058	19.11
742.372	17.58
742.685	17.96
742.999	18.99
743.312	21.11
743.626	18.87
743.939	18.45
744.252	18.11
744.565	16.12
744.878	17.75
745.191	18.72
745.505	18
745.817	18.07
746.13	20.94
746.443	19.43
746.756	18.44
747.069	20.98
747.381	16.86
747.694	19.17
748.007	20.33
748.319	19.41
748.632	19.32
748.944	21.68
749.256	19.98
749.569	19.11
749.881	19.94
750.193	19.23
750.505	19.78
750.817	20.01
751.129	20.78
751.441	21.17
751.753	20.48
752.065	20.89
752.377	20.46
752.689	19.2
753	19.27
753.312	19.42
753.624	19.4
753.935	22.49
754.247	18.67
754.558	20.71
754.869	21.03
755.181	19.86
755.492	19.43
755.803	21.92
756.114	20.76
756.425	22.87
756.736	18.26
757.047	21.67
757.358	19.98
757.669	20.01
757.98	21.39
758.291	19.2
758.601	19.55
758.912	20.35
759.223	23.34
759.533	19.87
759.844	21.33
760.154	20.42
760.464	17.99
760.775	19.95
761.085	22.95
761.395	21.77
761.705	19.96
762.016	18.54
762.326	19.94
762.636	20.99
762.945	20.53
763.255	20.53
763.565	19.41
763.875	19.22
764.185	21.59
764.494	21.87
764.804	19.63
765.113	18.96
765.423	19.56
765.732	20.73
766.042	21.95
766.351	20.54
766.66	20.9
766.97	20.95
767.279	22.31
767.588	21.24
767.897	21.14
768.206	22.2
768.515	20.99
768.824	21.98
769.133	21.21
769.441	21.3
769.75	23
770.059	22.18
770.367	22.67
770.676	22.84
770.984	20.8
771.293	21.31
771.601	23.17
771.91	22.97
772.218	22.46
772.526	21.76
772.834	21.27
773.142	22.18
773.45	21.01
773.758	21.15
774.066	22.44
774.374	19.9
774.682	20.29
774.99	21.75
775.298	21.82
775.605	22.79
775.913	26.16
776.22	20.47
776.528	23.92
776.835	22.92
777.143	23.01
777.45	23.97
777.757	19.55
778.065	19.12
778.372	23.63
778.679	25.09
778.986	25.4
779.293	25.54
779.6	21.61
779.907	25.07
780.214	25.04
780.52	24.37
780.827	22.11
781.134	23.32
781.44	22.82
781.747	23
782.053	24.82
782.36	25.66
782.666	19.76
782.973	25.37
783.279	22.99
783.585	21.33
783.891	23.13
784.197	23.72
784.503	21.99
784.809	25.78
785.115	22.44
785.421	26.85
785.727	23.12
786.033	24.99
786.339	24.7
786.644	24.79
786.95	24.17
787.255	28.17
787.561	27.02
787.866	25.44
788.172	23.3
788.477	25.16
788.782	21.61
789.088	24.46
789.393	23.8
789.698	26.45
790.003	23.6
790.308	20
790.613	24.82
790.918	25.53
791.223	23.31
791.527	25.44
791.832	23.97
792.137	23.85
792.441	25.53
792.746	23.32
793.05	23.44
793.355	29.47
793.659	24.49
793.963	25.79
794.268	23.15
794.572	20.51
794.876	21.79
795.18	25.95
795.484	23.81
795.788	24.05
796.092	22.27
796.396	22.95
796.7	25.33
797.004	24.5
797.307	22.11
797.611	20.41
797.915	20.9
798.218	27.47
798.522	25.44
798.825	25.8
799.128	26.74
799.432	27.57
799.735	24.08
800.038	23.8
800.341	26.1
800.644	24.26
800.947	25.51
801.25	25.37
801.553	25.27
801.856	27.36
802.159	26.42
802.462	23.45
802.764	24.78
803.067	25.38
803.37	30.29
803.672	25.29
803.975	24.79
804.277	26.18
804.579	30.4
804.882	29.81
805.184	30.55
805.486	21.19
805.788	30.71
806.09	24.77
806.392	25.34
806.694	29.13
806.996	28.93
807.298	26.45
807.6	28.6
807.902	24.73
808.203	27.13
808.505	34.26
808.807	31.43
809.108	25.34
809.409	30.97
809.711	25.97
810.012	28.2
810.313	23.11
810.615	26.53
810.916	26.27
811.217	25.3
811.518	26.85
811.819	34.85
812.12	23.42
812.421	30.48
812.722	25.31
813.023	26.37
813.323	27.53
813.624	29.42
813.925	27.95
814.225	34.37
814.526	22.54
814.826	27.23
815.126	27.2
815.427	27.2
815.727	21.99
816.027	29.2
816.327	21.33
816.627	28.27
816.927	29.68
817.227	29.06
817.527	27.18
817.827	26.31
818.127	23.71
818.427	24.63
818.727	24.5
819.026	34.41
819.326	30.67
819.625	24.7
819.925	28.33
820.224	24.5
820.524	21.61
820.823	21.25
821.122	29.8
821.421	24.96
821.72	29.41
822.019	26.85
822.318	27.37
822.617	28.85
822.916	29.12
823.215	27.23
823.514	27.24
823.813	30.56
824.111	29.74
824.41	29.42
824.709	26.64
825.007	25.88
825.306	26.8
825.604	25.79
825.902	26.91
826.201	27.04
826.499	27.02
826.797	27.81
827.095	27.99
827.393	27.37
827.691	27.46
827.989	24.93
828.287	27.65
828.585	29.1
828.882	25.72
829.18	28.38
829.478	27.51
829.775	26.54
830.073	27.67
830.37	27.75
830.668	27.55
830.965	28.87
831.263	29.94
831.56	25.75
831.857	28.39
832.154	30.64
832.451	26.81
832.748	26.09
833.045	27.56
833.342	32.04
833.639	26.51
833.936	25.32
834.232	28.95
834.529	31.01
834.826	35.76
835.122	29.82
835.419	28.79
835.715	28.5
836.012	30.46
836.308	33.84
836.604	31.6
836.901	26.85
837.197	34.17
837.493	30.95
837.789	26.58
838.085	24.53
838.381	27.59
838.677	29.36
838.972	28.65
839.268	30.38
839.564	32.97
839.86	29.53
840.155	28.72
840.451	26.86
840.746	33.36
841.042	32.48
841.337	32.42
841.632	29.68
841.928	38.01
842.223	44.46
842.518	40.67
842.813	29.13
843.108	29.19
843.403	38.69
843.698	33.44
843.993	31.49
844.287	32.09
844.582	25.18
844.877	32.95
845.171	36.55
845.466	35.55
845.761	30.57
846.055	25.34
846.349	28.98
846.644	29.37
846.938	38.44
847.232	35.59
847.526	35.49
847.82	25.69
848.114	52.19
848.408	28.28
848.702	39.34
848.996	31.63
849.29	37.99
849.584	29.64
849.877	44.22
850.171	28.17
850.465	31.44
850.758	34.39
851.052	33.01
851.345	41.34
851.638	28.54
851.932	34.44
852.225	41.6
852.518	41.1
852.811	24.52
853.104	36.91
853.397	48.62
853.69	32.6
853.983	40.05
854.276	29.32
854.569	28.75
854.861	22.31
855.154	37.56
855.447	29.4
855.739	15.21
856.032	32.18
856.324	32.5
856.616	38.16
856.909	54.74
857.201	18.14
857.493	27.3
857.785	36.31
858.077	40.21
858.369	41.7
858.661	43.07
858.953	40.41
859.245	48.13
859.537	18.99
859.829	41.05
860.12	42.91
860.412	38.73
860.703	15.43
860.995	24.49
861.286	26.39
861.578	35.95
861.869	33.55
862.16	41.1
862.452	15.12
862.743	37.56
863.034	44.95
863.325	48.03
863.616	28.5
863.907	16.58
864.198	34.18
864.488	17.56
864.779	22.39
865.07	25.36
865.36	32.89
865.651	35.35
865.941	49.29
866.232	31.22
866.522	48.31
866.813	41.75
867.103	44.43
867.393	27.28
867.683	31.43
867.973	41.81
868.263	26.24
868.553	19.28
868.843	27.69
869.133	59
869.423	17.82
869.713	33.68
870.002	35.92
870.292	54.18
870.582	44.84
870.871	54.28
871.161	26.41
871.45	33.73
871.739	41.31
872.029	30.41
872.318	59.44
872.607	61.01
872.896	51.97
873.185	44.24
873.474	62.74
873.763	25.06
874.052	43.93
874.341	48.62
874.63	49.22
874.918	26.31
875.207	55.45
875.496	41.42
875.784	37.24
876.073	52.79
876.361	59
876.649	23.7
876.938	51.06
877.226	45.68
877.514	65.19
877.802	34.34
878.09	43.24
878.378	30.34
878.666	68.12
878.954	33.02
879.242	56.99
879.53	38.2
879.817	33.56
880.105	26.67
880.392	51.01
880.68	24.23
880.967	36.2
881.255	39.89
881.542	21.46
881.83	57.24
882.117	52.42
882.404	49.25
882.691	10.62
882.978	23.21
883.265	34.51
883.552	38.21
883.839	18.87
884.126	43.5
884.413	27.48
884.699	33.07
884.986	42.04
885.273	38.17
885.559	38.17
885.846	38.17
