Data from 2019-21_forehead_Reflection__0__434.txt Node

Date: Thu Dec 15 20:19:27 CST 2022
User: ToomeyLab
Spectrometer: FLMS14357
Trigger mode: 0
Integration Time (sec): 1.000000E-2
Scans to average: 100
Electric dark correction enabled: true
Nonlinearity correction enabled: false
Boxcar width: 0
XAxis mode: Wavelengths
Number of Pixels in Spectrum: 2048
>>>>>Begin Spectral Data<<<<<
189.047	-198.35
189.435	-198.35
189.823	-198.35
190.211	-89.2
190.599	425.27
190.987	7532.26
191.375	-91.26
191.763	45.69
192.151	18.53
192.538	165.54
192.926	-33.41
193.314	-72.84
193.702	-13.44
194.089	20.81
194.477	0.85
194.864	171.76
195.252	700.83
195.639	78.89
196.027	35.25
196.414	490.73
196.801	39.79
197.189	1.36
197.576	-99.15
197.963	101.26
198.351	5.52
198.738	-20.16
199.125	-85.89
199.512	13.86
199.899	-10.63
200.286	-60.23
200.673	35.51
201.06	-43.43
201.447	-4.27
201.833	44.37
202.22	-16.78
202.607	-34.55
202.994	-6.89
203.38	-8.96
203.767	7.31
204.154	-0.91
204.54	61.74
204.927	3.57
205.313	33.51
205.699	19
206.086	17.15
206.472	9.7
206.858	-12.18
207.245	-49.82
207.631	-27.46
208.017	13.49
208.403	-51.63
208.789	-12.28
209.175	4.79
209.561	-118.66
209.947	-12.37
210.333	15.82
210.719	2
211.105	26.33
211.491	-3.36
211.876	-60.23
212.262	-26.78
212.648	2.82
213.034	-77.75
213.419	-38.17
213.805	-29.1
214.19	-68.87
214.576	3.03
214.961	16.35
215.346	-31.19
215.732	-19.6
216.117	0.22
216.502	-20.4
216.888	-2.77
217.273	6.03
217.658	-21.23
218.043	-37.67
218.428	-4.25
218.813	3.69
219.198	-57.31
219.583	-5.1
219.968	-5.64
220.353	-35.49
220.738	-3.34
221.122	-5.62
221.507	-7.45
221.892	-11.78
222.276	-19.26
222.661	-15.95
223.046	-18.99
223.43	11.99
223.815	-9.49
224.199	-5.07
224.583	-11.44
224.968	0.65
225.352	-15.42
225.736	-0.66
226.121	-7.81
226.505	-2.31
226.889	-2.19
227.273	-6.02
227.657	7.78
228.041	0.62
228.425	0.68
228.809	0.56
229.193	2.39
229.577	2.14
229.961	2.27
230.344	3.13
230.728	3.86
231.112	3.63
231.495	2.78
231.879	3.25
232.263	3.36
232.646	2.74
233.03	5.31
233.413	3.12
233.797	1.62
234.18	1.62
234.563	3.4
234.946	1.67
235.33	3.69
235.713	3.41
236.096	3.74
236.479	5.27
236.862	0.96
237.245	1.25
237.628	3.57
238.011	3.01
238.394	2.43
238.777	3.5
239.16	4.95
239.543	3.56
239.925	3.2
240.308	1.98
240.691	3.39
241.073	2.15
241.456	2.84
241.838	2.47
242.221	2.78
242.603	3.5
242.986	3.15
243.368	2.85
243.75	3.31
244.133	3.43
244.515	3.36
244.897	3.04
245.279	2.4
245.661	2.43
246.043	2.28
246.425	3.94
246.807	2.85
247.189	2.57
247.571	3.06
247.953	3
248.335	3.26
248.717	3.12
249.098	3.22
249.48	2.86
249.862	3.13
250.243	3.2
250.625	3.22
251.006	4.25
251.388	2.96
251.769	3.12
252.151	3.13
252.532	3.03
252.913	3.03
253.295	3.19
253.676	3.28
254.057	2.75
254.438	2.64
254.819	2.66
255.2	3.56
255.581	3.59
255.962	4.1
256.343	4.17
256.724	3.13
257.105	3.04
257.486	2.62
257.867	2.77
258.247	3.7
258.628	2.35
259.009	2.62
259.389	2.53
259.77	2.72
260.15	3.57
260.531	2.95
260.911	2.8
261.292	3.21
261.672	3
262.052	3.05
262.432	2.94
262.813	3.2
263.193	2.97
263.573	3.27
263.953	2.7
264.333	3.13
264.713	3.49
265.093	2.26
265.473	3.17
265.853	2.67
266.233	3.52
266.612	2.08
266.992	2.4
267.372	3.44
267.752	2.75
268.131	2.59
268.511	2.97
268.89	3.15
269.27	2.45
269.649	2.61
270.029	2.42
270.408	2.55
270.787	2.88
271.167	2.59
271.546	3.15
271.925	3.1
272.304	2.97
272.683	2.67
273.062	3.12
273.441	2.88
273.82	3.19
274.199	2.67
274.578	2.89
274.957	3
275.336	3.13
275.715	3.39
276.093	2.42
276.472	2.73
276.851	2.62
277.229	2.79
277.608	2.28
277.986	2.68
278.365	3.34
278.743	2.46
279.122	2.99
279.5	2.85
279.878	2.25
280.257	3.18
280.635	3.35
281.013	2.06
281.391	2.79
281.769	2.75
282.147	3.13
282.525	2.76
282.903	2.44
283.281	3.22
283.659	3.17
284.037	2.86
284.415	2.94
284.792	2.82
285.17	2.86
285.548	2.8
285.925	3.14
286.303	2.71
286.68	3.37
287.058	2.67
287.435	2.81
287.813	2.84
288.19	2.65
288.567	2.79
288.945	2.63
289.322	3.05
289.699	3.11
290.076	2.75
290.453	2.43
290.83	2.8
291.207	3.02
291.584	3.43
291.961	2.47
292.338	2.71
292.715	2.75
293.092	3.48
293.469	2.42
293.845	3.02
294.222	3.23
294.599	2.2
294.975	2.58
295.352	3.17
295.728	2.8
296.105	3.15
296.481	2.93
296.858	2.71
297.234	2.68
297.61	2.67
297.986	3.44
298.363	3.02
298.739	3.17
299.115	3.34
299.491	3.43
299.867	2.81
300.243	2.84
300.619	2.51
300.995	3
301.371	2.92
301.746	2.81
302.122	2.82
302.498	3.14
302.874	3.4
303.249	3.17
303.625	2.76
304	3.25
304.376	3.36
304.751	3
305.127	3.06
305.502	3.14
305.878	3.38
306.253	3.09
306.628	2.99
307.003	3.14
307.378	3.24
307.754	3.62
308.129	2.93
308.504	3.11
308.879	3.16
309.254	3.78
309.629	3.36
310.003	3.04
310.378	3.56
310.753	3.36
311.128	2.88
311.502	3.19
311.877	3.2
312.252	3.34
312.626	3.68
313.001	3.62
313.375	3.78
313.75	3.47
314.124	3.96
314.498	4.13
314.873	3.1
315.247	3.44
315.621	3.34
315.995	3.76
316.369	3.11
316.743	3.17
317.117	3.46
317.491	3.31
317.865	2.99
318.239	3.96
318.613	3.42
318.987	3.19
319.361	3.48
319.734	3.58
320.108	3.74
320.482	4
320.855	3.58
321.229	3.47
321.602	3.84
321.976	3.33
322.349	4.04
322.723	3.94
323.096	3.98
323.469	3.63
323.843	3.18
324.216	3.59
324.589	3.46
324.962	3.36
325.335	3.58
325.708	4.05
326.081	3.7
326.454	4.24
326.827	3.92
327.2	3.55
327.573	4.14
327.945	3.56
328.318	3.46
328.691	3.58
329.063	3.51
329.436	3.67
329.809	4.33
330.181	4.57
330.553	4.02
330.926	4.33
331.298	3.76
331.671	3.97
332.043	3.45
332.415	4
332.787	4.22
333.159	3.71
333.532	3.57
333.904	3.99
334.276	4.24
334.648	3.71
335.02	4.24
335.391	3.69
335.763	4.27
336.135	4.44
336.507	3.91
336.879	4.27
337.25	4.31
337.622	4.15
337.993	3.97
338.365	4.23
338.736	4
339.108	3.92
339.479	4.02
339.851	4.45
340.222	4.33
340.593	4.16
340.964	4.06
341.336	3.72
341.707	4.13
342.078	3.75
342.449	3.99
342.82	4.21
343.191	4.5
343.562	4.07
343.933	4.22
344.303	4.57
344.674	4.29
345.045	3.99
345.416	4.51
345.786	3.95
346.157	4.01
346.527	3.79
346.898	3.74
347.268	4.13
347.639	4.18
348.009	4.07
348.38	4.27
348.75	4.31
349.12	4.49
349.49	4.62
349.861	4.23
350.231	3.86
350.601	4.45
350.971	3.87
351.341	4.22
351.711	4.05
352.081	4.09
352.45	3.98
352.82	3.92
353.19	4.03
353.56	4.49
353.929	4.38
354.299	4.34
354.669	4.36
355.038	4.68
355.408	4.27
355.777	4.32
356.147	4.35
356.516	4
356.885	4.35
357.254	4.07
357.624	4.02
357.993	4.4
358.362	4.4
358.731	4.31
359.1	4.53
359.469	4.76
359.838	4.38
360.207	4.3
360.576	4.57
360.945	4.51
361.314	4.4
361.682	4.14
362.051	4.49
362.42	4.25
362.788	4.53
363.157	4.26
363.525	4.36
363.894	4.28
364.262	4.22
364.631	4.73
364.999	4.46
365.367	4.33
365.735	4.2
366.104	4.33
366.472	4.29
366.84	4.6
367.208	4.66
367.576	4.37
367.944	4.42
368.312	4.47
368.68	4.63
369.048	4.71
369.416	4.14
369.783	4.42
370.151	4.9
370.519	5.02
370.886	4.81
371.254	4.76
371.621	4.85
371.989	4.59
372.356	4.65
372.724	4.31
373.091	4.4
373.458	4.74
373.826	4.78
374.193	4.75
374.56	4.83
374.927	4.68
375.294	4.97
375.661	4.65
376.028	4.46
376.395	4.73
376.762	4.28
377.129	4.48
377.496	4.98
377.863	4.66
378.229	4.91
378.596	4.96
378.963	4.96
379.329	4.82
379.696	4.48
380.062	4.53
380.429	4.8
380.795	4.94
381.161	4.36
381.528	4.48
381.894	4.56
382.26	4.68
382.626	4.88
382.993	4.98
383.359	4.88
383.725	4.81
384.091	4.97
384.457	4.7
384.823	4.91
385.188	5.03
385.554	4.75
385.92	4.92
386.286	5.04
386.651	4.66
387.017	4.87
387.383	4.77
387.748	5.19
388.114	4.91
388.479	4.75
388.845	4.77
389.21	5.06
389.575	5.04
389.94	4.9
390.306	5.09
390.671	4.95
391.036	4.58
391.401	4.85
391.766	5.13
392.131	5.17
392.496	5.08
392.861	4.85
393.226	5.01
393.591	5.09
393.956	5.08
394.32	5.2
394.685	5.04
395.05	5.14
395.414	5.03
395.779	5.17
396.143	4.95
396.508	5.05
396.872	4.99
397.236	5.37
397.601	5.32
397.965	5.09
398.329	5.17
398.694	4.8
399.058	5.19
399.422	5.08
399.786	4.98
400.15	4.95
400.514	5.09
400.878	5.13
401.242	5.48
401.605	5.21
401.969	5.11
402.333	5.06
402.697	5.48
403.06	5.26
403.424	5.13
403.787	5.15
404.151	5.25
404.514	5.21
404.878	4.99
405.241	5.26
405.604	5.18
405.968	5.2
406.331	5.42
406.694	5.31
407.057	5.26
407.42	5.29
407.783	5.47
408.146	5.26
408.509	5.39
408.872	5.13
409.235	5.4
409.598	5.33
409.961	5.4
410.323	5.38
410.686	5.55
411.049	5.4
411.411	5.21
411.774	5.39
412.136	5.34
412.499	5.53
412.861	5.16
413.223	5.17
413.586	5.46
413.948	5.52
414.31	5.57
414.672	5.38
415.035	5.75
415.397	5.42
415.759	5.22
416.121	5.55
416.483	5.35
416.845	5.55
417.206	5.47
417.568	5.39
417.93	5.69
418.292	5.49
418.653	5.43
419.015	5.39
419.377	5.34
419.738	5.51
420.1	5.44
420.461	5.46
420.822	5.49
421.184	5.41
421.545	5.58
421.906	5.52
422.267	5.4
422.629	5.4
422.99	5.48
423.351	5.45
423.712	5.62
424.073	5.59
424.434	5.65
424.795	5.46
425.155	5.56
425.516	5.58
425.877	5.55
426.238	5.54
426.598	5.61
426.959	5.72
427.32	5.7
427.68	5.67
428.041	5.69
428.401	5.64
428.761	5.86
429.122	5.83
429.482	5.88
429.842	5.7
430.202	6.09
430.563	5.85
430.923	5.94
431.283	5.95
431.643	6.03
432.003	5.91
432.363	6.07
432.722	5.95
433.082	5.95
433.442	6.12
433.802	5.98
434.161	5.97
434.521	5.96
434.881	6.06
435.24	5.95
435.6	6.06
435.959	6.14
436.319	6.18
436.678	6.23
437.037	6.04
437.396	6.14
437.756	6.25
438.115	6.11
438.474	6.14
438.833	6.13
439.192	6.11
439.551	6.22
439.91	6.2
440.269	6.33
440.628	6.18
440.987	6.23
441.345	6.24
441.704	6.18
442.063	6.26
442.421	6.3
442.78	6.33
443.138	6.28
443.497	6.33
443.855	6.4
444.214	6.3
444.572	6.48
444.93	6.48
445.288	6.53
445.647	6.4
446.005	6.37
446.363	6.46
446.721	6.42
447.079	6.35
447.437	6.45
447.795	6.38
448.153	6.4
448.51	6.42
448.868	6.37
449.226	6.5
449.584	6.54
449.941	6.56
450.299	6.61
450.656	6.5
451.014	6.73
451.371	6.82
451.729	6.76
452.086	6.83
452.443	6.89
452.801	6.75
453.158	6.87
453.515	6.72
453.872	6.82
454.229	6.58
454.586	6.77
454.943	6.84
455.3	6.79
455.657	6.89
456.014	6.77
456.371	6.87
456.727	7.14
457.084	6.97
457.441	7.02
457.797	7.1
458.154	6.99
458.51	6.97
458.867	7.06
459.223	6.93
459.58	6.99
459.936	6.96
460.292	6.95
460.648	6.89
461.005	6.93
461.361	6.81
461.717	6.93
462.073	7.07
462.429	7.14
462.785	7.26
463.141	7.11
463.496	7.25
463.852	7.44
464.208	7.15
464.564	7.29
464.919	7.32
465.275	7.41
465.631	7.55
465.986	7.4
466.342	7.2
466.697	7.25
467.052	7.6
467.408	7.5
467.763	7.43
468.118	7.47
468.473	7.36
468.829	7.31
469.184	7.45
469.539	7.39
469.894	7.47
470.249	7.64
470.603	7.61
470.958	7.69
471.313	7.74
471.668	7.66
472.023	7.71
472.377	7.7
472.732	7.87
473.086	7.83
473.441	7.55
473.795	7.89
474.15	7.63
474.504	7.73
474.859	7.54
475.213	7.73
475.567	7.54
475.921	7.97
476.275	7.93
476.63	7.84
476.984	7.92
477.338	8.01
477.692	7.85
478.045	7.85
478.399	7.86
478.753	8.01
479.107	7.93
479.461	7.81
479.814	7.96
480.168	7.95
480.521	8.02
480.875	8.13
481.228	8.1
481.582	8.03
481.935	8.16
482.289	8.09
482.642	8.05
482.995	7.91
483.348	7.93
483.701	7.91
484.055	7.84
484.408	7.88
484.761	7.68
485.114	7.48
485.466	7.44
485.819	7.52
486.172	7.65
486.525	7.77
486.878	7.95
487.23	8.01
487.583	8
487.936	7.97
488.288	7.94
488.641	7.81
488.993	7.75
489.345	7.8
489.698	7.89
490.05	7.92
490.402	8.05
490.754	8.12
491.107	8.2
491.459	8.28
491.811	8.38
492.163	8.28
492.515	8.09
492.866	8.04
493.218	7.96
493.57	8.06
493.922	8.16
494.274	8.41
494.625	8.52
494.977	8.56
495.328	8.65
495.68	8.62
496.031	8.73
496.383	8.63
496.734	8.69
497.086	8.75
497.437	8.83
497.788	8.79
498.139	8.65
498.49	8.58
498.842	8.72
499.193	8.63
499.544	8.72
499.894	8.84
500.245	8.79
500.596	8.86
500.947	8.83
501.298	8.88
501.648	8.91
501.999	9.1
502.35	8.84
502.7	9.18
503.051	8.94
503.401	9.08
503.752	9.01
504.102	9.09
504.452	9
504.803	8.94
505.153	9
505.503	9.05
505.853	9.21
506.203	9.2
506.553	9.07
506.903	9.18
507.253	9.21
507.603	9.23
507.953	9.24
508.303	9.2
508.652	9.09
509.002	9.33
509.352	9.29
509.701	9.06
510.051	9.27
510.4	9.34
510.75	9.06
511.099	9.21
511.449	9.27
511.798	9.24
512.147	9.38
512.496	9.23
512.846	9.28
513.195	9.4
513.544	9.41
513.893	9.38
514.242	9.43
514.591	9.39
514.939	9.53
515.288	9.56
515.637	9.45
515.986	9.44
516.334	9.72
516.683	9.65
517.032	9.57
517.38	9.45
517.729	9.63
518.077	9.57
518.426	9.65
518.774	9.53
519.122	9.63
519.47	9.44
519.819	9.43
520.167	9.34
520.515	9.43
520.863	9.51
521.211	9.49
521.559	9.58
521.907	9.67
522.255	9.72
522.602	9.83
522.95	9.89
523.298	9.84
523.645	9.85
523.993	9.81
524.341	9.78
524.688	9.83
525.036	9.77
525.383	9.88
525.73	9.81
526.078	10.03
526.425	9.8
526.772	9.73
527.119	9.71
527.466	9.77
527.814	9.71
528.161	9.85
528.508	9.9
528.854	9.87
529.201	9.71
529.548	9.63
529.895	9.43
530.242	9.33
530.588	9.41
530.935	9.57
531.282	9.71
531.628	9.84
531.975	9.92
532.321	10.06
532.667	10.06
533.014	10.1
533.36	10.19
533.706	10.13
534.052	9.99
534.399	9.99
534.745	9.81
535.091	9.75
535.437	9.91
535.783	10.06
536.129	10.17
536.474	10.29
536.82	10.3
537.166	10.26
537.512	10.28
537.857	10.25
538.203	10.2
538.549	10.17
538.894	10.18
539.239	10.38
539.585	10.57
539.93	10.66
540.276	10.71
540.621	10.65
540.966	10.68
541.311	10.77
541.656	10.51
542.001	10.38
542.346	10.25
542.691	10.13
543.036	10.09
543.381	10.12
543.726	10.37
544.071	10.44
544.415	10.48
544.76	10.5
545.105	10.62
545.449	10.63
545.794	10.86
546.138	10.7
546.483	10.74
546.827	10.8
547.171	10.9
547.516	10.84
547.86	10.83
548.204	10.78
548.548	10.84
548.892	10.86
549.236	10.96
549.58	11.01
549.924	11.38
550.268	11.27
550.612	11.34
550.956	11.44
551.3	11.45
551.643	11.33
551.987	11.45
552.33	11.54
552.674	11.42
553.017	11.39
553.361	11.44
553.704	11.56
554.048	11.44
554.391	11.42
554.734	11.29
555.077	11.41
555.42	11.53
555.764	11.38
556.107	11.5
556.45	11.55
556.793	11.64
557.135	11.62
557.478	11.73
557.821	11.69
558.164	11.65
558.507	11.63
558.849	11.87
559.192	11.81
559.534	11.8
559.877	11.78
560.219	11.8
560.562	11.7
560.904	12.11
561.246	11.8
561.589	12.11
561.931	12.06
562.273	11.91
562.615	12.02
562.957	11.84
563.299	11.93
563.641	12.05
563.983	11.85
564.325	12.13
564.667	12.01
565.008	12.14
565.35	11.98
565.692	12.1
566.033	12.22
566.375	12.22
566.716	12.05
567.058	11.98
567.399	12.09
567.741	12.05
568.082	12.17
568.423	12.1
568.764	12.28
569.105	12.39
569.447	12.33
569.788	12.32
570.129	12.45
570.47	12.44
570.811	12.41
571.151	12.44
571.492	12.49
571.833	12.5
572.174	12.53
572.514	12.46
572.855	12.48
573.195	12.37
573.536	12.41
573.876	12.38
574.217	12.54
574.557	12.37
574.898	12.5
575.238	12.65
575.578	12.72
575.918	12.67
576.258	12.69
576.598	12.56
576.938	12.67
577.278	12.78
577.618	12.67
577.958	12.79
578.298	12.85
578.638	12.89
578.977	12.92
579.317	12.93
579.657	13.02
579.996	13.23
580.336	13.14
580.675	13
581.014	13.11
581.354	13.01
581.693	13.29
582.032	13.52
582.372	13.25
582.711	13.24
583.05	13.17
583.389	13.31
583.728	13.47
584.067	13.32
584.406	13.46
584.745	13.42
585.083	13.34
585.422	13.58
585.761	13.54
586.1	13.54
586.438	13.56
586.777	13.41
587.115	13.54
587.454	13.41
587.792	13.73
588.13	13.54
588.469	13.59
588.807	13.82
589.145	13.46
589.483	13.5
589.821	13.68
590.159	13.84
590.497	13.65
590.835	13.88
591.173	13.71
591.511	13.76
591.849	13.8
592.187	13.71
592.524	13.97
592.862	13.65
593.2	13.88
593.537	13.89
593.875	13.88
594.212	13.83
594.55	13.87
594.887	14.13
595.224	13.94
595.561	13.86
595.899	14.1
596.236	14.06
596.573	14.01
596.91	14.13
597.247	14.35
597.584	13.91
597.921	13.96
598.258	14.05
598.594	13.83
598.931	13.67
599.268	14.01
599.604	13.94
599.941	13.98
600.277	14.26
600.614	14.23
600.95	14.12
601.287	14.09
601.623	14.05
601.959	14.48
602.296	14.48
602.632	14.49
602.968	14.03
603.304	14.25
603.64	14.26
603.976	14.06
604.312	14.28
604.648	14.16
604.984	14.26
605.319	14.46
605.655	14.47
605.991	14.16
606.326	14.26
606.662	14.07
606.998	14.57
607.333	14.39
607.668	14.41
608.004	14.56
608.339	14.4
608.674	14.69
609.01	14.98
609.345	14.68
609.68	14.84
610.015	14.65
610.35	14.71
610.685	14.42
611.02	14.4
611.355	14.64
611.689	14.5
612.024	14.66
612.359	14.8
612.694	14.82
613.028	14.85
613.363	14.96
613.697	14.87
614.032	15.21
614.366	14.77
614.7	14.58
615.035	14.96
615.369	15.04
615.703	15.31
616.037	15.11
616.371	15.12
616.705	15.02
617.039	15.13
617.373	15.26
617.707	15.08
618.041	14.99
618.375	14.57
618.709	15.01
619.042	15.05
619.376	14.87
619.71	15.1
620.043	15.24
620.377	15.34
620.71	14.98
621.043	15.5
621.377	15.39
621.71	15.4
622.043	15.87
622.376	15.25
622.709	15.47
623.043	15.24
623.376	15.25
623.709	15.6
624.041	15.6
624.374	15.61
624.707	15.56
625.04	15.15
625.373	15.76
625.705	15.56
626.038	15.8
626.37	15.77
626.703	15.69
627.035	15.48
627.368	15.63
627.7	15.65
628.032	15.48
628.365	15.51
628.697	15.58
629.029	15.58
629.361	15.55
629.693	15.78
630.025	15.92
630.357	15.74
630.689	15.55
631.021	16.13
631.353	15.85
631.684	15.68
632.016	15.68
632.348	15.68
632.679	16.02
633.011	16.04
633.342	15.65
633.674	15.7
634.005	15.76
634.336	16.05
634.668	15.58
634.999	15.78
635.33	16.38
635.661	15.95
635.992	16.02
636.323	15.87
636.654	16.27
636.985	16.1
637.316	16.01
637.647	15.88
637.977	15.91
638.308	16.33
638.639	16.07
638.969	16.01
639.3	16.2
639.63	16.3
639.961	16.11
640.291	16.2
640.622	16.29
640.952	16.07
641.282	15.91
641.612	16.06
641.943	16.15
642.273	16.24
642.603	16.56
642.933	16.64
643.263	16.26
643.592	16.61
643.922	16.61
644.252	16.53
644.582	16.55
644.911	16.48
645.241	16.41
645.571	16.6
645.9	16.82
646.23	16.87
646.559	16.63
646.888	16.97
647.218	16.53
647.547	16.86
647.876	16.66
648.205	15.88
648.534	17.11
648.863	16.75
649.192	16.79
649.521	16.68
649.85	16.74
650.179	16.85
650.508	16.61
650.837	17.18
651.165	17.07
651.494	16.73
651.822	17.19
652.151	16.89
652.479	17.05
652.808	16.55
653.136	16.5
653.465	17.08
653.793	17.16
654.121	16.66
654.449	17.03
654.777	16.79
655.105	16.91
655.433	17.39
655.761	17.21
656.089	17.57
656.417	17.88
656.745	17.03
657.073	17.37
657.4	17.29
657.728	17.2
658.056	17.83
658.383	17.11
658.711	17.76
659.038	17.68
659.365	17.9
659.693	17.45
660.02	17.1
660.347	17.23
660.674	17.08
661.001	17.32
661.329	17.15
661.656	17.36
661.982	17.43
662.309	17.67
662.636	17.42
662.963	17.17
663.29	17.58
663.616	17.56
663.943	18.27
664.27	17.5
664.596	17.84
664.923	18.17
665.249	17.97
665.576	17.28
665.902	17.29
666.228	18.28
666.554	18.66
666.881	18.04
667.207	18.23
667.533	18.43
667.859	17.85
668.185	17.86
668.511	18.43
668.837	18.28
669.162	18.41
669.488	17.3
669.814	17.84
670.139	17.64
670.465	18.58
670.791	17.97
671.116	18.1
671.442	18.17
671.767	18.08
672.092	18.03
672.418	18.53
672.743	18.35
673.068	17.93
673.393	18.44
673.718	18.37
674.043	18.3
674.368	18.29
674.693	18.96
675.018	18.8
675.343	18.62
675.667	18.45
675.992	18.61
676.317	18.03
676.641	18.6
676.966	18.47
677.29	17.83
677.615	18.34
677.939	18.4
678.264	18.7
678.588	18.93
678.912	19.06
679.236	18.29
679.56	18.68
679.885	19.22
680.209	19.09
680.532	19.19
680.856	19.07
681.18	19.68
681.504	18.89
681.828	18.81
682.152	18.71
682.475	19.17
682.799	18.64
683.122	18.85
683.446	18.84
683.769	19.3
684.093	19.26
684.416	19.19
684.739	19.4
685.062	18.98
685.386	19.37
685.709	19.38
686.032	18.95
686.355	19.4
686.678	19.76
687.001	18.63
687.324	19.36
687.646	19.1
687.969	19.46
688.292	19.29
688.614	19.97
688.937	19.5
689.26	19.82
689.582	20.03
689.904	19.5
690.227	19.95
690.549	19.41
690.871	19.73
691.194	19.63
691.516	20.02
691.838	19.63
692.16	19.1
692.482	19.71
692.804	19.49
693.126	19.38
693.448	19.18
693.769	19.39
694.091	20.71
694.413	19.23
694.735	19.36
695.056	19.94
695.378	19.83
695.699	19.93
696.021	20.2
696.342	19.35
696.663	19.72
696.984	19.45
697.306	19.95
697.627	21.46
697.948	20.15
698.269	20.88
698.59	19.89
698.911	20.32
699.232	20.42
699.553	20.27
699.873	20.15
700.194	20.02
700.515	19.89
700.835	19.58
701.156	20.76
701.477	19.81
701.797	19.84
702.117	19.78
702.438	20.11
702.758	20.69
703.078	21
703.398	20.28
703.719	20.33
704.039	20.59
704.359	20.54
704.679	19.8
704.999	19.85
705.319	20.33
705.638	20.4
705.958	20.57
706.278	20.67
706.597	21.05
706.917	21.14
707.237	20.79
707.556	20.71
707.876	21.13
708.195	21.18
708.514	20
708.834	20.75
709.153	21.15
709.472	20.83
709.791	20.82
710.11	20.5
710.429	21.33
710.748	22.21
711.067	21.55
711.386	19.78
711.705	20.9
712.023	20.15
712.342	20.15
712.661	20.57
712.979	20.88
713.298	20.81
713.616	20.83
713.935	21.33
714.253	20.76
714.572	20.5
714.89	21.06
715.208	21.19
715.526	21.03
715.844	21.35
716.162	20.71
716.48	21.36
716.798	21.31
717.116	20.65
717.434	20.78
717.752	20.94
718.069	21.47
718.387	20.31
718.705	21.35
719.022	21.27
719.34	20.4
719.657	21.42
719.975	21.52
720.292	21.87
720.609	20.44
720.927	21.22
721.244	21.38
721.561	20.78
721.878	21.3
722.195	21.81
722.512	20.83
722.829	21.79
723.146	20.39
723.463	20.84
723.779	20.3
724.096	20.04
724.413	20.22
724.729	21.71
725.046	20.42
725.362	21.14
725.679	20.97
725.995	19.84
726.311	21.13
726.628	21.27
726.944	22.61
727.26	21.2
727.576	21.61
727.892	20.63
728.208	21.39
728.524	21.05
728.84	21.24
729.156	21.37
729.472	20.28
729.787	22.41
730.103	21.41
730.419	20.71
730.734	21.19
731.05	21.96
731.365	21.78
731.681	22.14
731.996	21.39
732.311	21.54
732.626	22.01
732.942	22.02
733.257	21.74
733.572	22.25
733.887	23.56
734.202	21.92
734.517	22.74
734.832	21.48
735.146	22.28
735.461	21.87
735.776	23.22
736.091	22.72
736.405	21.63
736.72	20.98
737.034	21.14
737.349	22.31
737.663	22.68
737.977	23.55
738.292	21.24
738.606	23.58
738.92	23.2
739.234	20.72
739.548	22.95
739.862	21.62
740.176	22.57
740.49	22.13
740.804	22.23
741.117	21.53
741.431	22.39
741.745	21.45
742.058	21.19
742.372	21.7
742.685	22.23
742.999	22.67
743.312	22.92
743.626	23.22
743.939	22.91
744.252	21.7
744.565	21.97
744.878	21.12
745.191	22.25
745.505	22.88
745.817	25
746.13	22.55
746.443	21.95
746.756	23.82
747.069	21.5
747.381	21.59
747.694	21.6
748.007	23.24
748.319	23.83
748.632	22.67
748.944	21.37
749.256	23.88
749.569	22.71
749.881	23.43
750.193	22.04
750.505	22.63
750.817	22.16
751.129	23.47
751.441	23.15
751.753	23.74
752.065	23.03
752.377	23.25
752.689	21.7
753	22.93
753.312	22.92
753.624	22.49
753.935	23.05
754.247	22.74
754.558	23.28
754.869	23.75
755.181	22.49
755.492	22.25
755.803	24.28
756.114	24.39
756.425	22.06
756.736	22.63
757.047	24.29
757.358	23.72
757.669	24.47
757.98	23.72
758.291	23.65
758.601	22.7
758.912	22.84
759.223	22.66
759.533	23.82
759.844	22.75
760.154	23.2
760.464	24.82
760.775	23.49
761.085	23.51
761.395	23.64
761.705	21.89
762.016	21.63
762.326	24.4
762.636	24.22
762.945	21.75
763.255	22.42
763.565	24.06
763.875	22.47
764.185	23.68
764.494	22.66
764.804	23.53
765.113	23.52
765.423	23.79
765.732	23.15
766.042	23.8
766.351	25.7
766.66	23.74
766.97	23.58
767.279	23.5
767.588	22.55
767.897	23.33
768.206	23.89
768.515	24.56
768.824	22.68
769.133	23.02
769.441	22.6
769.75	22.17
770.059	22.98
770.367	22.65
770.676	22.85
770.984	22.8
771.293	24.12
771.601	21.03
771.91	22.43
772.218	22.63
772.526	21.46
772.834	23.37
773.142	23.56
773.45	25.3
773.758	24.99
774.066	24.47
774.374	23.35
774.682	24.22
774.99	21.37
775.298	23.24
775.605	20.64
775.913	22.68
776.22	21.35
776.528	23.09
776.835	23.56
777.143	25.19
777.45	20.97
777.757	23.94
778.065	25.68
778.372	25.23
778.679	26.02
778.986	23.14
779.293	23.28
779.6	22.58
779.907	24.28
780.214	24.65
780.52	27.82
780.827	21.83
781.134	19.93
781.44	29.85
781.747	22.86
782.053	22.55
782.36	22.42
782.666	21.74
782.973	20.07
783.279	22.25
783.585	23.42
783.891	22.69
784.197	23.33
784.503	24.7
784.809	26.76
785.115	23.11
785.421	24.82
785.727	25.33
786.033	21.26
786.339	23.4
786.644	21.64
786.95	21.72
787.255	20.74
787.561	21.6
787.866	22.59
788.172	22.05
788.477	24.88
788.782	20.57
789.088	17.97
789.393	25.17
789.698	25.19
790.003	24.75
790.308	23.42
790.613	26.06
790.918	23.94
791.223	26.82
791.527	26.93
791.832	25.08
792.137	24.9
792.441	21.71
792.746	25.57
793.05	24.25
793.355	23.88
793.659	22.98
793.963	23.17
794.268	24.31
794.572	22.27
794.876	20.79
795.18	24.3
795.484	25.12
795.788	27.95
796.092	22.2
796.396	20.26
796.7	22.46
797.004	27.95
797.307	20.67
797.611	24.97
797.915	22.08
798.218	23.71
798.522	27.51
798.825	25.29
799.128	26.26
799.432	24.55
799.735	23.32
800.038	26.9
800.341	27.14
800.644	25.48
800.947	25.63
801.25	25.11
801.553	26.78
801.856	25.84
802.159	21.89
802.462	27.45
802.764	31.34
803.067	26.74
803.37	27.26
803.672	21.75
803.975	24.78
804.277	30.57
804.579	20.59
804.882	20.34
805.184	23.76
805.486	27.9
805.788	28.37
806.09	18.76
806.392	24.59
806.694	29.55
806.996	28.21
807.298	20.72
807.6	27.31
807.902	24.15
808.203	14.81
808.505	21.86
808.807	27.57
809.108	24.41
809.409	23.4
809.711	20.06
810.012	24.03
810.313	24.43
810.615	23.71
810.916	25.86
811.217	24.03
811.518	19.28
811.819	20.99
812.12	22.54
812.421	22.01
812.722	20.04
813.023	28.6
813.323	21.99
813.624	25.84
813.925	29.09
814.225	25.44
814.526	17.66
814.826	28.46
815.126	22.98
815.427	21.53
815.727	23.35
816.027	23.94
816.327	28.94
816.627	24.6
816.927	24.87
817.227	23.58
817.527	29.83
817.827	24.82
818.127	22.34
818.427	22.52
818.727	21.35
819.026	19.71
819.326	25.29
819.625	24.96
819.925	22.41
820.224	24.3
820.524	23.8
820.823	23.42
821.122	21.76
821.421	24.36
821.72	23.82
822.019	20.98
822.318	26.09
822.617	24
822.916	22.44
823.215	24.51
823.514	25.72
823.813	24.93
824.111	25.86
824.41	26.13
824.709	26.55
825.007	26.54
825.306	27.78
825.604	27.89
825.902	28.44
826.201	27.42
826.499	27.92
826.797	26.89
827.095	29.59
827.393	28.66
827.691	28.26
827.989	26.49
828.287	28.23
828.585	26.93
828.882	26.43
829.18	25.21
829.478	27.49
829.775	28
830.073	27.12
830.37	26.99
830.668	27.37
830.965	27.35
831.263	26.93
831.56	27.41
831.857	26.7
832.154	27.31
832.451	30.13
832.748	25.96
833.045	27.78
833.342	27.54
833.639	27.68
833.936	21.7
834.232	25.53
834.529	24.83
834.826	30.12
835.122	24.02
835.419	28.39
835.715	23.61
836.012	25.65
836.308	27.2
836.604	27.36
836.901	22.46
837.197	29.63
837.493	27.23
837.789	26.18
838.085	22.29
838.381	28.21
838.677	27.9
838.972	25.03
839.268	25.93
839.564	27.68
839.86	22.96
840.155	38.92
840.451	24.83
840.746	31
841.042	18.59
841.337	20.66
841.632	26.27
841.928	27.03
842.223	25.48
842.518	26.89
842.813	23.95
843.108	21.95
843.403	22.72
843.698	13.31
843.993	35.35
844.287	20.94
844.582	26.79
844.877	26.94
845.171	28.28
845.466	22.58
845.761	23.22
846.055	33.28
846.349	28.78
846.644	31.04
846.938	32.12
847.232	17.74
847.526	18.4
847.82	20.33
848.114	24.92
848.408	24.42
848.702	22.51
848.996	22.6
849.29	41.12
849.584	23.68
849.877	29.96
850.171	23.7
850.465	14.13
850.758	11.24
851.052	4.8
851.345	28.7
851.638	26.68
851.932	24.33
852.225	45.85
852.518	14.48
852.811	4.06
853.104	34.03
853.397	15.81
853.69	28.06
853.983	1.98
854.276	34.52
854.569	-16.82
854.861	6.54
855.154	36.76
855.447	12.13
855.739	-1.23
856.032	19.24
856.324	19.41
856.616	21.28
856.909	16.37
857.201	2.49
857.493	-7.75
857.785	5.48
858.077	0.39
858.369	23.08
858.661	15.99
858.953	20.41
859.245	25.38
859.537	-26.31
859.829	22.7
860.12	30.56
860.412	3.83
860.703	31.01
860.995	30.08
861.286	-7.47
861.578	19.26
861.869	33.13
862.16	8.42
862.452	-2.32
862.743	16.22
863.034	12.48
863.325	17.19
863.616	6.05
863.907	39.16
864.198	7.4
864.488	52.47
864.779	18.08
865.07	28.94
865.36	14.88
865.651	33.7
865.941	11.22
866.232	47.87
866.522	36.7
866.813	8.92
867.103	18
867.393	24.12
867.683	27.87
867.973	-0.12
868.263	-9.23
868.553	32.29
868.843	-10.81
869.133	4.29
869.423	1.39
869.713	-3.54
870.002	43.1
870.292	20.65
870.582	33.57
870.871	26.33
871.161	35.92
871.45	-10.94
871.739	68.06
872.029	17.34
872.318	27.09
872.607	34.02
872.896	26.76
873.185	14.8
873.474	-2.71
873.763	17.7
874.052	15.7
874.341	0.41
874.63	23.3
874.918	41.11
875.207	12.47
875.496	38.36
875.784	23.24
876.073	11.57
876.361	16
876.649	-19.9
876.938	10.86
877.226	30.09
877.514	30.2
877.802	-11.88
878.09	8.93
878.378	8.65
878.666	42.92
878.954	39.54
879.242	48.25
879.53	17.45
879.817	-4.08
880.105	24.73
880.392	9.29
880.68	13.32
880.967	17.39
881.255	19.55
881.542	-6.87
881.83	51.81
882.117	8.94
882.404	21.88
882.691	12.53
882.978	38.55
883.265	28.64
883.552	22.75
883.839	24.14
884.126	17.21
884.413	20.65
884.699	30.31
884.986	32.38
885.273	27.16
885.559	27.16
885.846	27.16
