Data from 0205_crown_Reflection__4__287.txt Node

Date: Fri Dec 15 18:48:01 CST 2023
User: ToomeyLab
Spectrometer: FLMS14357
Trigger mode: 0
Integration Time (sec): 1.000000E-2
Scans to average: 100
Electric dark correction enabled: true
Nonlinearity correction enabled: false
Boxcar width: 0
XAxis mode: Wavelengths
Number of Pixels in Spectrum: 2048
>>>>>Begin Spectral Data<<<<<
189.047	188.19
189.435	188.19
189.823	188.19
190.211	-12.3
190.599	323.34
190.987	41.11
191.375	104.43
191.763	35.31
192.151	12.62
192.538	63.19
192.926	-188.73
193.314	6554.67
193.702	128.39
194.089	-45.31
194.477	-59.37
194.864	-84.67
195.252	62.84
195.639	124.75
196.027	571.37
196.414	302.44
196.801	79.71
197.189	97.96
197.576	209.88
197.963	-232.84
198.351	-75.19
198.738	-100.02
199.125	-38.25
199.512	-29.42
199.899	9.92
200.286	11.54
200.673	0.21
201.06	-31.05
201.447	-40.17
201.833	14.77
202.22	-12.03
202.607	-4.45
202.994	-61.65
203.38	-21.32
203.767	-12.71
204.154	31.74
204.54	-2.43
204.927	-92.93
205.313	-135.08
205.699	15.84
206.086	58.14
206.472	-9.82
206.858	-14.38
207.245	-9.35
207.631	15.08
208.017	-4.4
208.403	-68.63
208.789	-14.55
209.175	-19.53
209.561	-42.11
209.947	-7.46
210.333	-52.52
210.719	-26.52
211.105	-4.85
211.491	-69.86
211.876	16.09
212.262	3.84
212.648	-40.64
213.034	1.05
213.419	-18
213.805	-21.9
214.19	-41.98
214.576	-2.76
214.961	-31.3
215.346	-78.8
215.732	-26.84
216.117	9.78
216.502	-72.54
216.888	-46.5
217.273	11.23
217.658	-35.34
218.043	-15.64
218.428	-97.79
218.813	-9.4
219.198	-49.06
219.583	-39.78
219.968	-8.49
220.353	-38.34
220.738	4.67
221.122	8.14
221.507	-25.63
221.892	-44.47
222.276	-55.16
222.661	-9.33
223.046	15.95
223.43	14.79
223.815	2.12
224.199	-19.55
224.583	-15.82
224.968	-12.49
225.352	2.67
225.736	-19.4
226.121	-14.7
226.505	-9.53
226.889	-1.35
227.273	-2.62
227.657	2.43
228.041	-0.12
228.425	3.05
228.809	4.79
229.193	0.24
229.577	1.3
229.961	2.44
230.344	2.87
230.728	2.96
231.112	3.37
231.495	2.92
231.879	1.73
232.263	3.72
232.646	3.48
233.03	2.25
233.413	1.33
233.797	0.36
234.18	-0.32
234.563	0.89
234.946	1.15
235.33	4.03
235.713	3.67
236.096	2.4
236.479	4.53
236.862	0.89
237.245	3.29
237.628	1.98
238.011	2.84
238.394	3.46
238.777	1.94
239.16	1.52
239.543	2.27
239.925	2.54
240.308	2.77
240.691	2.4
241.073	2.65
241.456	3.02
241.838	2.95
242.221	2.73
242.603	2.45
242.986	3.48
243.368	2.97
243.75	3.01
244.133	3.19
244.515	3.6
244.897	2.94
245.279	3.36
245.661	2.71
246.043	1.95
246.425	1.17
246.807	4.56
247.189	3.15
247.571	3.47
247.953	2.91
248.335	3.2
248.717	3.43
249.098	3.02
249.48	3.2
249.862	2.99
250.243	3.27
250.625	3.49
251.006	3.32
251.388	2.18
251.769	3.12
252.151	3.01
252.532	3.13
252.913	0.9
253.295	2.14
253.676	2.81
254.057	2.93
254.438	2.66
254.819	2.41
255.2	2.84
255.581	2.97
255.962	2.4
256.343	2.55
256.724	1.97
257.105	3.1
257.486	2.68
257.867	2.48
258.247	2.49
258.628	3.02
259.009	3.1
259.389	3.46
259.77	2.47
260.15	2.18
260.531	2.45
260.911	3.16
261.292	2.97
261.672	3.17
262.052	2.8
262.432	3.32
262.813	2.96
263.193	2.69
263.573	2.36
263.953	2.69
264.333	2.85
264.713	2.53
265.093	1.99
265.473	2.5
265.853	1.83
266.233	2.49
266.612	0.64
266.992	1.43
267.372	2.22
267.752	2.19
268.131	2.64
268.511	2.6
268.89	2.95
269.27	2.47
269.649	2.37
270.029	2.27
270.408	3.01
270.787	2.44
271.167	2.47
271.546	2.79
271.925	2.4
272.304	2.11
272.683	3.28
273.062	2.22
273.441	2.88
273.82	2.13
274.199	2.7
274.578	2.85
274.957	2.49
275.336	2.76
275.715	2.36
276.093	2.57
276.472	2.48
276.851	2.43
277.229	2.3
277.608	1.66
277.986	2.26
278.365	2.85
278.743	2.37
279.122	2.5
279.5	2.24
279.878	2.41
280.257	2.66
280.635	1.8
281.013	2.61
281.391	2.7
281.769	2.7
282.147	3.26
282.525	3.19
282.903	2.4
283.281	2.96
283.659	3.1
284.037	3.03
284.415	3.07
284.792	3.08
285.17	2.08
285.548	2.34
285.925	2.74
286.303	2.58
286.68	2.52
287.058	2.41
287.435	2.23
287.813	2.82
288.19	2.5
288.567	2.7
288.945	2.78
289.322	2.34
289.699	2.68
290.076	2.05
290.453	2.4
290.83	2.53
291.207	2.3
291.584	2.78
291.961	2.56
292.338	2.79
292.715	2.89
293.092	2.3
293.469	2.54
293.845	3.05
294.222	2.21
294.599	2.54
294.975	2.13
295.352	2.74
295.728	1.82
296.105	2.52
296.481	2.49
296.858	2.64
297.234	2.25
297.61	2.51
297.986	2.79
298.363	2.86
298.739	2.88
299.115	2.8
299.491	2.6
299.867	2.84
300.243	2.61
300.619	2.59
300.995	2.38
301.371	2.74
301.746	1.85
302.122	3.06
302.498	2.12
302.874	2.92
303.249	2.64
303.625	2.66
304	2.97
304.376	2.36
304.751	2.28
305.127	3.13
305.502	1.87
305.878	2.08
306.253	2.49
306.628	3.05
307.003	2.7
307.378	2.98
307.754	2.95
308.129	2.38
308.504	2.59
308.879	2.24
309.254	3.05
309.629	2.9
310.003	2.51
310.378	3.1
310.753	2.96
311.128	2.83
311.502	2.65
311.877	2.65
312.252	2.51
312.626	2.77
313.001	2.52
313.375	2.96
313.75	2.42
314.124	2.74
314.498	2.57
314.873	2.7
315.247	2.67
315.621	2.29
315.995	2.39
316.369	2.76
316.743	3.09
317.117	2.99
317.491	2.7
317.865	2.52
318.239	2.83
318.613	2.63
318.987	3.21
319.361	1.92
319.734	3.17
320.108	2.97
320.482	2.59
320.855	2.87
321.229	2.72
321.602	2.77
321.976	2.93
322.349	2.68
322.723	2.61
323.096	2.77
323.469	2.02
323.843	3.37
324.216	3.37
324.589	2.69
324.962	2.5
325.335	2.24
325.708	2.6
326.081	2.13
326.454	2.48
326.827	2.54
327.2	2.86
327.573	2.94
327.945	2.67
328.318	2.55
328.691	2.4
329.063	2.17
329.436	2.2
329.809	3.07
330.181	2.3
330.553	3
330.926	3.29
331.298	2.78
331.671	2.29
332.043	3.3
332.415	3.13
332.787	3.12
333.159	3.17
333.532	2.85
333.904	2.18
334.276	2.25
334.648	2.85
335.02	2.61
335.391	2.65
335.763	2.71
336.135	2.23
336.507	3.06
336.879	2.1
337.25	2.53
337.622	2.78
337.993	2.65
338.365	3.11
338.736	2.87
339.108	3.16
339.479	2.55
339.851	2.87
340.222	2.62
340.593	2.63
340.964	2.73
341.336	3.84
341.707	2.18
342.078	3.39
342.449	3.19
342.82	2.85
343.191	3.16
343.562	2.89
343.933	3.24
344.303	3.04
344.674	2.54
345.045	2.94
345.416	3.56
345.786	2.3
346.157	2.82
346.527	2.42
346.898	2.97
347.268	2.92
347.639	2.79
348.009	3.09
348.38	2.6
348.75	3.04
349.12	2.69
349.49	3.19
349.861	2.92
350.231	2.51
350.601	2.6
350.971	2.76
351.341	3.04
351.711	2.81
352.081	2.94
352.45	2.66
352.82	2.92
353.19	2.53
353.56	2.21
353.929	3.2
354.299	2.54
354.669	2.76
355.038	2.61
355.408	2.92
355.777	2.6
356.147	2.63
356.516	2.9
356.885	3.01
357.254	2.47
357.624	3.04
357.993	2.82
358.362	2.76
358.731	2.91
359.1	2.88
359.469	2.98
359.838	3.11
360.207	2.7
360.576	2.82
360.945	2.91
361.314	3.37
361.682	2.63
362.051	2.95
362.42	3.48
362.788	2.99
363.157	3.13
363.525	3.16
363.894	3.26
364.262	3
364.631	2.99
364.999	3.13
365.367	2.55
365.735	3.49
366.104	3.2
366.472	3.21
366.84	2.99
367.208	3.24
367.576	3.48
367.944	2.84
368.312	2.9
368.68	2.64
369.048	3.49
369.416	3.21
369.783	2.8
370.151	3.54
370.519	3.25
370.886	3.56
371.254	2.79
371.621	3.21
371.989	3.06
372.356	2.62
372.724	3.24
373.091	2.79
373.458	3.03
373.826	3.05
374.193	3.11
374.56	3.29
374.927	3.31
375.294	2.93
375.661	2.83
376.028	2.8
376.395	3.03
376.762	3.4
377.129	3.37
377.496	2.75
377.863	3.22
378.229	2.73
378.596	3.47
378.963	3.25
379.329	3.06
379.696	3.24
380.062	3.2
380.429	2.8
380.795	2.91
381.161	3.56
381.528	3.46
381.894	2.99
382.26	2.77
382.626	3.19
382.993	3.02
383.359	3.35
383.725	2.83
384.091	3.17
384.457	3.44
384.823	3.17
385.188	3.24
385.554	3.35
385.92	3.36
386.286	3.17
386.651	3.35
387.017	3.45
387.383	3.2
387.748	3.29
388.114	3.6
388.479	3.18
388.845	3.48
389.21	3.65
389.575	3.53
389.94	3.07
390.306	3.44
390.671	3.48
391.036	3.14
391.401	3.48
391.766	3.53
392.131	3.24
392.496	3.57
392.861	3.29
393.226	3.41
393.591	3.51
393.956	3.14
394.32	3.26
394.685	3.21
395.05	3.13
395.414	3.35
395.779	3.25
396.143	3.5
396.508	3.31
396.872	3.16
397.236	3.49
397.601	3.43
397.965	3.87
398.329	3.33
398.694	3.5
399.058	3.37
399.422	3.31
399.786	3.8
400.15	3.4
400.514	3.62
400.878	3.56
401.242	3.79
401.605	3.42
401.969	3.59
402.333	3.64
402.697	3.39
403.06	3.64
403.424	3.58
403.787	3.68
404.151	3.73
404.514	3.51
404.878	3.46
405.241	3.62
405.604	3.65
405.968	3.72
406.331	3.57
406.694	3.62
407.057	3.72
407.42	3.72
407.783	3.6
408.146	3.57
408.509	3.38
408.872	3.48
409.235	3.54
409.598	3.92
409.961	3.63
410.323	3.72
410.686	3.65
411.049	3.19
411.411	3.67
411.774	3.82
412.136	3.68
412.499	3.57
412.861	3.59
413.223	3.68
413.586	3.75
413.948	3.66
414.31	3.69
414.672	3.39
415.035	3.39
415.397	4.01
415.759	3.55
416.121	3.67
416.483	3.57
416.845	3.62
417.206	3.69
417.568	3.69
417.93	3.37
418.292	3.65
418.653	3.76
419.015	3.68
419.377	3.83
419.738	3.87
420.1	3.72
420.461	3.85
420.822	3.82
421.184	3.88
421.545	3.78
421.906	3.73
422.267	3.79
422.629	3.78
422.99	3.68
423.351	3.64
423.712	3.78
424.073	3.8
424.434	3.71
424.795	3.73
425.155	3.84
425.516	3.73
425.877	3.68
426.238	3.77
426.598	3.82
426.959	3.79
427.32	3.69
427.68	3.65
428.041	3.75
428.401	3.87
428.761	3.79
429.122	3.86
429.482	3.61
429.842	3.87
430.202	3.67
430.563	3.86
430.923	3.98
431.283	4.02
431.643	3.73
432.003	3.89
432.363	4.02
432.722	3.8
433.082	3.93
433.442	3.92
433.802	3.66
434.161	3.85
434.521	4.08
434.881	3.89
435.24	3.77
435.6	3.89
435.959	3.82
436.319	3.96
436.678	3.93
437.037	3.94
437.396	4.12
437.756	3.89
438.115	3.79
438.474	4.02
438.833	3.77
439.192	3.87
439.551	4.01
439.91	3.86
440.269	4.03
440.628	3.93
440.987	3.97
441.345	3.74
441.704	3.81
442.063	3.8
442.421	3.88
442.78	4.02
443.138	3.92
443.497	3.79
443.855	3.84
444.214	3.92
444.572	3.87
444.93	4.02
445.288	3.93
445.647	3.95
446.005	3.95
446.363	3.98
446.721	4.04
447.079	3.9
447.437	3.89
447.795	3.91
448.153	3.74
448.51	3.94
448.868	3.9
449.226	3.92
449.584	3.94
449.941	3.9
450.299	3.97
450.656	3.95
451.014	3.97
451.371	3.81
451.729	3.95
452.086	4.1
452.443	3.97
452.801	4.14
453.158	4
453.515	3.95
453.872	4.04
454.229	3.95
454.586	3.93
454.943	4.08
455.3	4.06
455.657	3.95
456.014	4.01
456.371	4.06
456.727	3.99
457.084	4.13
457.441	4.04
457.797	3.94
458.154	4.08
458.51	4.21
458.867	4.21
459.223	4.23
459.58	4.19
459.936	4.03
460.292	4.07
460.648	4.01
461.005	4.03
461.361	4.1
461.717	3.98
462.073	3.96
462.429	4.06
462.785	4.08
463.141	4.06
463.496	4.07
463.852	4.08
464.208	4.15
464.564	4.13
464.919	4.03
465.275	4.23
465.631	4.34
465.986	4.11
466.342	4.12
466.697	4.02
467.052	4.28
467.408	4.13
467.763	4.03
468.118	3.86
468.473	4.09
468.829	4.08
469.184	4.09
469.539	4.25
469.894	4.07
470.249	4.15
470.603	4.24
470.958	4.1
471.313	4.2
471.668	4.43
472.023	4.23
472.377	4.14
472.732	4.06
473.086	4.07
473.441	4.05
473.795	4.24
474.15	4.25
474.504	4.19
474.859	4.3
475.213	4.2
475.567	4.15
475.921	4.03
476.275	4.22
476.63	4.28
476.984	4.23
477.338	4.36
477.692	4.17
478.045	3.98
478.399	4.19
478.753	4.23
479.107	4.27
479.461	4
479.814	4.2
480.168	4.11
480.521	4.04
480.875	4.21
481.228	4.26
481.582	4.14
481.935	4.25
482.289	4.25
482.642	4.13
482.995	4.13
483.348	4.06
483.701	4.15
484.055	4.19
484.408	4.12
484.761	4.12
485.114	4.05
485.466	3.92
485.819	3.92
486.172	3.93
486.525	3.99
486.878	4.09
487.23	4.1
487.583	4.1
487.936	4.16
488.288	4.12
488.641	4.09
488.993	4.04
489.345	3.94
489.698	4.02
490.05	4.01
490.402	4.13
490.754	4.11
491.107	4.13
491.459	4.28
491.811	4.19
492.163	4.23
492.515	4.16
492.866	4.2
493.218	4.18
493.57	4.09
493.922	4.08
494.274	4.16
494.625	4.2
494.977	4.3
495.328	4.3
495.68	4.26
496.031	4.33
496.383	4.26
496.734	4.48
497.086	4.36
497.437	4.35
497.788	4.28
498.139	4.19
498.49	4.33
498.842	4.18
499.193	4.16
499.544	4.35
499.894	4.28
500.245	4.41
500.596	4.25
500.947	4.38
501.298	4.31
501.648	4.47
501.999	4.32
502.35	4.34
502.7	4.42
503.051	4.2
503.401	4.14
503.752	4.41
504.102	4.34
504.452	4.33
504.803	4.3
505.153	4.33
505.503	4.42
505.853	4.37
506.203	4.34
506.553	4.29
506.903	4.22
507.253	4.42
507.603	4.19
507.953	4.48
508.303	4.48
508.652	4.26
509.002	4.4
509.352	4.41
509.701	4.28
510.051	4.39
510.4	4.41
510.75	4.39
511.099	4.45
511.449	4.32
511.798	4.36
512.147	4.28
512.496	4.34
512.846	4.27
513.195	4.32
513.544	4.34
513.893	4.39
514.242	4.39
514.591	4.39
514.939	4.41
515.288	4.36
515.637	4.49
515.986	4.33
516.334	4.62
516.683	4.42
517.032	4.4
517.38	4.57
517.729	4.49
518.077	4.25
518.426	4.48
518.774	4.47
519.122	4.39
519.47	4.34
519.819	4.37
520.167	4.3
520.515	4.26
520.863	4.37
521.211	4.4
521.559	4.5
521.907	4.31
522.255	4.43
522.602	4.57
522.95	4.43
523.298	4.44
523.645	4.47
523.993	4.4
524.341	4.53
524.688	4.67
525.036	4.38
525.383	4.43
525.73	4.6
526.078	4.39
526.425	4.33
526.772	4.44
527.119	4.37
527.466	4.37
527.814	4.41
528.161	4.35
528.508	4.47
528.854	4.32
529.201	4.38
529.548	4.32
529.895	4.31
530.242	4.23
530.588	4.2
530.935	4.27
531.282	4.28
531.628	4.3
531.975	4.43
532.321	4.42
532.667	4.44
533.014	4.51
533.36	4.46
533.706	4.41
534.052	4.43
534.399	4.33
534.745	4.33
535.091	4.34
535.437	4.38
535.783	4.47
536.129	4.38
536.474	4.49
536.82	4.47
537.166	4.51
537.512	4.49
537.857	4.47
538.203	4.51
538.549	4.49
538.894	4.41
539.239	4.46
539.585	4.54
539.93	4.47
540.276	4.67
540.621	4.69
540.966	4.62
541.311	4.5
541.656	4.44
542.001	4.46
542.346	4.62
542.691	4.43
543.036	4.43
543.381	4.34
543.726	4.39
544.071	4.43
544.415	4.52
544.76	4.46
545.105	4.49
545.449	4.56
545.794	4.57
546.138	4.52
546.483	4.59
546.827	4.65
547.171	4.61
547.516	4.71
547.86	4.55
548.204	4.55
548.548	4.59
548.892	4.59
549.236	4.59
549.58	4.58
549.924	4.66
550.268	4.71
550.612	4.7
550.956	4.83
551.3	4.65
551.643	4.81
551.987	4.77
552.33	4.62
552.674	4.66
553.017	4.8
553.361	4.61
553.704	4.82
554.048	4.58
554.391	4.53
554.734	4.62
555.077	4.63
555.42	4.6
555.764	4.57
556.107	4.67
556.45	4.61
556.793	4.78
557.135	4.68
557.478	4.87
557.821	4.67
558.164	4.6
558.507	4.71
558.849	4.72
559.192	4.91
559.534	4.67
559.877	4.8
560.219	4.54
560.562	4.83
560.904	4.7
561.246	4.66
561.589	4.78
561.931	4.77
562.273	4.36
562.615	4.81
562.957	4.68
563.299	4.42
563.641	4.77
563.983	4.8
564.325	4.59
564.667	4.62
565.008	4.79
565.35	4.59
565.692	4.56
566.033	4.85
566.375	4.9
566.716	4.8
567.058	4.62
567.399	4.71
567.741	4.59
568.082	4.73
568.423	4.72
568.764	4.61
569.105	4.75
569.447	4.88
569.788	4.67
570.129	4.77
570.47	4.59
570.811	4.89
571.151	4.83
571.492	4.72
571.833	4.89
572.174	4.86
572.514	4.73
572.855	4.79
573.195	4.67
573.536	4.81
573.876	4.61
574.217	4.77
574.557	4.81
574.898	4.84
575.238	4.84
575.578	4.63
575.918	4.95
576.258	4.93
576.598	4.89
576.938	4.73
577.278	4.87
577.618	4.75
577.958	4.85
578.298	4.8
578.638	4.81
578.977	4.77
579.317	4.82
579.657	4.75
579.996	4.58
580.336	4.96
580.675	4.77
581.014	4.83
581.354	4.96
581.693	4.91
582.032	4.93
582.372	4.67
582.711	4.8
583.05	4.6
583.389	4.63
583.728	4.71
584.067	4.82
584.406	4.99
584.745	4.94
585.083	4.8
585.422	5.07
585.761	4.98
586.1	4.94
586.438	4.93
586.777	4.73
587.115	5.09
587.454	4.98
587.792	5
588.13	5.09
588.469	4.81
588.807	4.68
589.145	4.8
589.483	4.85
589.821	4.66
590.159	4.93
590.497	5.06
590.835	5.1
591.173	4.65
591.511	4.82
591.849	4.9
592.187	5.1
592.524	4.81
592.862	4.72
593.2	5
593.537	4.92
593.875	4.88
594.212	4.85
594.55	4.83
594.887	5.16
595.224	4.85
595.561	4.86
595.899	4.97
596.236	4.97
596.573	4.87
596.91	4.55
597.247	4.75
597.584	5.06
597.921	4.86
598.258	4.79
598.594	4.8
598.931	4.86
599.268	5.01
599.604	4.81
599.941	5.08
600.277	4.83
600.614	4.84
600.95	4.71
601.287	4.91
601.623	4.82
601.959	4.85
602.296	4.94
602.632	4.76
602.968	4.97
603.304	5.03
603.64	5.05
603.976	5.01
604.312	4.62
604.648	4.72
604.984	5.16
605.319	5.12
605.655	5.02
605.991	4.89
606.326	4.94
606.662	4.94
606.998	4.7
607.333	4.93
607.668	4.95
608.004	5.06
608.339	5.17
608.674	5.12
609.01	4.89
609.345	4.63
609.68	5.15
610.015	4.78
610.35	4.88
610.685	4.86
611.02	4.92
611.355	5
611.689	5.04
612.024	5.09
612.359	4.88
612.694	4.83
613.028	4.61
613.363	5.06
613.697	5.12
614.032	5.26
614.366	5.01
614.7	5.15
615.035	4.94
615.369	5.14
615.703	5.16
616.037	5.21
616.371	4.67
616.705	4.89
617.039	5.19
617.373	4.48
617.707	4.78
618.041	4.99
618.375	4.96
618.709	5.15
619.042	4.69
619.376	5.11
619.71	5.32
620.043	5.02
620.377	4.62
620.71	4.98
621.043	4.91
621.377	4.53
621.71	4.87
622.043	4.82
622.376	4.89
622.709	4.82
623.043	5.15
623.376	4.84
623.709	4.81
624.041	5.31
624.374	5.2
624.707	4.77
625.04	5.07
625.373	4.25
625.705	4.98
626.038	4.85
626.37	4.88
626.703	5.33
627.035	5.17
627.368	5.42
627.7	5.23
628.032	5.29
628.365	5.34
628.697	4.99
629.029	4.93
629.361	5.14
629.693	5.33
630.025	4.94
630.357	5.29
630.689	5.14
631.021	5.05
631.353	5.25
631.684	4.98
632.016	4.97
632.348	5.27
632.679	5.05
633.011	5.44
633.342	5.58
633.674	5.26
634.005	5.77
634.336	4.71
634.668	5.5
634.999	4.84
635.33	5.24
635.661	5.33
635.992	5.26
636.323	5.3
636.654	5.21
636.985	5.32
637.316	5
637.647	4.92
637.977	5.33
638.308	4.96
638.639	4.83
638.969	5.01
639.3	4.94
639.63	4.59
639.961	5.02
640.291	4.63
640.622	5.32
640.952	4.96
641.282	5.35
641.612	5.15
641.943	5.37
642.273	5.23
642.603	5.4
642.933	5.52
643.263	5.08
643.592	5.22
643.922	4.59
644.252	4.94
644.582	5.23
644.911	5.13
645.241	4.79
645.571	5.35
645.9	5.2
646.23	5.16
646.559	5.18
646.888	5.13
647.218	5.05
647.547	5.31
647.876	4.94
648.205	4.9
648.534	4.98
648.863	5.15
649.192	5.76
649.521	5.42
649.85	4.94
650.179	5.18
650.508	4.9
650.837	5.1
651.165	4.93
651.494	5.21
651.822	5.17
652.151	4.95
652.479	5.44
652.808	4.83
653.136	5.17
653.465	4.61
653.793	5.06
654.121	4.86
654.449	5.02
654.777	5.38
655.105	5.42
655.433	4.94
655.761	4.85
656.089	5.55
656.417	4.98
656.745	4.84
657.073	4.79
657.4	5.87
657.728	5.42
658.056	5.02
658.383	5.32
658.711	5
659.038	5.39
659.365	5.69
659.693	5.33
660.02	5.12
660.347	5.58
660.674	4.99
661.001	5.33
661.329	4.57
661.656	5.74
661.982	5.16
662.309	5.49
662.636	4.79
662.963	5.85
663.29	5.89
663.616	5.66
663.943	4.76
664.27	5.13
664.596	5.49
664.923	5.37
665.249	5.59
665.576	4.72
665.902	5.6
666.228	5.54
666.554	5.37
666.881	5.65
667.207	5.33
667.533	5.18
667.859	5.5
668.185	5.7
668.511	4.83
668.837	4.75
669.162	5.2
669.488	4.63
669.814	5.18
670.139	5.65
670.465	5.05
670.791	5.97
671.116	5.96
671.442	5.33
671.767	5.17
672.092	5.27
672.418	5.49
672.743	5.76
673.068	5.05
673.393	5.84
673.718	5.54
674.043	4.99
674.368	5.45
674.693	6.05
675.018	5.38
675.343	4.84
675.667	5.52
675.992	6.09
676.317	5.81
676.641	5.06
676.966	5.54
677.29	4.6
677.615	5.59
677.939	5.76
678.264	6.05
678.588	5.03
678.912	4.75
679.236	6.36
679.56	4.74
679.885	5.98
680.209	5.14
680.532	5.39
680.856	6
681.18	5.32
681.504	5.89
681.828	6.2
682.152	5.03
682.475	5.68
682.799	5.77
683.122	5.63
683.446	5.43
683.769	6.1
684.093	5.18
684.416	6.31
684.739	5.8
685.062	5.86
685.386	6.02
685.709	5.1
686.032	5.2
686.355	5.25
686.678	5.5
687.001	6
687.324	6.02
687.646	5.75
687.969	6.1
688.292	5.53
688.614	4.98
688.937	5.82
689.26	5.51
689.582	5.31
689.904	4.94
690.227	5.47
690.549	5.65
690.871	6.29
691.194	5.18
691.516	5.15
691.838	5.3
692.16	5.41
692.482	5.61
692.804	4.9
693.126	5.97
693.448	5.98
693.769	6.04
694.091	4.2
694.413	5.61
694.735	5.11
695.056	5.78
695.378	5.54
695.699	4.61
696.021	3.98
696.342	4.44
696.663	5.67
696.984	5.38
697.306	4.25
697.627	5.67
697.948	6.13
698.269	5.63
698.59	5.5
698.911	4.47
699.232	5.85
699.553	6.13
699.873	6.37
700.194	6.06
700.515	5.33
700.835	5.49
701.156	5.78
701.477	5.49
701.797	5.4
702.117	5.69
702.438	6.13
702.758	5.74
703.078	5.41
703.398	6.01
703.719	5.93
704.039	5.04
704.359	5.86
704.679	6.59
704.999	5.04
705.319	6.11
705.638	5.21
705.958	5.38
706.278	5.01
706.597	5.86
706.917	5.71
707.237	5.64
707.556	6.11
707.876	5.99
708.195	5.87
708.514	5.32
708.834	5.71
709.153	5.87
709.472	6.49
709.791	6.3
710.11	5.89
710.429	5.77
710.748	5.43
711.067	4.73
711.386	5.23
711.705	5.7
712.023	6.12
712.342	4.95
712.661	4.67
712.979	5.38
713.298	5.17
713.616	5.88
713.935	5.42
714.253	4.46
714.572	5.68
714.89	5.19
715.208	6.55
715.526	5.1
715.844	5.77
716.162	6.06
716.48	5.65
716.798	6.83
717.116	5.62
717.434	5.9
717.752	4.72
718.069	5.86
718.387	5.1
718.705	5.66
719.022	4.21
719.34	5.3
719.657	5.14
719.975	5.39
720.292	6.31
720.609	6
720.927	5.38
721.244	6.59
721.561	5.46
721.878	6.33
722.195	3.86
722.512	5.54
722.829	6.83
723.146	4.54
723.463	7.35
723.779	5.36
724.096	6.26
724.413	4.95
724.729	5.9
725.046	3.63
725.362	5.86
725.679	4.42
725.995	3.99
726.311	5.16
726.628	5.14
726.944	6.16
727.26	6.11
727.576	5.64
727.892	5.99
728.208	5.73
728.524	5.36
728.84	5.69
729.156	6.33
729.472	5.4
729.787	4.9
730.103	6.34
730.419	6.23
730.734	6.03
731.05	4.54
731.365	5.12
731.681	7.28
731.996	5.92
732.311	5.47
732.626	5.59
732.942	4.32
733.257	5.58
733.572	6.58
733.887	5.72
734.202	5.62
734.517	5.91
734.832	6.24
735.146	6.05
735.461	6.44
735.776	5.96
736.091	5.99
736.405	6.76
736.72	5.16
737.034	6.16
737.349	6.44
737.663	5.45
737.977	5.68
738.292	5.37
738.606	6.2
738.92	6.13
739.234	6.27
739.548	5.72
739.862	6.36
740.176	5.76
740.49	5.18
740.804	7.07
741.117	5.69
741.431	5.64
741.745	4.73
742.058	6.56
742.372	5.03
742.685	6.25
742.999	6.52
743.312	6.35
743.626	5.71
743.939	4.35
744.252	6.27
744.565	4.89
744.878	7.77
745.191	4.88
745.505	4.48
745.817	7.21
746.13	5.51
746.443	6.43
746.756	7.69
747.069	4.29
747.381	4.39
747.694	4.62
748.007	5.29
748.319	5.63
748.632	4.53
748.944	3.89
749.256	7.32
749.569	5.11
749.881	6.86
750.193	7.71
750.505	5.02
750.817	6.26
751.129	5.44
751.441	6.34
751.753	7.03
752.065	7.48
752.377	5.03
752.689	8.53
753	5.21
753.312	5.48
753.624	5.76
753.935	8.05
754.247	7.1
754.558	5.11
754.869	7.76
755.181	6.23
755.492	7.26
755.803	5.86
756.114	5.85
756.425	4.15
756.736	5.53
757.047	7.14
757.358	4.35
757.669	6.11
757.98	4.18
758.291	3.78
758.601	5.96
758.912	5.41
759.223	6.78
759.533	4.37
759.844	3.09
760.154	2.86
760.464	7.4
760.775	4.82
761.085	5.6
761.395	6.67
761.705	4.05
762.016	5.66
762.326	6.37
762.636	5.64
762.945	4.19
763.255	8.71
763.565	3.92
763.875	4.98
764.185	4.65
764.494	5.82
764.804	6.56
765.113	6.53
765.423	5.88
765.732	6.34
766.042	7.16
766.351	6.83
766.66	7.18
766.97	7.73
767.279	6.66
767.588	8.65
767.897	8.17
768.206	5.83
768.515	4.42
768.824	4.76
769.133	5.95
769.441	5.1
769.75	5.16
770.059	6.19
770.367	8.09
770.676	6.84
770.984	5.9
771.293	2.35
771.601	7.91
771.91	3.12
772.218	7.13
772.526	8.43
772.834	5.69
773.142	4.58
773.45	8.01
773.758	5.65
774.066	6.54
774.374	5.41
774.682	7.99
774.99	6.66
775.298	2.97
775.605	5.08
775.913	4.61
776.22	7.01
776.528	9.31
776.835	6.59
777.143	3.02
777.45	3.87
777.757	7.2
778.065	6.53
778.372	4.38
778.679	6.11
778.986	3.81
779.293	3.31
779.6	5.7
779.907	4.92
780.214	6.78
780.52	3.33
780.827	5.79
781.134	4.59
781.44	5.61
781.747	6.02
782.053	5.39
782.36	1.68
782.666	4.13
782.973	5.64
783.279	6.95
783.585	6.47
783.891	7.78
784.197	7.33
784.503	7.76
784.809	2.38
785.115	5.66
785.421	3.46
785.727	4.36
786.033	6.18
786.339	5.51
786.644	6.72
786.95	2.36
787.255	8.08
787.561	10.87
787.866	7.67
788.172	5.37
788.477	-1.38
788.782	6.36
789.088	4.97
789.393	5.09
789.698	4.37
790.003	5.78
790.308	4.47
790.613	1.52
790.918	9.26
791.223	7.07
791.527	1.73
791.832	7.85
792.137	1.29
792.441	0.76
792.746	4.12
793.05	1
793.355	6.36
793.659	6.9
793.963	5.26
794.268	1.62
794.572	4.95
794.876	3.81
795.18	5.44
795.484	7.37
795.788	4.92
796.092	7.37
796.396	5.38
796.7	1.84
797.004	1.88
797.307	0.05
797.611	4.79
797.915	6.8
798.218	4.08
798.522	6.81
798.825	3.61
799.128	7.6
799.432	1.7
799.735	3.5
800.038	10.41
800.341	8
800.644	7.53
800.947	7.39
801.25	4.29
801.553	1.87
801.856	0.94
802.159	-0.36
802.462	2.06
802.764	4.75
803.067	6.15
803.37	3.84
803.672	2.4
803.975	7.99
804.277	6.62
804.579	5.96
804.882	6.54
805.184	1.86
805.486	2.83
805.788	9.12
806.09	11.59
806.392	4.83
806.694	6.7
806.996	8.57
807.298	8.36
807.6	5.05
807.902	8.71
808.203	4.19
808.505	2.88
808.807	4.48
809.108	4.54
809.409	8.64
809.711	2.93
810.012	-1.51
810.313	3.1
810.615	4.5
810.916	-3.19
811.217	4.57
811.518	4.69
811.819	2.01
812.12	5.03
812.421	2.91
812.722	5.42
813.023	12.28
813.323	1.27
813.624	-0.4
813.925	17.17
814.225	1.61
814.526	10.45
814.826	12.51
815.126	-0.04
815.427	-0.08
815.727	4.42
816.027	-2.33
816.327	1.49
816.627	-0.56
816.927	6.43
817.227	3.34
817.527	5.32
817.827	10.43
818.127	3.49
818.427	-2.02
818.727	0.66
819.026	3.23
819.326	6.74
819.625	5.02
819.925	0.24
820.224	9.02
820.524	1.02
820.823	9.7
821.122	0.02
821.421	4.31
821.72	4.38
822.019	6.31
822.318	6.85
822.617	5.13
822.916	4.27
823.215	4.28
823.514	8.94
823.813	7.71
824.111	6.84
824.41	8.58
824.709	8.32
825.007	8.65
825.306	7.07
825.604	8.57
825.902	7.62
826.201	8.83
826.499	7.42
826.797	8.78
827.095	10.31
827.393	7.61
827.691	7.83
827.989	5.88
828.287	6.37
828.585	5.77
828.882	6.36
829.18	6.4
829.478	9.13
829.775	9.13
830.073	8.52
830.37	8.93
830.668	7.66
830.965	7.52
831.263	8.44
831.56	6.96
831.857	5.81
832.154	5.98
832.451	4.03
832.748	8.24
833.045	7.82
833.342	5.88
833.639	0.99
833.936	4.86
834.232	10.56
834.529	1.19
834.826	-4.35
835.122	3.75
835.419	4.58
835.715	6.33
836.012	7.05
836.308	0.97
836.604	3.99
836.901	5.01
837.197	4.69
837.493	5.97
837.789	4.19
838.085	8.42
838.381	5.04
838.677	5.07
838.972	4.91
839.268	7.14
839.564	5.71
839.86	7.75
840.155	-2.95
840.451	0.66
840.746	8.04
841.042	9.9
841.337	3.56
841.632	4.49
841.928	12.14
842.223	-12.3
842.518	5.17
842.813	10.11
843.108	0.11
843.403	14.75
843.698	-1.14
843.993	-2.46
844.287	-3.63
844.582	2.49
844.877	2.61
845.171	4.34
845.466	-0.65
845.761	-1.3
846.055	5.24
846.349	-4.81
846.644	-2.52
846.938	-2.28
847.232	-9.85
847.526	1.99
847.82	11.56
848.114	-11.9
848.408	-2.11
848.702	-5.2
848.996	-16
849.29	-7.71
849.584	-9.32
849.877	15.71
850.171	6.46
850.465	-16.96
850.758	-3.82
851.052	-17.75
851.345	5.47
851.638	4.56
851.932	-16.71
852.225	-12.26
852.518	-4.81
852.811	-2.58
853.104	-47.24
853.397	-4.14
853.69	-24.5
853.983	-27.11
854.276	7.27
854.569	-4.27
854.861	-20.81
855.154	3.78
855.447	-16.5
855.739	-4.19
856.032	-10.01
856.324	15.59
856.616	5.38
856.909	-12.13
857.201	3.33
857.493	0.19
857.785	-9.79
858.077	-16.38
858.369	-21.58
858.661	2.05
858.953	-25.65
859.245	-20.48
859.537	1.39
859.829	9.44
860.12	3.74
860.412	-22.44
860.703	-4.52
860.995	-0.57
861.286	-28.01
861.578	8.66
861.869	9.83
862.16	-24.29
862.452	-18.77
862.743	-9.38
863.034	-30.29
863.325	-24.93
863.616	-4.39
863.907	9.85
864.198	-21.15
864.488	6.74
864.779	2.47
865.07	-13.19
865.36	-20.83
865.651	7.18
865.941	-21.34
866.232	-15.4
866.522	-39.81
866.813	-3.53
867.103	-4.42
867.393	-40.85
867.683	-14.41
867.973	-38.53
868.263	-5.58
868.553	31.54
868.843	1.22
869.133	-52.03
869.423	-8.71
869.713	19.94
870.002	-14.37
870.292	22.93
870.582	7.4
870.871	-36.62
871.161	-3.94
871.45	-0.46
871.739	-37.87
872.029	-11.71
872.318	31.15
872.607	19.24
872.896	-92.35
873.185	-16.53
873.474	-57.97
873.763	-22.72
874.052	-27.84
874.341	0.84
874.63	-4.76
874.918	11.57
875.207	7.9
875.496	5.97
875.784	-105.94
876.073	-52.49
876.361	-71.3
876.649	-20.27
876.938	-20.06
877.226	-16.87
877.514	-12.4
877.802	-39.84
878.09	-40.21
878.378	10.34
878.666	-14.01
878.954	-18.82
879.242	13.34
879.53	-12.05
879.817	-2.22
880.105	1.14
880.392	18.72
880.68	-7.91
880.967	-17.82
881.255	18.94
881.542	-11.84
881.83	-52.66
882.117	1.58
882.404	-27.05
882.691	2.58
882.978	-21.76
883.265	-8.44
883.552	-13.79
883.839	-9.76
884.126	-16.47
884.413	14.67
884.699	15.02
884.986	7.56
885.273	5.33
885.559	5.33
885.846	5.33
