Data from 0067_crown_Reflection__0__289.txt Node

Date: Fri Dec 16 16:24:41 CST 2022
User: ToomeyLab
Spectrometer: FLMS14357
Trigger mode: 0
Integration Time (sec): 1.000000E-2
Scans to average: 100
Electric dark correction enabled: true
Nonlinearity correction enabled: false
Boxcar width: 0
XAxis mode: Wavelengths
Number of Pixels in Spectrum: 2048
>>>>>Begin Spectral Data<<<<<
189.047	-181.8
189.435	-181.8
189.823	-181.8
190.211	723.48
190.599	-151.31
190.987	-30.8
191.375	-146.44
191.763	177.34
192.151	2.78
192.538	265.9
192.926	1851.25
193.314	210.06
193.702	24.82
194.089	133.55
194.477	391.22
194.864	71.97
195.252	10.26
195.639	140.27
196.027	553.86
196.414	150.99
196.801	-893233889274400
197.189	80.15
197.576	91.99
197.963	-582.97
198.351	-26.46
198.738	12.44
199.125	0.3
199.512	-18.21
199.899	-27.36
200.286	-14.83
200.673	17.5
201.06	7.39
201.447	36.55
201.833	60.64
202.22	15.88
202.607	-35.52
202.994	-38.25
203.38	-21.29
203.767	-8.48
204.154	-114.55
204.54	26.53
204.927	50.68
205.313	25.93
205.699	-58.4
206.086	13.1
206.472	6.95
206.858	-33.91
207.245	-16.45
207.631	-18.31
208.017	27.1
208.403	-11.78
208.789	-36.91
209.175	60.62
209.561	-11.7
209.947	-34.16
210.333	-49.62
210.719	-37.46
211.105	-42
211.491	8.94
211.876	-4.34
212.262	-112.55
212.648	-109.36
213.034	-16.89
213.419	7.51
213.805	-19.36
214.19	25.69
214.576	-26.07
214.961	-44.98
215.346	-11.82
215.732	-26.34
216.117	-14.64
216.502	-70.57
216.888	-68.92
217.273	-5.45
217.658	-37.91
218.043	-8.68
218.428	-32.42
218.813	-21
219.198	-39.21
219.583	5.52
219.968	-8.12
220.353	-16.77
220.738	-12.01
221.122	-18.35
221.507	-2.8
221.892	0.06
222.276	-9.18
222.661	-33.56
223.046	-5.41
223.43	-4.84
223.815	0.36
224.199	-11.78
224.583	-6.48
224.968	-3.57
225.352	-4.63
225.736	3.53
226.121	-8.06
226.505	3.16
226.889	10.15
227.273	-0.55
227.657	0.57
228.041	5.28
228.425	7.43
228.809	1.94
229.193	2.22
229.577	2.67
229.961	2.67
230.344	3.13
230.728	4.19
231.112	2.9
231.495	1.4
231.879	3.11
232.263	0.92
232.646	1.87
233.03	1.96
233.413	4.27
233.797	4.62
234.18	0.27
234.563	2.78
234.946	2.01
235.33	2.8
235.713	4.4
236.096	1.25
236.479	2.85
236.862	2.37
237.245	3.23
237.628	3.53
238.011	2.63
238.394	3.63
238.777	4.04
239.16	0.68
239.543	0.75
239.925	2.42
240.308	3.5
240.691	1.72
241.073	2.96
241.456	1.75
241.838	2.6
242.221	3.83
242.603	2.97
242.986	4.14
243.368	2.98
243.75	2.45
244.133	3.22
244.515	3.37
244.897	2.34
245.279	3.14
245.661	1.95
246.043	2.81
246.425	2.86
246.807	2.48
247.189	2.46
247.571	3.04
247.953	2.79
248.335	3.3
248.717	3.09
249.098	3.04
249.48	2.57
249.862	2.71
250.243	3.49
250.625	2.97
251.006	3.58
251.388	2.56
251.769	3.34
252.151	1.54
252.532	3.04
252.913	3.27
253.295	2.57
253.676	3.29
254.057	2.58
254.438	2.68
254.819	2.87
255.2	2.69
255.581	1.58
255.962	2.47
256.343	2.48
256.724	1.81
257.105	2.28
257.486	1.81
257.867	2.46
258.247	1.91
258.628	3.18
259.009	2.21
259.389	2.78
259.77	1.89
260.15	2.78
260.531	2.84
260.911	2.82
261.292	2.66
261.672	2.66
262.052	2.77
262.432	2.26
262.813	2.82
263.193	1.65
263.573	2.69
263.953	2.48
264.333	2.36
264.713	1.95
265.093	2.66
265.473	3.37
265.853	2.61
266.233	2.35
266.612	2.54
266.992	2.75
267.372	2.66
267.752	2.46
268.131	2.45
268.511	2.37
268.89	2.87
269.27	2.75
269.649	2.33
270.029	2.51
270.408	2.29
270.787	2.51
271.167	2.39
271.546	2.29
271.925	2.64
272.304	2.35
272.683	2.5
273.062	2.72
273.441	2.98
273.82	2.92
274.199	2.61
274.578	2.29
274.957	2.42
275.336	2.12
275.715	2.61
276.093	3.22
276.472	3
276.851	2.81
277.229	3.31
277.608	2.63
277.986	2.64
278.365	2.34
278.743	2.7
279.122	1.63
279.5	2.29
279.878	2.3
280.257	2.26
280.635	2.38
281.013	2.31
281.391	2.29
281.769	1.99
282.147	2.2
282.525	2.33
282.903	2.43
283.281	2.46
283.659	2.94
284.037	2.78
284.415	2.1
284.792	2.23
285.17	2.03
285.548	1.99
285.925	2.32
286.303	2.13
286.68	2.65
287.058	2.61
287.435	2.22
287.813	2.6
288.19	3.04
288.567	2.15
288.945	2.57
289.322	2.34
289.699	2.63
290.076	3.01
290.453	1.94
290.83	2.23
291.207	2.52
291.584	2.38
291.961	2.93
292.338	2.57
292.715	2.37
293.092	2.3
293.469	2.82
293.845	2.38
294.222	2.33
294.599	2.39
294.975	2.37
295.352	2.14
295.728	2.29
296.105	1.99
296.481	2.93
296.858	2.68
297.234	2.25
297.61	2.18
297.986	2.41
298.363	2.08
298.739	2.58
299.115	2.05
299.491	2.54
299.867	2.36
300.243	2
300.619	2.24
300.995	2.25
301.371	2.12
301.746	2.45
302.122	2.32
302.498	2.63
302.874	2.52
303.249	2.65
303.625	2.67
304	2.52
304.376	2.54
304.751	2.53
305.127	1.74
305.502	2.72
305.878	1.9
306.253	2.31
306.628	2.94
307.003	2.84
307.378	1.68
307.754	2.26
308.129	1.67
308.504	2.2
308.879	2.28
309.254	2.71
309.629	2.39
310.003	2.65
310.378	2.38
310.753	2.13
311.128	2.4
311.502	2.12
311.877	2.39
312.252	2.15
312.626	2.07
313.001	2.16
313.375	2.13
313.75	1.84
314.124	2.93
314.498	1.89
314.873	2.63
315.247	1.28
315.621	2.46
315.995	2.47
316.369	2.39
316.743	2.46
317.117	2.57
317.491	1.88
317.865	1.78
318.239	2.82
318.613	2.7
318.987	2.11
319.361	1.59
319.734	2.48
320.108	2.47
320.482	2.7
320.855	2.32
321.229	2.78
321.602	2.57
321.976	2.13
322.349	1.25
322.723	1.35
323.096	2.18
323.469	1.88
323.843	2.5
324.216	2.7
324.589	2.6
324.962	2.22
325.335	2.16
325.708	2.49
326.081	2.54
326.454	2.73
326.827	2.55
327.2	2.92
327.573	2.41
327.945	2.39
328.318	2.47
328.691	2.03
329.063	2.42
329.436	2.17
329.809	2.17
330.181	2.31
330.553	2.22
330.926	2.22
331.298	1.67
331.671	2
332.043	1.94
332.415	2.83
332.787	2.95
333.159	2.17
333.532	2.35
333.904	2
334.276	2.27
334.648	2.39
335.02	2.02
335.391	2.63
335.763	1.96
336.135	3.09
336.507	2.94
336.879	2.46
337.25	2.29
337.622	2.05
337.993	2.63
338.365	2.36
338.736	2.35
339.108	2.1
339.479	2.22
339.851	2.63
340.222	2.41
340.593	2.42
340.964	2.6
341.336	1.79
341.707	2.4
342.078	2.37
342.449	2.62
342.82	2.51
343.191	2.05
343.562	2.54
343.933	2.51
344.303	2.29
344.674	2.77
345.045	2.33
345.416	2.56
345.786	2.14
346.157	2.25
346.527	2.41
346.898	2.62
347.268	2.4
347.639	2.39
348.009	2.97
348.38	2.61
348.75	2.48
349.12	2.29
349.49	2.41
349.861	2.82
350.231	2.96
350.601	2.45
350.971	2.5
351.341	2.53
351.711	2.38
352.081	2.52
352.45	2.6
352.82	2.72
353.19	2.45
353.56	2.41
353.929	2.86
354.299	2.5
354.669	2.97
355.038	2.31
355.408	3.14
355.777	2.69
356.147	3.13
356.516	2.76
356.885	2.11
357.254	2.78
357.624	2.47
357.993	2.43
358.362	2.81
358.731	2.46
359.1	2.72
359.469	2.84
359.838	2.53
360.207	2.31
360.576	2.59
360.945	2.57
361.314	2.45
361.682	2.25
362.051	2.21
362.42	2.79
362.788	2.67
363.157	2.44
363.525	2.38
363.894	2.54
364.262	2.4
364.631	3.23
364.999	2.17
365.367	2.73
365.735	2.39
366.104	2.44
366.472	2.56
366.84	2.66
367.208	2.42
367.576	2.72
367.944	3.13
368.312	2.42
368.68	2.74
369.048	2.74
369.416	2.42
369.783	2.71
370.151	2.7
370.519	2.47
370.886	2.24
371.254	2.39
371.621	2.72
371.989	2.58
372.356	2.27
372.724	2.56
373.091	2.57
373.458	2.36
373.826	2.57
374.193	3.08
374.56	2.18
374.927	2.53
375.294	2.82
375.661	2.75
376.028	2.4
376.395	2.47
376.762	2.85
377.129	2.8
377.496	2.61
377.863	2.8
378.229	2.48
378.596	2.71
378.963	2.4
379.329	2.74
379.696	2.66
380.062	2.78
380.429	2.78
380.795	2.4
381.161	2.52
381.528	2.16
381.894	2.56
382.26	2.68
382.626	2.6
382.993	2.37
383.359	2.67
383.725	3.05
384.091	2.58
384.457	3.07
384.823	2.92
385.188	2.92
385.554	2.39
385.92	2.88
386.286	2.88
386.651	2.82
387.017	2.74
387.383	2.72
387.748	2.68
388.114	2.96
388.479	2.55
388.845	2.82
389.21	2.63
389.575	2.5
389.94	2.84
390.306	2.96
390.671	2.47
391.036	2.85
391.401	3.17
391.766	2.72
392.131	2.55
392.496	2.56
392.861	2.49
393.226	2.84
393.591	2.69
393.956	2.92
394.32	2.61
394.685	2.88
395.05	2.78
395.414	2.85
395.779	2.88
396.143	3.01
396.508	2.89
396.872	2.9
397.236	2.59
397.601	2.88
397.965	2.44
398.329	2.76
398.694	2.6
399.058	2.78
399.422	2.66
399.786	2.88
400.15	2.57
400.514	2.92
400.878	2.8
401.242	2.96
401.605	2.75
401.969	2.9
402.333	2.68
402.697	2.83
403.06	3.04
403.424	2.74
403.787	2.89
404.151	2.81
404.514	2.73
404.878	2.88
405.241	2.9
405.604	2.85
405.968	2.77
406.331	2.77
406.694	2.84
407.057	3.12
407.42	2.89
407.783	2.81
408.146	2.84
408.509	2.78
408.872	2.63
409.235	2.7
409.598	2.87
409.961	2.84
410.323	2.73
410.686	2.72
411.049	2.65
411.411	2.73
411.774	2.75
412.136	3.13
412.499	2.83
412.861	2.93
413.223	2.92
413.586	2.52
413.948	2.89
414.31	2.85
414.672	2.87
415.035	3.16
415.397	2.98
415.759	2.92
416.121	2.96
416.483	2.94
416.845	2.65
417.206	2.89
417.568	2.73
417.93	2.88
418.292	2.89
418.653	2.76
419.015	2.85
419.377	2.84
419.738	2.83
420.1	2.84
420.461	2.7
420.822	2.82
421.184	2.74
421.545	2.69
421.906	2.77
422.267	2.69
422.629	2.75
422.99	2.77
423.351	2.96
423.712	2.87
424.073	2.84
424.434	2.76
424.795	2.72
425.155	2.74
425.516	2.69
425.877	2.78
426.238	2.73
426.598	2.81
426.959	2.64
427.32	2.87
427.68	2.86
428.041	2.94
428.401	2.77
428.761	2.77
429.122	2.69
429.482	2.82
429.842	2.95
430.202	2.9
430.563	2.86
430.923	2.66
431.283	2.86
431.643	2.74
432.003	2.88
432.363	2.92
432.722	2.8
433.082	2.81
433.442	2.83
433.802	2.78
434.161	2.79
434.521	2.81
434.881	2.89
435.24	2.78
435.6	2.82
435.959	2.81
436.319	2.78
436.678	2.92
437.037	2.93
437.396	2.67
437.756	2.96
438.115	2.77
438.474	2.88
438.833	2.79
439.192	2.83
439.551	2.9
439.91	2.92
440.269	2.96
440.628	2.77
440.987	2.84
441.345	2.84
441.704	2.84
442.063	2.8
442.421	2.76
442.78	2.76
443.138	2.85
443.497	2.84
443.855	2.87
444.214	2.94
444.572	2.78
444.93	2.88
445.288	2.89
445.647	2.92
446.005	2.81
446.363	2.78
446.721	2.74
447.079	2.83
447.437	2.76
447.795	2.79
448.153	2.77
448.51	2.76
448.868	2.97
449.226	2.82
449.584	2.78
449.941	3.01
450.299	2.83
450.656	2.85
451.014	2.84
451.371	2.86
451.729	2.94
452.086	2.9
452.443	2.74
452.801	2.89
453.158	2.77
453.515	2.81
453.872	3.05
454.229	2.84
454.586	2.86
454.943	2.79
455.3	3.07
455.657	2.89
456.014	2.94
456.371	2.96
456.727	2.81
457.084	2.75
457.441	2.91
457.797	2.79
458.154	2.97
458.51	2.72
458.867	2.77
459.223	3.04
459.58	2.89
459.936	2.8
460.292	2.9
460.648	2.73
461.005	2.72
461.361	2.69
461.717	2.79
462.073	2.77
462.429	2.84
462.785	2.96
463.141	3.04
463.496	2.75
463.852	2.98
464.208	2.9
464.564	2.86
464.919	2.85
465.275	2.93
465.631	2.81
465.986	2.84
466.342	2.95
466.697	2.95
467.052	2.94
467.408	2.79
467.763	2.8
468.118	2.89
468.473	2.95
468.829	2.86
469.184	2.9
469.539	2.83
469.894	2.89
470.249	2.85
470.603	2.95
470.958	2.92
471.313	2.85
471.668	2.97
472.023	3.12
472.377	2.76
472.732	2.78
473.086	2.61
473.441	3.01
473.795	2.99
474.15	2.81
474.504	2.9
474.859	2.96
475.213	3.03
475.567	2.98
475.921	3.02
476.275	2.97
476.63	2.73
476.984	2.92
477.338	3.1
477.692	2.8
478.045	2.66
478.399	2.95
478.753	2.88
479.107	2.94
479.461	2.9
479.814	2.92
480.168	2.83
480.521	2.85
480.875	3
481.228	2.8
481.582	2.74
481.935	2.78
482.289	2.84
482.642	2.98
482.995	2.9
483.348	2.88
483.701	2.78
484.055	2.82
484.408	2.77
484.761	2.56
485.114	2.54
485.466	2.63
485.819	2.67
486.172	2.8
486.525	2.82
486.878	2.84
487.23	2.88
487.583	2.76
487.936	2.81
488.288	2.68
488.641	2.67
488.993	2.66
489.345	2.66
489.698	2.74
490.05	2.73
490.402	2.88
490.754	2.9
491.107	2.91
491.459	2.94
491.811	2.95
492.163	2.82
492.515	2.74
492.866	2.59
493.218	2.62
493.57	2.78
493.922	2.78
494.274	2.88
494.625	2.86
494.977	2.9
495.328	3
495.68	3.05
496.031	2.92
496.383	2.93
496.734	2.86
497.086	2.75
497.437	2.81
497.788	2.81
498.139	2.86
498.49	2.83
498.842	2.79
499.193	2.8
499.544	2.9
499.894	2.9
500.245	2.85
500.596	2.83
500.947	2.86
501.298	2.84
501.648	3.01
501.999	2.91
502.35	3.02
502.7	2.93
503.051	3.06
503.401	2.99
503.752	2.85
504.102	2.84
504.452	2.81
504.803	2.82
505.153	2.79
505.503	2.88
505.853	2.88
506.203	2.86
506.553	2.89
506.903	2.81
507.253	2.85
507.603	2.8
507.953	3
508.303	2.89
508.652	2.77
509.002	2.82
509.352	2.84
509.701	2.78
510.051	2.78
510.4	2.83
510.75	2.82
511.099	2.72
511.449	2.84
511.798	2.92
512.147	2.94
512.496	2.88
512.846	2.86
513.195	2.87
513.544	2.77
513.893	2.84
514.242	2.89
514.591	2.88
514.939	2.85
515.288	2.96
515.637	3
515.986	2.76
516.334	3.07
516.683	2.82
517.032	2.88
517.38	2.89
517.729	2.9
518.077	2.87
518.426	2.84
518.774	2.79
519.122	2.78
519.47	2.77
519.819	2.76
520.167	2.78
520.515	2.74
520.863	2.82
521.211	2.9
521.559	2.91
521.907	2.85
522.255	2.98
522.602	2.91
522.95	2.93
523.298	2.82
523.645	2.84
523.993	2.86
524.341	2.9
524.688	2.86
525.036	2.91
525.383	2.92
525.73	2.84
526.078	2.81
526.425	2.84
526.772	2.64
527.119	2.68
527.466	2.75
527.814	2.76
528.161	2.78
528.508	2.75
528.854	2.74
529.201	2.73
529.548	2.63
529.895	2.61
530.242	2.59
530.588	2.71
530.935	2.82
531.282	2.85
531.628	2.84
531.975	2.76
532.321	2.78
532.667	2.92
533.014	2.85
533.36	2.8
533.706	2.82
534.052	2.67
534.399	2.61
534.745	2.65
535.091	2.7
535.437	2.85
535.783	2.91
536.129	2.9
536.474	2.87
536.82	2.82
537.166	2.87
537.512	2.88
537.857	2.8
538.203	2.77
538.549	2.84
538.894	2.8
539.239	2.93
539.585	2.88
539.93	2.89
540.276	2.85
540.621	2.83
540.966	2.81
541.311	2.89
541.656	2.75
542.001	2.76
542.346	2.68
542.691	2.64
543.036	2.63
543.381	2.78
543.726	2.87
544.071	2.9
544.415	2.82
544.76	2.75
545.105	2.82
545.449	2.82
545.794	2.8
546.138	2.81
546.483	2.87
546.827	2.75
547.171	2.76
547.516	2.86
547.86	2.75
548.204	2.74
548.548	2.88
548.892	2.82
549.236	2.87
549.58	2.92
549.924	2.92
550.268	3.05
550.612	3
550.956	2.66
551.3	2.87
551.643	2.97
551.987	2.85
552.33	2.95
552.674	3.09
553.017	2.9
553.361	2.77
553.704	2.7
554.048	2.84
554.391	2.77
554.734	2.71
555.077	2.9
555.42	2.89
555.764	2.86
556.107	2.9
556.45	2.81
556.793	2.99
557.135	3.08
557.478	3.04
557.821	2.82
558.164	2.9
558.507	2.8
558.849	2.79
559.192	3.08
559.534	2.72
559.877	2.88
560.219	3.07
560.562	3.04
560.904	2.92
561.246	2.99
561.589	2.97
561.931	3.08
562.273	2.8
562.615	2.82
562.957	2.9
563.299	2.92
563.641	2.84
563.983	2.82
564.325	2.76
564.667	2.87
565.008	2.85
565.35	2.96
565.692	3.01
566.033	2.98
566.375	2.67
566.716	2.93
567.058	2.85
567.399	2.86
567.741	2.92
568.082	2.79
568.423	2.88
568.764	2.93
569.105	3.09
569.447	2.76
569.788	2.98
570.129	2.8
570.47	2.93
570.811	2.95
571.151	2.89
571.492	3.04
571.833	2.86
572.174	2.86
572.514	2.76
572.855	2.97
573.195	2.91
573.536	2.81
573.876	2.86
574.217	2.94
574.557	2.99
574.898	2.87
575.238	2.7
575.578	2.95
575.918	2.71
576.258	2.88
576.598	2.76
576.938	3.08
577.278	2.67
577.618	2.72
577.958	2.95
578.298	2.84
578.638	2.84
578.977	2.86
579.317	2.92
579.657	2.91
579.996	2.88
580.336	2.79
580.675	3.02
581.014	2.82
581.354	3.1
581.693	2.78
582.032	2.75
582.372	2.94
582.711	2.66
583.05	3.02
583.389	3.03
583.728	3.1
584.067	2.91
584.406	2.95
584.745	2.85
585.083	3.12
585.422	2.97
585.761	2.73
586.1	2.93
586.438	2.99
586.777	3.08
587.115	2.94
587.454	2.83
587.792	2.72
588.13	3.18
588.469	3.03
588.807	3
589.145	2.74
589.483	2.72
589.821	2.97
590.159	2.77
590.497	2.62
590.835	2.83
591.173	3.18
591.511	3.04
591.849	3.12
592.187	2.89
592.524	2.81
592.862	2.88
593.2	2.84
593.537	2.99
593.875	2.85
594.212	3.05
594.55	2.98
594.887	2.91
595.224	2.81
595.561	2.69
595.899	2.93
596.236	2.79
596.573	2.73
596.91	2.93
597.247	2.93
597.584	2.96
597.921	2.91
598.258	2.86
598.594	2.62
598.931	2.94
599.268	2.89
599.604	3.09
599.941	2.95
600.277	2.76
600.614	2.99
600.95	2.99
601.287	3.09
601.623	3.04
601.959	2.8
602.296	2.84
602.632	3.17
602.968	2.8
603.304	2.76
603.64	2.8
603.976	2.67
604.312	2.93
604.648	2.92
604.984	2.77
605.319	2.88
605.655	3.05
605.991	2.85
606.326	2.77
606.662	2.76
606.998	3.04
607.333	2.69
607.668	2.97
608.004	2.86
608.339	3.11
608.674	2.71
609.01	2.81
609.345	3.06
609.68	2.77
610.015	2.97
610.35	2.73
610.685	2.87
611.02	2.99
611.355	2.96
611.689	2.71
612.024	3.05
612.359	3.09
612.694	3
613.028	3.26
613.363	2.68
613.697	3.03
614.032	3.14
614.366	2.76
614.7	3.43
615.035	2.66
615.369	3.03
615.703	3.08
616.037	2.93
616.371	2.96
616.705	3.07
617.039	3.11
617.373	2.99
617.707	3.04
618.041	2.89
618.375	2.79
618.709	2.82
619.042	2.91
619.376	2.78
619.71	2.71
620.043	3.25
620.377	2.78
620.71	3.11
621.043	2.56
621.377	3.17
621.71	3.02
622.043	3.21
622.376	2.69
622.709	3.01
623.043	2.95
623.376	3
623.709	2.85
624.041	2.93
624.374	2.77
624.707	2.64
625.04	2.76
625.373	2.96
625.705	2.82
626.038	2.8
626.37	2.83
626.703	2.8
627.035	2.92
627.368	2.85
627.7	2.99
628.032	2.72
628.365	2.61
628.697	2.57
629.029	3.11
629.361	2.92
629.693	3.2
630.025	2.79
630.357	2.6
630.689	3.08
631.021	2.91
631.353	3.08
631.684	2.87
632.016	2.6
632.348	3.31
632.679	2.85
633.011	2.79
633.342	2.94
633.674	2.91
634.005	2.87
634.336	2.93
634.668	2.98
634.999	3.12
635.33	2.94
635.661	2.79
635.992	2.8
636.323	2.74
636.654	3.05
636.985	2.95
637.316	3.07
637.647	3.2
637.977	3.02
638.308	2.77
638.639	2.88
638.969	2.55
639.3	3.08
639.63	2.58
639.961	2.84
640.291	3.03
640.622	2.82
640.952	2.73
641.282	2.65
641.612	2.75
641.943	3.13
642.273	2.64
642.603	3.07
642.933	2.88
643.263	3.11
643.592	2.8
643.922	3.06
644.252	2.51
644.582	2.88
644.911	3.06
645.241	2.63
645.571	2.64
645.9	3.32
646.23	3.13
646.559	2.96
646.888	2.71
647.218	2.96
647.547	3.35
647.876	3.09
648.205	2.45
648.534	3.24
648.863	3.39
649.192	2.94
649.521	2.54
649.85	2.85
650.179	2.7
650.508	2.94
650.837	2.78
651.165	3.25
651.494	2.94
651.822	2.95
652.151	3.56
652.479	3.25
652.808	2.53
653.136	3.01
653.465	3.18
653.793	3.1
654.121	2.9
654.449	2.86
654.777	2.67
655.105	3.34
655.433	2.77
655.761	2.66
656.089	3.06
656.417	2.48
656.745	3.4
657.073	2.82
657.4	3.02
657.728	3.01
658.056	2.57
658.383	3.24
658.711	2.67
659.038	3.01
659.365	2.71
659.693	2.92
660.02	2.88
660.347	3
660.674	2.9
661.001	2.55
661.329	2.71
661.656	3.13
661.982	3.1
662.309	3.16
662.636	3.01
662.963	3.19
663.29	3.1
663.616	2.87
663.943	3.41
664.27	2.95
664.596	3.26
664.923	3.5
665.249	2.5
665.576	2.82
665.902	2.32
666.228	2.95
666.554	2.74
666.881	3.46
667.207	2.61
667.533	3
667.859	3.01
668.185	3.09
668.511	2.52
668.837	2.34
669.162	2.83
669.488	2.69
669.814	3.54
670.139	3.26
670.465	2.86
670.791	3.31
671.116	3.15
671.442	3.09
671.767	2.65
672.092	2.99
672.418	3.33
672.743	2.75
673.068	2.64
673.393	3.19
673.718	2.68
674.043	2.74
674.368	3.3
674.693	2.87
675.018	3.26
675.343	2.61
675.667	2.87
675.992	2.09
676.317	2.29
676.641	3.21
676.966	3.25
677.29	3.29
677.615	2.79
677.939	2.34
678.264	3.02
678.588	3.12
678.912	3.04
679.236	3.27
679.56	2.74
679.885	3.37
680.209	2.22
680.532	2.53
680.856	3.04
681.18	2.49
681.504	2.58
681.828	2.8
682.152	2.71
682.475	2.88
682.799	3.67
683.122	3.01
683.446	2.76
683.769	2.81
684.093	2.84
684.416	2.67
684.739	3.2
685.062	3.4
685.386	2.99
685.709	2.42
686.032	2.83
686.355	2.85
686.678	2.73
687.001	1.82
687.324	2.91
687.646	3.05
687.969	2.87
688.292	3.9
688.614	3.49
688.937	2.72
689.26	2.55
689.582	2.78
689.904	2.98
690.227	3
690.549	3.19
690.871	2.91
691.194	2.37
691.516	2.73
691.838	2.15
692.16	3.17
692.482	3.59
692.804	2.21
693.126	2.99
693.448	2.62
693.769	3.19
694.091	3.05
694.413	3.22
694.735	2.14
695.056	3.08
695.378	3.31
695.699	3.53
696.021	2.6
696.342	3.08
696.663	3.46
696.984	2.66
697.306	3.25
697.627	3.37
697.948	3.84
698.269	2.11
698.59	3.74
698.911	2.6
699.232	3.53
699.553	3.32
699.873	3.63
700.194	2.57
700.515	2.88
700.835	2.89
701.156	2.72
701.477	2.97
701.797	3.2
702.117	3.05
702.438	3.64
702.758	3.01
703.078	2.63
703.398	2.94
703.719	3.18
704.039	2.45
704.359	2.12
704.679	1.87
704.999	2.56
705.319	2.4
705.638	3.03
705.958	2.79
706.278	3.76
706.597	3.28
706.917	3.65
707.237	2.9
707.556	2.96
707.876	2.61
708.195	2.97
708.514	2.75
708.834	3.34
709.153	3.78
709.472	2.15
709.791	1.99
710.11	2.49
710.429	1.8
710.748	3.45
711.067	3.99
711.386	3.38
711.705	2.41
712.023	2.85
712.342	2.58
712.661	3.31
712.979	3.96
713.298	2.93
713.616	2.73
713.935	2.95
714.253	3.71
714.572	3.01
714.89	1.97
715.208	3.51
715.526	3.34
715.844	2.51
716.162	3.05
716.48	2.79
716.798	2.86
717.116	4.57
717.434	3.84
717.752	2.29
718.069	1.81
718.387	3.89
718.705	3.29
719.022	3.27
719.34	1.92
719.657	1.95
719.975	2.47
720.292	2.6
720.609	2.78
720.927	2.93
721.244	3.29
721.561	2.61
721.878	4.31
722.195	4.79
722.512	3.75
722.829	4.99
723.146	3
723.463	3.41
723.779	2.22
724.096	3.27
724.413	3.52
724.729	3.67
725.046	3.5
725.362	2.86
725.679	4.26
725.995	3.36
726.311	3.41
726.628	3.17
726.944	2.82
727.26	2.52
727.576	3.19
727.892	1.88
728.208	3.14
728.524	1.92
728.84	2.75
729.156	2.58
729.472	3.78
729.787	3.69
730.103	2.66
730.419	3.77
730.734	3.24
731.05	3.48
731.365	3.48
731.681	1.96
731.996	2.24
732.311	3.79
732.626	3.88
732.942	2.31
733.257	3.89
733.572	3.49
733.887	2.91
734.202	4.27
734.517	2.1
734.832	2.35
735.146	3.08
735.461	2.47
735.776	3.44
736.091	2.99
736.405	3.55
736.72	3.13
737.034	3
737.349	3.14
737.663	1.72
737.977	2.54
738.292	4.17
738.606	3.71
738.92	4.49
739.234	3.32
739.548	4.15
739.862	3.98
740.176	1.68
740.49	4.75
740.804	2.83
741.117	2.12
741.431	1.05
741.745	2.04
742.058	3.17
742.372	3.8
742.685	2.31
742.999	3.45
743.312	2.2
743.626	2.95
743.939	3.7
744.252	2.93
744.565	4.06
744.878	4.1
745.191	2.51
745.505	2.14
745.817	2.72
746.13	3.23
746.443	2.1
746.756	2.3
747.069	2.82
747.381	2.37
747.694	-0.21
748.007	5.93
748.319	3.25
748.632	1.47
748.944	2.88
749.256	5.23
749.569	3.01
749.881	3.05
750.193	3.4
750.505	4.23
750.817	1.18
751.129	3.22
751.441	1.81
751.753	5.27
752.065	3.16
752.377	2.24
752.689	4.9
753	1.69
753.312	2.27
753.624	2.51
753.935	1.17
754.247	4.1
754.558	4.12
754.869	4.23
755.181	4.18
755.492	4.36
755.803	2.19
756.114	1.69
756.425	3.82
756.736	1.64
757.047	5.07
757.358	3
757.669	4.88
757.98	3.05
758.291	3.97
758.601	2.94
758.912	3.04
759.223	5.81
759.533	4.32
759.844	2.69
760.154	2.82
760.464	3.22
760.775	6.05
761.085	1.71
761.395	7.01
761.705	3.38
762.016	3.45
762.326	3.43
762.636	3.19
762.945	2.95
763.255	1.83
763.565	2.45
763.875	4.91
764.185	3.17
764.494	3.17
764.804	1.98
765.113	3.33
765.423	3.92
765.732	3.84
766.042	2.93
766.351	3.83
766.66	3.16
766.97	4.38
767.279	2.85
767.588	4.95
767.897	2.91
768.206	3.42
768.515	3.87
768.824	4.74
769.133	1.3
769.441	6.21
769.75	2.39
770.059	3.27
770.367	2.08
770.676	1.63
770.984	3.13
771.293	2.92
771.601	0.98
771.91	2.2
772.218	3.32
772.526	4.75
772.834	6.01
773.142	-0.18
773.45	1.67
773.758	3.14
774.066	3.22
774.374	-0.2
774.682	3.08
774.99	1.35
775.298	1.91
775.605	3.25
775.913	-0.45
776.22	1.06
776.528	1.09
776.835	4.49
777.143	2.06
777.45	-0.18
777.757	3.8
778.065	-0.25
778.372	2.29
778.679	6.87
778.986	2.75
779.293	3.57
779.6	-0.98
779.907	-1.57
780.214	2.97
780.52	7.81
780.827	4.27
781.134	1.15
781.44	-2.4
781.747	4.65
782.053	2.27
782.36	0.59
782.666	2.24
782.973	0.31
783.279	2.07
783.585	3.66
783.891	2.48
784.197	3.12
784.503	6.93
784.809	4.32
785.115	-0.95
785.421	0.44
785.727	4.4
786.033	1.43
786.339	5.8
786.644	5.02
786.95	4.28
787.255	5.27
787.561	2.1
787.866	2.42
788.172	0.59
788.477	1.03
788.782	-0.65
789.088	1.85
789.393	0.55
789.698	-0.47
790.003	3.83
790.308	4.32
790.613	2.95
790.918	4.82
791.223	3.75
791.527	5.62
791.832	1.75
792.137	3.57
792.441	4.18
792.746	4.27
793.05	8.56
793.355	5.37
793.659	2.11
793.963	2.74
794.268	-1.5
794.572	8.85
794.876	2.8
795.18	-1.02
795.484	2.21
795.788	2.38
796.092	3.86
796.396	2.99
796.7	1.71
797.004	3.91
797.307	-1.37
797.611	0.1
797.915	3.11
798.218	6.25
798.522	-1.72
798.825	2.62
799.128	3.91
799.432	4.4
799.735	-4.27
800.038	-2.98
800.341	4.47
800.644	2.25
800.947	4.18
801.25	2.24
801.553	5.5
801.856	2.82
802.159	0.6
802.462	5.79
802.764	4.66
803.067	1
803.37	4.03
803.672	-0.08
803.975	1.02
804.277	4.44
804.579	5.69
804.882	2.68
805.184	3.71
805.486	5.88
805.788	0.88
806.09	2.93
806.392	1.93
806.694	1.02
806.996	6.5
807.298	-0.77
807.6	2.31
807.902	8.9
808.203	2.34
808.505	-1.6
808.807	10.25
809.108	-5.13
809.409	1.46
809.711	4.36
810.012	1.61
810.313	5.21
810.615	6.35
810.916	-1.6
811.217	5.84
811.518	7
811.819	1.43
812.12	3.08
812.421	3.64
812.722	-0.75
813.023	7.93
813.323	2.02
813.624	5.23
813.925	1.82
814.225	7.64
814.526	3.59
814.826	1.91
815.126	5.58
815.427	1.3
815.727	3.57
816.027	5.09
816.327	-6.67
816.627	-2.85
816.927	-2.98
817.227	-0.8
817.527	-2.8
817.827	1.93
818.127	8.04
818.427	-6.05
818.727	4.74
819.026	4.45
819.326	9.28
819.625	5.78
819.925	5.44
820.224	4
820.524	2.48
820.823	-3.98
821.122	5.3
821.421	4.55
821.72	4.41
822.019	1.6
822.318	6.75
822.617	3.59
822.916	0.37
823.215	4.09
823.514	1.74
823.813	2.52
824.111	5.53
824.41	4.96
824.709	6.29
825.007	5.37
825.306	4.94
825.604	6.21
825.902	4.91
826.201	5.27
826.499	3.44
826.797	4.64
827.095	2.86
827.393	3.46
827.691	6.03
827.989	4.44
828.287	8.03
828.585	3.33
828.882	5
829.18	3.73
829.478	2.3
829.775	5.43
830.073	4.54
830.37	3.57
830.668	2.8
830.965	1.08
831.263	4.02
831.56	5.22
831.857	3.75
832.154	4.05
832.451	8.1
832.748	1.27
833.045	7.65
833.342	5.82
833.639	4.36
833.936	2.16
834.232	3.22
834.529	3.01
834.826	4.43
835.122	-0.02
835.419	-1.11
835.715	0.96
836.012	4.48
836.308	4.99
836.604	2.18
836.901	8.39
837.197	5.77
837.493	3.39
837.789	2.52
838.085	1.86
838.381	0.84
838.677	1.95
838.972	0.83
839.268	-1.62
839.564	3.03
839.86	-1.1
840.155	2.97
840.451	7.47
840.746	3.25
841.042	-5.07
841.337	1.71
841.632	8.48
841.928	0.75
842.223	-2.26
842.518	11.04
842.813	-0.51
843.108	-8.43
843.403	2.76
843.698	-7.39
843.993	2.24
844.287	4.71
844.582	4.25
844.877	5.57
845.171	7.78
845.466	-5.48
845.761	6.66
846.055	17.65
846.349	-13.68
846.644	2.4
846.938	-4.69
847.232	3.22
847.526	-1.68
847.82	-15.15
848.114	-6.64
848.408	15.7
848.702	7.4
848.996	1.75
849.29	-1.11
849.584	8.84
849.877	-0.87
850.171	-15.19
850.465	-16.51
850.758	-10.46
851.052	-11.48
851.345	5.11
851.638	23.62
851.932	7.11
852.225	-0.37
852.518	10.22
852.811	-2.75
853.104	0.75
853.397	-10.31
853.69	-14.38
853.983	-27.43
854.276	-12.05
854.569	20.85
854.861	2.7
855.154	8.91
855.447	7.09
855.739	8.88
856.032	-25.92
856.324	2.83
856.616	1.54
856.909	-1.45
857.201	8.02
857.493	-2.35
857.785	-15.53
858.077	-15.24
858.369	2.04
858.661	16.25
858.953	-2.39
859.245	1.5
859.537	26.94
859.829	-15.24
860.12	-1.03
860.412	-19.43
860.703	-10.23
860.995	-9.4
861.286	-0.9
861.578	-31.63
861.869	4.18
862.16	-12.81
862.452	7.98
862.743	30.74
863.034	-11.47
863.325	-16.95
863.616	-8.61
863.907	-10.89
864.198	8.73
864.488	-30.04
864.779	4.6
865.07	-3.25
865.36	1.72
865.651	-5.31
865.941	14.54
866.232	-33.73
866.522	-3.62
866.813	0.81
867.103	-1.58
867.393	-7.85
867.683	6.91
867.973	-35.23
868.263	-8.18
868.553	-14.74
868.843	-32.4
869.133	6.22
869.423	1.48
869.713	14.22
870.002	-21.39
870.292	-21.93
870.582	-7.65
870.871	-17.69
871.161	-29.19
871.45	7.7
871.739	-71.99
872.029	-30.39
872.318	-33.66
872.607	3.68
872.896	-1.67
873.185	3.96
873.474	3.3
873.763	13.73
874.052	-29.07
874.341	-97.03
874.63	-11
874.918	-4.92
875.207	21.48
875.496	17.18
875.784	-33.33
876.073	-7.95
876.361	-5.64
876.649	20.97
876.938	-22.13
877.226	-3.89
877.514	-45.29
877.802	-15.11
878.09	-15.46
878.378	-29.12
878.666	-30.57
878.954	10.01
879.242	-5.06
879.53	-18.13
879.817	-4
880.105	-34.2
880.392	4.13
880.68	-35.95
880.967	11.79
881.255	-32.37
881.542	2.06
881.83	-1.76
882.117	-12.95
882.404	-32.36
882.691	-12.42
882.978	-43.52
883.265	15.27
883.552	-15.66
883.839	15.49
884.126	-14.06
884.413	1.37
884.699	8.45
884.986	3.51
885.273	4.71
885.559	4.71
885.846	4.71
