Data from 0174_crown_Reflection__1__102.txt Node

Date: Mon Aug 28 19:32:37 CDT 2023
User: ToomeyLab
Spectrometer: FLMS14357
Trigger mode: 0
Integration Time (sec): 1.000000E-2
Scans to average: 100
Electric dark correction enabled: true
Nonlinearity correction enabled: false
Boxcar width: 0
XAxis mode: Wavelengths
Number of Pixels in Spectrum: 2048
>>>>>Begin Spectral Data<<<<<
189.047	78.21
189.435	78.21
189.823	78.21
190.211	-1781.4
190.599	5.47
190.987	-476.33
191.375	20.52
191.763	49.93
192.151	88.2
192.538	-73.93
192.926	15.05
193.314	267.72
193.702	295.12
194.089	17.67
194.477	-2524.71
194.864	-25.84
195.252	-17.48
195.639	-1177.78
196.027	130.16
196.414	138.76
196.801	141.75
197.189	7.57
197.576	-414.63
197.963	-0.94
198.351	15.6
198.738	31.19
199.125	3.05
199.512	29.97
199.899	-20.79
200.286	7.62
200.673	12.91
201.06	21.85
201.447	-3.31
201.833	-19.23
202.22	4.61
202.607	-17.44
202.994	1.06
203.38	-65.78
203.767	15.6
204.154	-20.21
204.54	-25.77
204.927	-36.17
205.313	32.09
205.699	19.22
206.086	10.64
206.472	3.08
206.858	24.73
207.245	-0.19
207.631	37.54
208.017	16.68
208.403	-11.5
208.789	19.82
209.175	-46.04
209.561	8.28
209.947	1.85
210.333	6.63
210.719	5.6
211.105	39.7
211.491	-18.46
211.876	56.51
212.262	-51.84
212.648	26.06
213.034	19.05
213.419	-10.71
213.805	25.66
214.19	-25.74
214.576	20.27
214.961	17.79
215.346	26.86
215.732	13.11
216.117	9.51
216.502	21.68
216.888	-21.37
217.273	6.92
217.658	12.42
218.043	-17.2
218.428	3.98
218.813	-35.49
219.198	-18.05
219.583	-1.16
219.968	11.38
220.353	-1.58
220.738	13.01
221.122	15.19
221.507	-12.25
221.892	3.58
222.276	1.52
222.661	3.47
223.046	18.43
223.43	12.3
223.815	13.28
224.199	12
224.583	7.99
224.968	15.69
225.352	0.64
225.736	4.8
226.121	7.94
226.505	-0.23
226.889	8.5
227.273	15.01
227.657	5.6
228.041	15.44
228.425	6.62
228.809	7.4
229.193	8.77
229.577	8.67
229.961	7.58
230.344	9.94
230.728	7.5
231.112	7.8
231.495	8.34
231.879	7.52
232.263	8.41
232.646	10.07
233.03	9.34
233.413	11.05
233.797	7.39
234.18	6.07
234.563	11.11
234.946	10.88
235.33	7.05
235.713	6.77
236.096	8.61
236.479	7.6
236.862	8.68
237.245	8.54
237.628	8.08
238.011	9.61
238.394	10.14
238.777	10.61
239.16	6.91
239.543	6.26
239.925	8.52
240.308	8.01
240.691	6.53
241.073	6.1
241.456	7.31
241.838	6.64
242.221	9.03
242.603	8.67
242.986	8.92
243.368	8.2
243.75	8.05
244.133	8.01
244.515	7.5
244.897	8.13
245.279	7.85
245.661	7.06
246.043	8.3
246.425	7.54
246.807	8.44
247.189	6.57
247.571	7.4
247.953	7.9
248.335	7.78
248.717	7.52
249.098	7.51
249.48	7.64
249.862	7.65
250.243	7.04
250.625	7.86
251.006	7.79
251.388	7.9
251.769	8.13
252.151	7.44
252.532	6.61
252.913	7.5
253.295	6.2
253.676	7.28
254.057	7.2
254.438	7.11
254.819	6.7
255.2	8.43
255.581	7.31
255.962	7.74
256.343	8.43
256.724	6.25
257.105	6.4
257.486	7.07
257.867	7.59
258.247	6.78
258.628	7.96
259.009	5.49
259.389	5.83
259.77	7.29
260.15	6.15
260.531	6.47
260.911	6.5
261.292	6.76
261.672	6.84
262.052	6.74
262.432	6.89
262.813	6.79
263.193	6.79
263.573	6.35
263.953	6.83
264.333	6.46
264.713	6.57
265.093	7.07
265.473	7
265.853	6.55
266.233	6.95
266.612	6.98
266.992	6.58
267.372	6.77
267.752	7.28
268.131	6.72
268.511	6.76
268.89	6.37
269.27	6.61
269.649	6.46
270.029	6.82
270.408	7.19
270.787	6.79
271.167	6.67
271.546	6.22
271.925	6.07
272.304	6.53
272.683	6.71
273.062	6.28
273.441	6.49
273.82	6.17
274.199	6.13
274.578	6.37
274.957	6.65
275.336	6.36
275.715	6.28
276.093	6.53
276.472	5.91
276.851	5.8
277.229	6.48
277.608	7.01
277.986	6.34
278.365	6.63
278.743	6.3
279.122	6.5
279.5	5.96
279.878	5.59
280.257	5.92
280.635	6.52
281.013	5.99
281.391	6.84
281.769	5.66
282.147	6.16
282.525	6.2
282.903	5.82
283.281	5.92
283.659	6.85
284.037	6.28
284.415	5.67
284.792	6.1
285.17	5.66
285.548	5.74
285.925	6.44
286.303	5.88
286.68	5.85
287.058	6.09
287.435	5.63
287.813	5.73
288.19	6.08
288.567	5.64
288.945	5.73
289.322	5.86
289.699	5.84
290.076	5.82
290.453	5.87
290.83	5.49
291.207	5.16
291.584	5.62
291.961	6.06
292.338	5.47
292.715	5.51
293.092	5.86
293.469	5.91
293.845	5.71
294.222	5.37
294.599	5.43
294.975	5.85
295.352	5.12
295.728	5.54
296.105	5.61
296.481	5.26
296.858	5.79
297.234	5.6
297.61	5.44
297.986	5.77
298.363	5.65
298.739	5.45
299.115	5.4
299.491	5.53
299.867	5.08
300.243	5.64
300.619	5.26
300.995	5.71
301.371	5.32
301.746	5.67
302.122	5.34
302.498	4.86
302.874	5.62
303.249	4.97
303.625	5.21
304	5.28
304.376	5.02
304.751	4.92
305.127	5.76
305.502	5.03
305.878	5.56
306.253	4.96
306.628	5.21
307.003	5.18
307.378	4.73
307.754	5.42
308.129	5.08
308.504	5.84
308.879	5.01
309.254	5.62
309.629	4.95
310.003	5.18
310.378	4.82
310.753	5.34
311.128	4.95
311.502	5.4
311.877	5
312.252	4.95
312.626	5.49
313.001	5.01
313.375	4.95
313.75	5.22
314.124	4.96
314.498	5.12
314.873	5.17
315.247	5.62
315.621	4.33
315.995	5.82
316.369	5.05
316.743	4.63
317.117	4.95
317.491	4.66
317.865	4.49
318.239	5.02
318.613	5.12
318.987	4.72
319.361	4.96
319.734	5.23
320.108	4.89
320.482	5.11
320.855	4.53
321.229	4.51
321.602	5.06
321.976	4.2
322.349	4.47
322.723	4.49
323.096	5
323.469	4.54
323.843	4.81
324.216	4.85
324.589	4.81
324.962	4.84
325.335	5.02
325.708	4.57
326.081	5.06
326.454	5.08
326.827	5.11
327.2	4.36
327.573	4.76
327.945	5.09
328.318	4.86
328.691	4.06
329.063	4.22
329.436	4.15
329.809	4.99
330.181	4.49
330.553	4.78
330.926	4.65
331.298	4.85
331.671	4.66
332.043	4.74
332.415	5.34
332.787	4.83
333.159	5.06
333.532	5.34
333.904	4.51
334.276	4.3
334.648	4.79
335.02	5.03
335.391	4.94
335.763	4.78
336.135	4.67
336.507	4.63
336.879	4.66
337.25	5.28
337.622	4.86
337.993	4.71
338.365	4.87
338.736	4.99
339.108	4.43
339.479	4.51
339.851	4.99
340.222	5.11
340.593	4.52
340.964	5.15
341.336	4.76
341.707	4.8
342.078	4.64
342.449	4.68
342.82	5.55
343.191	5.02
343.562	4.53
343.933	4.73
344.303	4.7
344.674	4.81
345.045	5.07
345.416	5.17
345.786	5.43
346.157	4.79
346.527	4.51
346.898	4.54
347.268	4.3
347.639	4.4
348.009	4.63
348.38	5.12
348.75	4.83
349.12	4.78
349.49	4.85
349.861	4.71
350.231	4.73
350.601	5.18
350.971	5.27
351.341	4.71
351.711	4.84
352.081	5.01
352.45	5.26
352.82	4.92
353.19	5.41
353.56	4.44
353.929	5.19
354.299	4.98
354.669	4.94
355.038	4.57
355.408	5.28
355.777	4.87
356.147	4.7
356.516	5.14
356.885	5.09
357.254	5.07
357.624	4.75
357.993	4.9
358.362	4.84
358.731	5.02
359.1	5.13
359.469	5.18
359.838	4.76
360.207	4.85
360.576	5.31
360.945	4.87
361.314	4.7
361.682	4.59
362.051	5.3
362.42	5.15
362.788	4.86
363.157	4.84
363.525	5.07
363.894	5.04
364.262	5
364.631	4.82
364.999	4.96
365.367	5.06
365.735	5.02
366.104	5.11
366.472	4.87
366.84	5.19
367.208	5.05
367.576	4.97
367.944	5.1
368.312	5.2
368.68	5.26
369.048	5.06
369.416	5.14
369.783	4.97
370.151	5.3
370.519	5.13
370.886	5.08
371.254	4.8
371.621	4.79
371.989	4.96
372.356	5.12
372.724	5.51
373.091	5.58
373.458	5.01
373.826	5.24
374.193	5.14
374.56	5.43
374.927	5.03
375.294	5.16
375.661	5.29
376.028	5.18
376.395	5.31
376.762	5.41
377.129	5.07
377.496	5.36
377.863	5.14
378.229	5.05
378.596	5.34
378.963	5.48
379.329	5.43
379.696	5.15
380.062	5.12
380.429	5.14
380.795	5.75
381.161	5.19
381.528	5.37
381.894	5.2
382.26	5.26
382.626	5.38
382.993	5.49
383.359	5.52
383.725	5.62
384.091	5.53
384.457	5.16
384.823	4.99
385.188	5.64
385.554	5.23
385.92	5.44
386.286	5.64
386.651	5.36
387.017	5.72
387.383	5.4
387.748	5.5
388.114	5.34
388.479	5.36
388.845	5.7
389.21	5.36
389.575	5.54
389.94	5.39
390.306	5.49
390.671	5.42
391.036	5.29
391.401	5.63
391.766	5.78
392.131	5.61
392.496	5.42
392.861	5.29
393.226	5.48
393.591	5.48
393.956	5.73
394.32	5.5
394.685	5.57
395.05	5.67
395.414	5.46
395.779	5.5
396.143	5.53
396.508	5.43
396.872	5.69
397.236	5.39
397.601	5.54
397.965	5.56
398.329	5.73
398.694	5.53
399.058	5.6
399.422	5.64
399.786	5.53
400.15	5.67
400.514	5.58
400.878	5.7
401.242	5.77
401.605	5.56
401.969	5.51
402.333	5.6
402.697	5.69
403.06	5.8
403.424	5.87
403.787	5.53
404.151	5.72
404.514	5.6
404.878	5.52
405.241	5.8
405.604	5.52
405.968	5.6
406.331	5.86
406.694	5.8
407.057	5.76
407.42	5.61
407.783	5.65
408.146	5.59
408.509	5.8
408.872	5.68
409.235	5.68
409.598	5.76
409.961	5.81
410.323	5.84
410.686	5.57
411.049	5.91
411.411	5.73
411.774	5.81
412.136	5.69
412.499	5.63
412.861	5.77
413.223	5.62
413.586	5.78
413.948	6.02
414.31	5.88
414.672	5.64
415.035	5.91
415.397	5.72
415.759	5.83
416.121	5.86
416.483	5.63
416.845	5.91
417.206	6.12
417.568	5.85
417.93	5.68
418.292	5.85
418.653	5.74
419.015	5.55
419.377	5.66
419.738	6.01
420.1	5.79
420.461	5.78
420.822	5.78
421.184	5.74
421.545	5.76
421.906	5.83
422.267	5.78
422.629	5.7
422.99	5.72
423.351	5.67
423.712	5.68
424.073	5.75
424.434	5.78
424.795	5.76
425.155	5.8
425.516	5.86
425.877	5.68
426.238	5.69
426.598	5.6
426.959	5.64
427.32	5.66
427.68	5.7
428.041	5.84
428.401	5.75
428.761	5.84
429.122	5.9
429.482	5.85
429.842	5.97
430.202	5.94
430.563	6.02
430.923	6.09
431.283	5.9
431.643	5.91
432.003	6.13
432.363	6.08
432.722	6.01
433.082	5.91
433.442	6.11
433.802	5.81
434.161	6.06
434.521	6.01
434.881	5.84
435.24	5.84
435.6	5.89
435.959	5.88
436.319	6.06
436.678	5.94
437.037	5.86
437.396	5.93
437.756	5.79
438.115	6.13
438.474	6.17
438.833	6.03
439.192	6
439.551	6.05
439.91	6.11
440.269	5.99
440.628	5.87
440.987	6.04
441.345	5.99
441.704	5.89
442.063	5.83
442.421	5.95
442.78	5.97
443.138	5.96
443.497	5.92
443.855	5.93
444.214	6.09
444.572	5.92
444.93	5.97
445.288	5.98
445.647	5.9
446.005	6.1
446.363	6.13
446.721	6.07
447.079	5.88
447.437	5.83
447.795	5.89
448.153	5.95
448.51	5.91
448.868	5.93
449.226	5.83
449.584	5.88
449.941	5.95
450.299	5.94
450.656	5.98
451.014	5.9
451.371	5.97
451.729	5.95
452.086	5.93
452.443	6.2
452.801	6.23
453.158	6.22
453.515	6.24
453.872	6.11
454.229	6.21
454.586	6.24
454.943	6.09
455.3	6.13
455.657	6.2
456.014	6.19
456.371	6.07
456.727	6.02
457.084	6.12
457.441	6.12
457.797	6.18
458.154	6.07
458.51	6.22
458.867	6.09
459.223	6.15
459.58	6.19
459.936	6.31
460.292	6.07
460.648	6.02
461.005	5.96
461.361	6.07
461.717	5.98
462.073	5.95
462.429	5.96
462.785	5.94
463.141	6.03
463.496	6.12
463.852	6.1
464.208	6.13
464.564	6.22
464.919	6.13
465.275	6.22
465.631	6.05
465.986	6.27
466.342	6.22
466.697	6.25
467.052	6.07
467.408	6.18
467.763	6.2
468.118	6.04
468.473	6.36
468.829	6.24
469.184	6.03
469.539	6.22
469.894	6.19
470.249	6.2
470.603	6.23
470.958	6.07
471.313	6.29
471.668	6.12
472.023	6.18
472.377	6.13
472.732	6.23
473.086	6.17
473.441	6.22
473.795	6.11
474.15	6.27
474.504	6.27
474.859	6.29
475.213	6.15
475.567	6.19
475.921	6.45
476.275	6.27
476.63	6.36
476.984	6.28
477.338	6.38
477.692	6.2
478.045	6.35
478.399	6.21
478.753	6.08
479.107	6.24
479.461	6.28
479.814	6.54
480.168	6.25
480.521	6.28
480.875	6.28
481.228	6.28
481.582	6.15
481.935	6.13
482.289	6.16
482.642	6.35
482.995	6.41
483.348	6.1
483.701	6.26
484.055	6.17
484.408	6.07
484.761	6.11
485.114	6.06
485.466	6.01
485.819	5.87
486.172	5.76
486.525	5.76
486.878	5.79
487.23	5.9
487.583	5.94
487.936	6.07
488.288	6.05
488.641	6.1
488.993	6.05
489.345	6.01
489.698	5.96
490.05	5.95
490.402	5.85
490.754	5.95
491.107	5.99
491.459	6.03
491.811	6.06
492.163	6.18
492.515	6.13
492.866	6.3
493.218	6.08
493.57	6.06
493.922	5.9
494.274	5.93
494.625	5.92
494.977	6.02
495.328	6.16
495.68	6.27
496.031	6.2
496.383	6.16
496.734	6.31
497.086	6.34
497.437	6.22
497.788	6.19
498.139	6.26
498.49	6.18
498.842	6.22
499.193	6.23
499.544	6.2
499.894	6.24
500.245	6.15
500.596	6.14
500.947	6.21
501.298	6.32
501.648	6.21
501.999	6.28
502.35	6.22
502.7	6.3
503.051	6.36
503.401	6.2
503.752	6.21
504.102	6.2
504.452	6.23
504.803	6.33
505.153	6.29
505.503	6.27
505.853	6.28
506.203	6.37
506.553	6.21
506.903	6.39
507.253	6.45
507.603	6.19
507.953	6.28
508.303	6.42
508.652	6.37
509.002	6.37
509.352	6.09
509.701	6.22
510.051	6.29
510.4	6.2
510.75	6.34
511.099	6.3
511.449	6.27
511.798	6.24
512.147	6.2
512.496	6.24
512.846	6.12
513.195	6.35
513.544	6.21
513.893	6.19
514.242	6.29
514.591	6.31
514.939	6.07
515.288	6.24
515.637	6.2
515.986	6.21
516.334	6.39
516.683	6.41
517.032	6.42
517.38	6.42
517.729	6.42
518.077	6.38
518.426	6.18
518.774	6.37
519.122	6.28
519.47	6.26
519.819	6.12
520.167	6.23
520.515	6.25
520.863	6.06
521.211	6.1
521.559	6.12
521.907	6.16
522.255	6.1
522.602	6.2
522.95	6.3
523.298	6.29
523.645	6.28
523.993	6.24
524.341	6.37
524.688	6.32
525.036	6.25
525.383	6.4
525.73	6.21
526.078	6.34
526.425	6.23
526.772	6.38
527.119	6.2
527.466	6.11
527.814	6.07
528.161	6.07
528.508	6.22
528.854	6.11
529.201	6.19
529.548	6.15
529.895	6.17
530.242	6.04
530.588	5.93
530.935	5.89
531.282	5.86
531.628	5.85
531.975	5.96
532.321	5.93
532.667	6
533.014	6.17
533.36	6.2
533.706	6.15
534.052	6.1
534.399	6.22
534.745	6.19
535.091	6.14
535.437	6.01
535.783	5.95
536.129	6
536.474	6.02
536.82	6.08
537.166	6.05
537.512	6.18
537.857	6.22
538.203	6.14
538.549	6.19
538.894	6.06
539.239	5.95
539.585	6.02
539.93	6.16
540.276	6.11
540.621	6.29
540.966	6.14
541.311	6.31
541.656	6.22
542.001	6.24
542.346	6.25
542.691	6.12
543.036	6.11
543.381	6.02
543.726	5.91
544.071	5.96
544.415	5.99
544.76	5.99
545.105	6
545.449	5.99
545.794	6.09
546.138	6.17
546.483	6.18
546.827	6.2
547.171	6.14
547.516	6.11
547.86	6.09
548.204	6.16
548.548	6.21
548.892	6.09
549.236	6.12
549.58	6.13
549.924	6.18
550.268	6.11
550.612	6.16
550.956	6.16
551.3	6.22
551.643	6.36
551.987	6.08
552.33	6.29
552.674	6.22
553.017	6.33
553.361	6.32
553.704	6.19
554.048	6.22
554.391	6.27
554.734	6.26
555.077	6.11
555.42	6.17
555.764	6.28
556.107	6.2
556.45	6.15
556.793	6.25
557.135	6.09
557.478	6.2
557.821	6.18
558.164	6.43
558.507	6.29
558.849	6.25
559.192	6.18
559.534	6.13
559.877	6.35
560.219	6.37
560.562	6.27
560.904	6.27
561.246	6.27
561.589	6.25
561.931	6.22
562.273	6.04
562.615	6.26
562.957	6.27
563.299	6.29
563.641	6.01
563.983	6.17
564.325	6.16
564.667	6.14
565.008	5.95
565.35	6.21
565.692	6.29
566.033	6.15
566.375	6.11
566.716	6.01
567.058	6.18
567.399	6.1
567.741	6.18
568.082	6
568.423	6.13
568.764	6
569.105	6.14
569.447	6.13
569.788	6.19
570.129	6.08
570.47	6.21
570.811	6.17
571.151	6
571.492	6.16
571.833	6.15
572.174	6.18
572.514	5.96
572.855	6.03
573.195	6.13
573.536	6.11
573.876	5.98
574.217	6.18
574.557	6.1
574.898	6.02
575.238	6.05
575.578	5.97
575.918	5.93
576.258	6.13
576.598	6.1
576.938	6.12
577.278	6.07
577.618	6.01
577.958	5.98
578.298	6.31
578.638	6
578.977	6.04
579.317	6.14
579.657	5.97
579.996	6.01
580.336	6.11
580.675	5.98
581.014	6.19
581.354	6
581.693	5.93
582.032	6.19
582.372	6.02
582.711	6.26
583.05	6.07
583.389	5.96
583.728	5.96
584.067	6.04
584.406	6.02
584.745	6.17
585.083	6.08
585.422	5.98
585.761	6.14
586.1	6.17
586.438	5.78
586.777	5.91
587.115	6.17
587.454	6.12
587.792	6.05
588.13	6.15
588.469	5.94
588.807	5.89
589.145	5.96
589.483	6.05
589.821	5.98
590.159	6.08
590.497	6.18
590.835	6.09
591.173	5.98
591.511	5.87
591.849	5.97
592.187	6.01
592.524	5.87
592.862	5.81
593.2	5.64
593.537	5.83
593.875	6.37
594.212	6
594.55	6.16
594.887	5.97
595.224	5.96
595.561	5.99
595.899	5.85
596.236	5.99
596.573	6.14
596.91	5.72
597.247	6.12
597.584	5.75
597.921	6.12
598.258	5.78
598.594	5.74
598.931	5.79
599.268	5.81
599.604	5.86
599.941	5.86
600.277	5.82
600.614	5.99
600.95	5.76
601.287	5.88
601.623	6.17
601.959	5.97
602.296	5.98
602.632	5.75
602.968	5.96
603.304	5.92
603.64	5.76
603.976	5.91
604.312	5.87
604.648	5.81
604.984	5.86
605.319	5.97
605.655	5.81
605.991	5.8
606.326	5.91
606.662	5.91
606.998	5.76
607.333	5.65
607.668	5.78
608.004	5.68
608.339	6.03
608.674	5.68
609.01	5.77
609.345	5.92
609.68	5.74
610.015	5.84
610.35	6.04
610.685	5.83
611.02	5.71
611.355	6.03
611.689	5.68
612.024	5.89
612.359	5.77
612.694	5.84
613.028	5.7
613.363	5.8
613.697	5.68
614.032	5.71
614.366	5.73
614.7	5.86
615.035	5.54
615.369	5.67
615.703	5.84
616.037	5.3
616.371	5.47
616.705	6
617.039	5.9
617.373	5.97
617.707	5.84
618.041	5.8
618.375	5.8
618.709	5.83
619.042	5.62
619.376	5.83
619.71	5.43
620.043	5.79
620.377	5.91
620.71	5.83
621.043	5.82
621.377	6.16
621.71	5.95
622.043	5.53
622.376	5.94
622.709	5.93
623.043	5.88
623.376	6
623.709	6.04
624.041	5.98
624.374	5.56
624.707	5.51
625.04	5.44
625.373	6
625.705	6.07
626.038	5.94
626.37	5.61
626.703	5.82
627.035	5.83
627.368	6.25
627.7	5.99
628.032	5.53
628.365	5.59
628.697	5.73
629.029	5.88
629.361	5.85
629.693	5.61
630.025	5.69
630.357	5.55
630.689	5.43
631.021	5.67
631.353	5.66
631.684	5.8
632.016	5.56
632.348	5.7
632.679	5.96
633.011	5.57
633.342	5.41
633.674	5.66
634.005	5.75
634.336	5.37
634.668	5.77
634.999	5.66
635.33	5.71
635.661	6.27
635.992	5.53
636.323	5.96
636.654	5.57
636.985	5.59
637.316	5.54
637.647	5.76
637.977	5.66
638.308	5.73
638.639	5.73
638.969	5.66
639.3	5.81
639.63	5.79
639.961	5.99
640.291	5.86
640.622	5.42
640.952	5.46
641.282	5.39
641.612	5.46
641.943	5.74
642.273	5.75
642.603	5.52
642.933	5.22
643.263	6.03
643.592	5.5
643.922	5.56
644.252	5.78
644.582	5.98
644.911	5.51
645.241	5.43
645.571	5.34
645.9	5.42
646.23	5.77
646.559	5.57
646.888	5.74
647.218	5.37
647.547	5.69
647.876	6.03
648.205	5.93
648.534	5.73
648.863	5.63
649.192	5.7
649.521	5.95
649.85	5.9
650.179	6.09
650.508	5.56
650.837	5.49
651.165	5.66
651.494	5.71
651.822	5.7
652.151	5.82
652.479	5.93
652.808	5.65
653.136	5.54
653.465	5.5
653.793	5.73
654.121	5.9
654.449	5.79
654.777	5.44
655.105	5.39
655.433	5.66
655.761	5.39
656.089	5.61
656.417	4.95
656.745	5.98
657.073	5.16
657.4	5.62
657.728	5.92
658.056	5.55
658.383	6.02
658.711	6.47
659.038	5.64
659.365	5.71
659.693	4.99
660.02	5.42
660.347	5.9
660.674	5.69
661.001	5.91
661.329	5.36
661.656	5.51
661.982	5.34
662.309	5.64
662.636	5.52
662.963	5.95
663.29	5.54
663.616	5.14
663.943	5.95
664.27	5.9
664.596	5.72
664.923	6.29
665.249	6.27
665.576	5.42
665.902	5.68
666.228	5.2
666.554	5.64
666.881	5.28
667.207	5.23
667.533	5.42
667.859	4.93
668.185	5.87
668.511	6.3
668.837	5.09
669.162	6.23
669.488	5.03
669.814	6.03
670.139	5.58
670.465	5.87
670.791	5.46
671.116	5.59
671.442	5.84
671.767	4.87
672.092	5.78
672.418	5.84
672.743	6.59
673.068	5.61
673.393	5.81
673.718	5.08
674.043	5.44
674.368	5.74
674.693	5.65
675.018	6.19
675.343	5.07
675.667	6.4
675.992	5.68
676.317	4.94
676.641	6.38
676.966	6.15
677.29	5.42
677.615	6.08
677.939	5.78
678.264	4.95
678.588	5.79
678.912	5.91
679.236	4.96
679.56	5.2
679.885	5.77
680.209	5.36
680.532	5.99
680.856	5.74
681.18	5.54
681.504	5.99
681.828	5.73
682.152	5.52
682.475	5.89
682.799	5.71
683.122	5.7
683.446	5.4
683.769	6.34
684.093	5.45
684.416	6.15
684.739	5.35
685.062	6.32
685.386	4.92
685.709	6.27
686.032	5.1
686.355	5.56
686.678	5.8
687.001	5.56
687.324	5.51
687.646	5.81
687.969	6.02
688.292	6.1
688.614	5.92
688.937	5.71
689.26	5.76
689.582	5.47
689.904	5.44
690.227	5.93
690.549	5.04
690.871	5.99
691.194	5.32
691.516	6.07
691.838	5.94
692.16	5.58
692.482	5.72
692.804	5.25
693.126	5.59
693.448	5.5
693.769	5.97
694.091	5.68
694.413	5.2
694.735	5.99
695.056	6.45
695.378	6.25
695.699	6.64
696.021	5.89
696.342	5.69
696.663	5.44
696.984	5.12
697.306	5.9
697.627	5.26
697.948	5.61
698.269	5.35
698.59	5.2
698.911	5.93
699.232	5.67
699.553	5.4
699.873	4.99
700.194	5.32
700.515	5.82
700.835	5.73
701.156	6.07
701.477	5.9
701.797	5.76
702.117	4.93
702.438	6.1
702.758	5.59
703.078	6.29
703.398	5.03
703.719	7
704.039	6.17
704.359	5.32
704.679	4.74
704.999	6.26
705.319	5.5
705.638	6.41
705.958	5.09
706.278	6.4
706.597	4.78
706.917	5.99
707.237	4.34
707.556	5.94
707.876	6.04
708.195	5.86
708.514	5.25
708.834	5.33
709.153	6.37
709.472	6.43
709.791	5.35
710.11	5.41
710.429	5.13
710.748	5.65
711.067	5.5
711.386	6.07
711.705	6.11
712.023	5.83
712.342	6.01
712.661	5.71
712.979	5.78
713.298	5.34
713.616	5.53
713.935	5.13
714.253	5.8
714.572	5.76
714.89	5.98
715.208	7.28
715.526	5.16
715.844	5.57
716.162	5.23
716.48	5.13
716.798	5.42
717.116	5.65
717.434	5.06
717.752	5.63
718.069	6.02
718.387	5.07
718.705	6.21
719.022	5.9
719.34	6.02
719.657	5.57
719.975	5.65
720.292	5.22
720.609	5.43
720.927	6.42
721.244	5.88
721.561	5.79
721.878	5.11
722.195	6.08
722.512	4.74
722.829	6.3
723.146	5.31
723.463	5.02
723.779	5.59
724.096	5.1
724.413	6.81
724.729	5.66
725.046	4.53
725.362	5.82
725.679	6.6
725.995	5.88
726.311	6.38
726.628	7.38
726.944	6.17
727.26	4.66
727.576	5.78
727.892	5.25
728.208	6.54
728.524	5.82
728.84	5.97
729.156	5.82
729.472	6.97
729.787	7.44
730.103	7.21
730.419	6.46
730.734	4.33
731.05	6.39
731.365	6.9
731.681	5.53
731.996	6.42
732.311	6.25
732.626	6.55
732.942	5.93
733.257	5.76
733.572	4.98
733.887	5.76
734.202	5.32
734.517	5.92
734.832	6.17
735.146	7.1
735.461	5.55
735.776	6.13
736.091	5.49
736.405	6.36
736.72	7.39
737.034	5.8
737.349	6.33
737.663	4.85
737.977	6.53
738.292	5.28
738.606	7.1
738.92	5.86
739.234	5.61
739.548	6.7
739.862	6.55
740.176	5.88
740.49	5.2
740.804	6.34
741.117	4.87
741.431	6.41
741.745	6.33
742.058	7.91
742.372	6.12
742.685	7.27
742.999	6.6
743.312	6.22
743.626	5.69
743.939	5.25
744.252	6.7
744.565	5.47
744.878	6.81
745.191	6.51
745.505	6.5
745.817	7.43
746.13	7.78
746.443	6.51
746.756	7.81
747.069	7.01
747.381	5.81
747.694	6.33
748.007	7.42
748.319	4.92
748.632	5.74
748.944	4.59
749.256	6.9
749.569	6.37
749.881	7.77
750.193	6.9
750.505	7.04
750.817	6.62
751.129	5.59
751.441	7.11
751.753	5.59
752.065	6.9
752.377	6.37
752.689	5.69
753	7.27
753.312	8.51
753.624	5.75
753.935	5.27
754.247	6.45
754.558	6.63
754.869	5.28
755.181	8.62
755.492	6.67
755.803	6.77
756.114	6.73
756.425	6.86
756.736	6.23
757.047	6.18
757.358	6.06
757.669	6.29
757.98	7.98
758.291	4.92
758.601	6.81
758.912	7.15
759.223	6.46
759.533	7.47
759.844	6.01
760.154	6.76
760.464	6.89
760.775	5.76
761.085	5.64
761.395	5.39
761.705	3.98
762.016	8.46
762.326	8.67
762.636	6.42
762.945	7.13
763.255	6.32
763.565	4.83
763.875	6.61
764.185	4.4
764.494	7.81
764.804	4.65
765.113	6.14
765.423	5.14
765.732	6.72
766.042	5.56
766.351	6.42
766.66	6.5
766.97	6
767.279	9.09
767.588	5.12
767.897	6.87
768.206	5.91
768.515	5.59
768.824	6.6
769.133	6.73
769.441	6.11
769.75	6.49
770.059	5.98
770.367	6.79
770.676	5
770.984	7.26
771.293	5.95
771.601	7.77
771.91	6.95
772.218	5.74
772.526	9.7
772.834	5.69
773.142	6.88
773.45	6
773.758	6.41
774.066	4.51
774.374	7.33
774.682	9.66
774.99	7.45
775.298	6.47
775.605	6.52
775.913	6.62
776.22	3.91
776.528	7.81
776.835	6.78
777.143	6.86
777.45	7.92
777.757	6.82
778.065	7.6
778.372	8.94
778.679	6.37
778.986	5.25
779.293	9.8
779.6	8.13
779.907	7.36
780.214	6.26
780.52	9.85
780.827	7.36
781.134	8.84
781.44	7.33
781.747	7.26
782.053	9.56
782.36	5.48
782.666	6.17
782.973	6.93
783.279	3.05
783.585	6.05
783.891	6.63
784.197	5.36
784.503	5.95
784.809	6.71
785.115	6.48
785.421	8.07
785.727	5.64
786.033	6.35
786.339	6.38
786.644	6.37
786.95	8.87
787.255	7.06
787.561	7.53
787.866	4.85
788.172	6.21
788.477	8.92
788.782	8.2
789.088	6.88
789.393	9.77
789.698	7.07
790.003	8.97
790.308	8.69
790.613	5.28
790.918	7.87
791.223	9.01
791.527	5.26
791.832	6.8
792.137	6.48
792.441	10.02
792.746	6.23
793.05	3.99
793.355	8.5
793.659	7.75
793.963	5.33
794.268	8.49
794.572	5.62
794.876	4.46
795.18	7.34
795.484	4.67
795.788	7.16
796.092	6.62
796.396	5.09
796.7	11.94
797.004	6.24
797.307	11.16
797.611	8.09
797.915	6.63
798.218	1.7
798.522	2.35
798.825	7.74
799.128	7.76
799.432	9.04
799.735	7.24
800.038	8.08
800.341	5.74
800.644	5.8
800.947	7.03
801.25	9.3
801.553	8.24
801.856	7.21
802.159	6.86
802.462	7.91
802.764	6.92
803.067	2.02
803.37	1.58
803.672	4.52
803.975	10.15
804.277	6.22
804.579	7.74
804.882	3.26
805.184	7.73
805.486	3.93
805.788	8.53
806.09	10
806.392	7.31
806.694	4.26
806.996	7.85
807.298	9.93
807.6	9.11
807.902	8.17
808.203	8.38
808.505	5.11
808.807	7.38
809.108	6.74
809.409	4.74
809.711	4.37
810.012	4.29
810.313	10.39
810.615	9.15
810.916	8.46
811.217	10.31
811.518	10.08
811.819	7.29
812.12	10.19
812.421	7.78
812.722	8.76
813.023	9.18
813.323	2.66
813.624	5.52
813.925	7.03
814.225	5.01
814.526	12.15
814.826	6.93
815.126	6.04
815.427	8.08
815.727	4.35
816.027	9.05
816.327	6.4
816.627	8.99
816.927	10.29
817.227	5.68
817.527	1.6
817.827	8.58
818.127	5.16
818.427	6.95
818.727	8.57
819.026	2.64
819.326	1.72
819.625	6.21
819.925	10.8
820.224	8.95
820.524	5.24
820.823	5.51
821.122	9.82
821.421	7.82
821.72	5.58
822.019	10.72
822.318	5.93
822.617	8.29
822.916	9.81
823.215	9.78
823.514	3.58
823.813	8.09
824.111	8.89
824.41	6.27
824.709	8.69
825.007	6.68
825.306	7.36
825.604	8.11
825.902	8.47
826.201	7.68
826.499	7.53
826.797	7.47
827.095	7.17
827.393	8.63
827.691	6.75
827.989	8.19
828.287	9.68
828.585	6.46
828.882	9.22
829.18	7.44
829.478	7.34
829.775	8.49
830.073	6.22
830.37	8.11
830.668	7.84
830.965	7.59
831.263	7.2
831.56	8.11
831.857	7.81
832.154	5.94
832.451	6.97
832.748	11.36
833.045	1.86
833.342	8.71
833.639	7.39
833.936	5.52
834.232	6.37
834.529	10.6
834.826	9.1
835.122	8.52
835.419	3.99
835.715	12.42
836.012	8.83
836.308	6.9
836.604	10.03
836.901	9.22
837.197	7.49
837.493	7.36
837.789	8.04
838.085	11.07
838.381	9.24
838.677	6.41
838.972	7.22
839.268	8.82
839.564	4.74
839.86	8.89
840.155	6.47
840.451	10.65
840.746	7.23
841.042	7.84
841.337	4.97
841.632	5.08
841.928	10.67
842.223	4.73
842.518	9.96
842.813	6.7
843.108	4.37
843.403	10.72
843.698	2.77
843.993	4.18
844.287	14.63
844.582	16.68
844.877	3.78
845.171	-4.81
845.466	6.65
845.761	4.85
846.055	10.58
846.349	6
846.644	12.07
846.938	2.79
847.232	1.39
847.526	-12.23
847.82	-15.65
848.114	-14.09
848.408	6.34
848.702	-4.82
848.996	17.78
849.29	18.83
849.584	5.63
849.877	21.02
850.171	-6.9
850.465	23.06
850.758	15.49
851.052	9.84
851.345	4.57
851.638	-7.88
851.932	-13.9
852.225	4.38
852.518	21.99
852.811	-4.46
853.104	-3.24
853.397	-12.09
853.69	-4.37
853.983	0.54
854.276	5.8
854.569	5.79
854.861	19.58
855.154	2.94
855.447	24.09
855.739	2.14
856.032	2.82
856.324	9.78
856.616	3.98
856.909	-1.79
857.201	2.68
857.493	0.69
857.785	8.98
858.077	3.45
858.369	12.23
858.661	2.17
858.953	3.98
859.245	-5.84
859.537	17.75
859.829	19.07
860.12	-3.59
860.412	3.55
860.703	20.44
860.995	11.36
861.286	-2.85
861.578	-5.67
861.869	5.82
862.16	23.8
862.452	18.1
862.743	14.85
863.034	16.78
863.325	13.83
863.616	11.72
863.907	-0.72
864.198	2.81
864.488	0.75
864.779	-8.28
865.07	20.44
865.36	9.44
865.651	7.11
865.941	27.61
866.232	1.09
866.522	-0.97
866.813	2.23
867.103	20.15
867.393	-10.2
867.683	7.29
867.973	16.58
868.263	-2.84
868.553	-5.14
868.843	6.03
869.133	-6.57
869.423	12.81
869.713	5.13
870.002	-2.9
870.292	17.43
870.582	27.15
870.871	11.64
871.161	2.4
871.45	27.68
871.739	9.02
872.029	-29.62
872.318	3.35
872.607	6.32
872.896	20.99
873.185	5.01
873.474	18.37
873.763	-37.69
874.052	-19.16
874.341	-7.17
874.63	2.14
874.918	15.21
875.207	21.2
875.496	21.85
875.784	29.71
876.073	-6.77
876.361	12.76
876.649	12.93
876.938	2.76
877.226	12.6
877.514	5.32
877.802	15.54
878.09	2.26
878.378	19.26
878.666	10.29
878.954	-2.34
879.242	1.94
879.53	5.71
879.817	0.06
880.105	-0.16
880.392	-12.61
880.68	0.39
880.967	3.77
881.255	9.6
881.542	5.11
881.83	24.12
882.117	11.38
882.404	30.08
882.691	3.26
882.978	8.79
883.265	16.99
883.552	9.67
883.839	8.07
884.126	6.34
884.413	1.7
884.699	5.64
884.986	16.36
885.273	16.21
885.559	16.21
885.846	16.21
