Data from 0048_forehead_Reflection__1__192.txt Node

Date: Fri Nov 04 16:24:54 CDT 2022
User: ToomeyLab
Spectrometer: FLMS14357
Trigger mode: 0
Integration Time (sec): 1.000000E-2
Scans to average: 100
Electric dark correction enabled: true
Nonlinearity correction enabled: false
Boxcar width: 0
XAxis mode: Wavelengths
Number of Pixels in Spectrum: 2048
>>>>>Begin Spectral Data<<<<<
189.047	31.41
189.435	31.41
189.823	31.41
190.211	428.65
190.599	24.6
190.987	104.4
191.375	62.27
191.763	292.94
192.151	42.74
192.538	-27.9
192.926	49.5
193.314	-737.2
193.702	107.68
194.089	3.19
194.477	-134.16
194.864	-64.93
195.252	187.43
195.639	-201.51
196.027	-133.67
196.414	-35.42
196.801	276.55
197.189	-4680.56
197.576	-8.85
197.963	-261.75
198.351	-111.77
198.738	26.37
199.125	27.94
199.512	-72.34
199.899	30.61
200.286	-46.22
200.673	8.32
201.06	17.54
201.447	82.72
201.833	64.38
202.22	27.53
202.607	42.27
202.994	71.12
203.38	54.73
203.767	0.47
204.154	50.98
204.54	-7.21
204.927	24.24
205.313	49.19
205.699	21.67
206.086	36.31
206.472	29.53
206.858	46.65
207.245	-3.46
207.631	21.75
208.017	2.75
208.403	5.25
208.789	17.73
209.175	21.71
209.561	-73.6
209.947	-58.46
210.333	39.45
210.719	22.89
211.105	12.58
211.491	17.48
211.876	6.43
212.262	80.98
212.648	-16.07
213.034	45.28
213.419	-0.85
213.805	-24.43
214.19	-22.79
214.576	10.87
214.961	32.4
215.346	13.21
215.732	34.37
216.117	8.59
216.502	13.88
216.888	-12.91
217.273	3.25
217.658	17.98
218.043	-21.92
218.428	7.49
218.813	22.79
219.198	18.33
219.583	6.86
219.968	23.41
220.353	-16.41
220.738	-26.82
221.122	-9.11
221.507	19.38
221.892	-9.65
222.276	14.61
222.661	10.61
223.046	5.54
223.43	1.29
223.815	-4.05
224.199	3.86
224.583	0.2
224.968	-1.31
225.352	2.42
225.736	4.97
226.121	-9.28
226.505	6.83
226.889	6.53
227.273	5.07
227.657	4.49
228.041	1.87
228.425	4
228.809	5.44
229.193	3.45
229.577	4.05
229.961	4.69
230.344	5.26
230.728	3.81
231.112	3.85
231.495	4.19
231.879	4.58
232.263	3.99
232.646	2.56
233.03	2.66
233.413	3.17
233.797	2.97
234.18	4.24
234.563	6.41
234.946	3.81
235.33	5.48
235.713	4.22
236.096	4.66
236.479	4.96
236.862	3.85
237.245	3.23
237.628	3.58
238.011	2.94
238.394	5.81
238.777	6.15
239.16	4.6
239.543	3.7
239.925	4.53
240.308	5.87
240.691	3.4
241.073	3.93
241.456	5.07
241.838	2.56
242.221	3.94
242.603	3.59
242.986	3.71
243.368	4.83
243.75	4.12
244.133	4.11
244.515	4.15
244.897	4.05
245.279	4.38
245.661	4.43
246.043	4.69
246.425	3.27
246.807	4.82
247.189	3.34
247.571	4.46
247.953	3.98
248.335	4.17
248.717	3.88
249.098	3.85
249.48	4.03
249.862	4.33
250.243	4.19
250.625	3.58
251.006	4.11
251.388	4.06
251.769	5.09
252.151	5.15
252.532	3.68
252.913	4.31
253.295	3.97
253.676	4.21
254.057	3.83
254.438	4.04
254.819	4.17
255.2	3.64
255.581	4.86
255.962	4.22
256.343	3.37
256.724	4.94
257.105	3.25
257.486	4.65
257.867	6.19
258.247	4.66
258.628	3.6
259.009	4.02
259.389	4.55
259.77	4.45
260.15	4.21
260.531	3.94
260.911	3.81
261.292	3.86
261.672	3.81
262.052	3.79
262.432	4.09
262.813	3.82
263.193	3.34
263.573	3.81
263.953	4.29
264.333	4.21
264.713	4.7
265.093	4.09
265.473	4.04
265.853	2.87
266.233	4.49
266.612	4.05
266.992	4.17
267.372	3.45
267.752	4.23
268.131	4.11
268.511	3.78
268.89	4.44
269.27	3.72
269.649	3.84
270.029	3.47
270.408	4.16
270.787	3.53
271.167	3.9
271.546	4.41
271.925	4.43
272.304	3.37
272.683	3.53
273.062	3.85
273.441	4.03
273.82	3.32
274.199	4.47
274.578	3.48
274.957	3.49
275.336	3.57
275.715	3.52
276.093	3.93
276.472	3.63
276.851	3.95
277.229	3.49
277.608	3.74
277.986	4.14
278.365	4.21
278.743	4.05
279.122	4.08
279.5	3.87
279.878	4.4
280.257	3.84
280.635	3.55
281.013	3.62
281.391	4.25
281.769	3.91
282.147	3.57
282.525	4.2
282.903	4.07
283.281	4.25
283.659	3.94
284.037	3.76
284.415	3.61
284.792	3.97
285.17	3.87
285.548	4.34
285.925	4.26
286.303	3.93
286.68	3.84
287.058	4.15
287.435	3.55
287.813	3.7
288.19	3.78
288.567	3.98
288.945	4.19
289.322	3.97
289.699	4.3
290.076	4.27
290.453	4.18
290.83	4.17
291.207	4.39
291.584	4.18
291.961	4.15
292.338	4.53
292.715	4.49
293.092	4.94
293.469	4.59
293.845	4.35
294.222	4.73
294.599	4.59
294.975	4.68
295.352	4.39
295.728	4.64
296.105	4.83
296.481	4.62
296.858	4.85
297.234	5.38
297.61	5.38
297.986	4.76
298.363	4.49
298.739	4.72
299.115	4.71
299.491	4.94
299.867	4.68
300.243	4.73
300.619	4.68
300.995	4.9
301.371	5.61
301.746	4.75
302.122	5.11
302.498	5.18
302.874	5.19
303.249	4.46
303.625	5.03
304	5.6
304.376	4.9
304.751	5.36
305.127	4.75
305.502	5.46
305.878	5.6
306.253	5.43
306.628	5.26
307.003	5.27
307.378	5.61
307.754	5.61
308.129	5.49
308.504	5.38
308.879	6.15
309.254	5.78
309.629	5.78
310.003	5.7
310.378	6
310.753	6.06
311.128	5.42
311.502	5.43
311.877	5.66
312.252	5.42
312.626	5.99
313.001	5.98
313.375	5.73
313.75	5.86
314.124	5.84
314.498	6.09
314.873	6.6
315.247	6.4
315.621	6.15
315.995	6.23
316.369	5.7
316.743	6.67
317.117	6.68
317.491	6.62
317.865	6.08
318.239	6.8
318.613	6.5
318.987	6.87
319.361	6.77
319.734	6.62
320.108	6.88
320.482	5.93
320.855	7.12
321.229	6.83
321.602	6.96
321.976	6.54
322.349	7.13
322.723	7.12
323.096	6.95
323.469	6.65
323.843	7.15
324.216	7.23
324.589	7.04
324.962	7.47
325.335	7.47
325.708	6.97
326.081	6.9
326.454	7.3
326.827	7.4
327.2	7.19
327.573	7.2
327.945	7.3
328.318	7.16
328.691	7.38
329.063	7.17
329.436	7.16
329.809	6.96
330.181	7.59
330.553	7.27
330.926	7.34
331.298	7.77
331.671	7.63
332.043	7.96
332.415	7.48
332.787	7.29
333.159	6.96
333.532	7.48
333.904	7.79
334.276	8.14
334.648	8.01
335.02	7.08
335.391	7.79
335.763	7.99
336.135	8
336.507	8.11
336.879	8
337.25	8.11
337.622	8.06
337.993	8.43
338.365	7.56
338.736	8.82
339.108	8.45
339.479	7.73
339.851	7.45
340.222	7.88
340.593	8.33
340.964	8.51
341.336	7.9
341.707	8.29
342.078	8.44
342.449	7.85
342.82	8.52
343.191	8.06
343.562	8.57
343.933	8.54
344.303	8.86
344.674	8.74
345.045	8.02
345.416	8.35
345.786	8.47
346.157	8.83
346.527	8.81
346.898	8.85
347.268	8.39
347.639	8.5
348.009	9.11
348.38	8.69
348.75	8.5
349.12	8.73
349.49	9.35
349.861	8.62
350.231	9.17
350.601	8.98
350.971	8.98
351.341	8.68
351.711	8.62
352.081	8.98
352.45	9.09
352.82	9.39
353.19	9.3
353.56	9.53
353.929	9.13
354.299	9.75
354.669	9.5
355.038	9.59
355.408	9.33
355.777	9.37
356.147	9.19
356.516	9.2
356.885	9.29
357.254	9.3
357.624	9.48
357.993	9.37
358.362	9.37
358.731	9.6
359.1	9.54
359.469	9.77
359.838	9.78
360.207	9.42
360.576	9.83
360.945	9.79
361.314	10.03
361.682	9.76
362.051	9.87
362.42	9.89
362.788	9.63
363.157	9.93
363.525	9.89
363.894	9.9
364.262	9.96
364.631	10
364.999	9.85
365.367	9.78
365.735	10.46
366.104	9.82
366.472	10.33
366.84	9.76
367.208	10.34
367.576	10.4
367.944	10.48
368.312	10.29
368.68	10.22
369.048	10.3
369.416	10.5
369.783	10.16
370.151	10.26
370.519	10.88
370.886	10.48
371.254	10.82
371.621	10.63
371.989	10.84
372.356	10.85
372.724	10.53
373.091	10.86
373.458	10.42
373.826	10.65
374.193	10.58
374.56	10.58
374.927	10.91
375.294	10.7
375.661	10.97
376.028	10.81
376.395	11.13
376.762	10.96
377.129	11.16
377.496	11.42
377.863	11.25
378.229	10.84
378.596	10.74
378.963	10.96
379.329	11.02
379.696	11.08
380.062	11.44
380.429	11.24
380.795	11.21
381.161	11.32
381.528	11.68
381.894	11.32
382.26	11.17
382.626	11.41
382.993	11.74
383.359	11.45
383.725	11.5
384.091	11.61
384.457	11.58
384.823	11.55
385.188	11.88
385.554	11.45
385.92	11.2
386.286	11.96
386.651	11.8
387.017	11.72
387.383	11.95
387.748	11.75
388.114	11.67
388.479	12.23
388.845	11.87
389.21	12.25
389.575	12.25
389.94	12.32
390.306	12
390.671	12.33
391.036	11.83
391.401	12.37
391.766	12.22
392.131	12.18
392.496	12.41
392.861	12.39
393.226	12.44
393.591	12.42
393.956	12.32
394.32	12.5
394.685	12.45
395.05	12.57
395.414	12.61
395.779	12.62
396.143	12.61
396.508	12.57
396.872	12.5
397.236	12.86
397.601	12.76
397.965	12.9
398.329	12.5
398.694	12.85
399.058	13.09
399.422	12.85
399.786	12.92
400.15	12.86
400.514	12.83
400.878	13.16
401.242	13.3
401.605	13.03
401.969	13.27
402.333	13.14
402.697	13.3
403.06	13.26
403.424	13.22
403.787	13.16
404.151	13.33
404.514	13.46
404.878	13.51
405.241	13.54
405.604	13.3
405.968	13.15
406.331	13.3
406.694	13.36
407.057	13.54
407.42	13.4
407.783	13.42
408.146	13.57
408.509	13.72
408.872	13.65
409.235	13.78
409.598	14.19
409.961	13.76
410.323	13.94
410.686	13.98
411.049	14.06
411.411	13.99
411.774	13.93
412.136	14.16
412.499	14.11
412.861	14.18
413.223	14.16
413.586	14.07
413.948	14.27
414.31	14.16
414.672	14.48
415.035	14.3
415.397	14.35
415.759	14.43
416.121	14.33
416.483	14.47
416.845	14.52
417.206	14.25
417.568	14.33
417.93	14.48
418.292	14.41
418.653	14.55
419.015	14.33
419.377	14.47
419.738	14.38
420.1	14.6
420.461	14.56
420.822	14.45
421.184	14.5
421.545	14.41
421.906	14.57
422.267	14.55
422.629	14.55
422.99	14.35
423.351	14.47
423.712	14.61
424.073	14.72
424.434	14.73
424.795	14.73
425.155	15.05
425.516	14.85
425.877	14.73
426.238	14.68
426.598	14.85
426.959	14.83
427.32	14.92
427.68	14.86
428.041	15.22
428.401	15.4
428.761	15.36
429.122	15.3
429.482	15.62
429.842	15.31
430.202	15.67
430.563	15.56
430.923	15.8
431.283	15.34
431.643	15.82
432.003	15.91
432.363	15.76
432.722	15.8
433.082	15.9
433.442	16.01
433.802	15.77
434.161	15.91
434.521	15.72
434.881	15.96
435.24	15.76
435.6	16.12
435.959	15.77
436.319	16.09
436.678	16.15
437.037	16.18
437.396	16.36
437.756	16.14
438.115	16.06
438.474	16.25
438.833	16.42
439.192	16.2
439.551	16.45
439.91	16.53
440.269	16.35
440.628	16.3
440.987	16.5
441.345	16.36
441.704	16.39
442.063	16.31
442.421	16.55
442.78	16.46
443.138	16.47
443.497	16.42
443.855	16.54
444.214	16.92
444.572	16.83
444.93	16.9
445.288	17.02
445.647	16.96
446.005	16.99
446.363	16.88
446.721	16.82
447.079	16.96
447.437	16.85
447.795	16.78
448.153	16.86
448.51	16.88
448.868	16.84
449.226	16.87
449.584	17
449.941	17.09
450.299	17.13
450.656	17.31
451.014	17.34
451.371	17.48
451.729	17.61
452.086	17.56
452.443	17.7
452.801	17.8
453.158	17.84
453.515	17.72
453.872	17.55
454.229	17.78
454.586	17.7
454.943	17.96
455.3	17.8
455.657	17.87
456.014	17.84
456.371	18.1
456.727	17.98
457.084	18.16
457.441	18
457.797	18.28
458.154	18.21
458.51	18.29
458.867	18.1
459.223	18.34
459.58	18.44
459.936	18.32
460.292	18.3
460.648	18.26
461.005	18.4
461.361	18.18
461.717	18.09
462.073	18.23
462.429	18.2
462.785	18.43
463.141	18.48
463.496	18.6
463.852	18.87
464.208	18.91
464.564	18.8
464.919	19.1
465.275	19.09
465.631	19.07
465.986	19.12
466.342	19.1
466.697	19.19
467.052	19.04
467.408	19.28
467.763	19.31
468.118	19.35
468.473	19.39
468.829	19.03
469.184	19.32
469.539	19.31
469.894	19.6
470.249	19.55
470.603	19.7
470.958	19.57
471.313	19.51
471.668	19.59
472.023	19.67
472.377	19.66
472.732	19.73
473.086	19.71
473.441	19.98
473.795	20.06
474.15	19.96
474.504	20.01
474.859	19.83
475.213	19.95
475.567	19.87
475.921	20.19
476.275	20.18
476.63	20.13
476.984	20.2
477.338	20.24
477.692	20.38
478.045	20.23
478.399	20.27
478.753	20.28
479.107	20.43
479.461	20.32
479.814	20.55
480.168	20.44
480.521	20.37
480.875	20.38
481.228	20.39
481.582	20.63
481.935	20.79
482.289	20.65
482.642	20.79
482.995	20.64
483.348	20.55
483.701	20.59
484.055	20.49
484.408	20.6
484.761	20.35
485.114	20.09
485.466	19.94
485.819	19.89
486.172	19.91
486.525	20.13
486.878	20.3
487.23	20.54
487.583	20.58
487.936	20.88
488.288	20.69
488.641	20.7
488.993	20.42
489.345	20.41
489.698	20.41
490.05	20.54
490.402	20.56
490.754	20.8
491.107	20.96
491.459	21.31
491.811	21.37
492.163	21.53
492.515	21.49
492.866	21.29
493.218	21.01
493.57	20.88
493.922	20.99
494.274	21.18
494.625	21.4
494.977	21.72
495.328	21.91
495.68	22.02
496.031	22.18
496.383	22.35
496.734	22.18
497.086	22.47
497.437	22.49
497.788	22.4
498.139	22.28
498.49	22.16
498.842	22.28
499.193	22.29
499.544	22.4
499.894	22.42
500.245	22.52
500.596	22.7
500.947	22.63
501.298	22.78
501.648	22.8
501.999	23.06
502.35	23
502.7	23.06
503.051	23.07
503.401	22.99
503.752	23.28
504.102	23.29
504.452	23.4
504.803	23.21
505.153	23.37
505.503	23.37
505.853	23.4
506.203	23.28
506.553	23.4
506.903	23.55
507.253	23.64
507.603	23.54
507.953	23.7
508.303	23.79
508.652	23.87
509.002	23.76
509.352	23.9
509.701	23.65
510.051	23.81
510.4	23.75
510.75	23.76
511.099	23.8
511.449	23.91
511.798	23.88
512.147	24.02
512.496	23.99
512.846	24.1
513.195	24.14
513.544	24.18
513.893	24.39
514.242	24.3
514.591	24.28
514.939	24.29
515.288	24.44
515.637	24.59
515.986	24.65
516.334	24.58
516.683	24.87
517.032	24.89
517.38	24.93
517.729	24.95
518.077	25.15
518.426	25.08
518.774	24.97
519.122	24.95
519.47	24.78
519.819	24.83
520.167	24.72
520.515	24.73
520.863	24.8
521.211	24.86
521.559	25.08
521.907	25.16
522.255	25.32
522.602	25.29
522.95	25.46
523.298	25.57
523.645	25.75
523.993	25.67
524.341	25.81
524.688	25.89
525.036	25.75
525.383	25.97
525.73	25.9
526.078	25.84
526.425	25.93
526.772	25.67
527.119	25.7
527.466	25.63
527.814	25.57
528.161	25.49
528.508	25.74
528.854	25.86
529.201	25.8
529.548	25.62
529.895	25.63
530.242	25.3
530.588	25.31
530.935	25.41
531.282	25.57
531.628	25.76
531.975	25.91
532.321	26.16
532.667	26.29
533.014	26.4
533.36	26.46
533.706	26.44
534.052	26.57
534.399	26.49
534.745	26.38
535.091	26.11
535.437	26.16
535.783	26.3
536.129	26.57
536.474	26.82
536.82	26.94
537.166	27.09
537.512	27.27
537.857	26.97
538.203	27.09
538.549	26.92
538.894	27.09
539.239	27.17
539.585	27.33
539.93	27.62
540.276	27.74
540.621	27.75
540.966	27.95
541.311	27.85
541.656	27.95
542.001	27.91
542.346	27.77
542.691	27.57
543.036	27.31
543.381	27.29
543.726	27.32
544.071	27.46
544.415	27.63
544.76	27.72
545.105	27.9
545.449	27.97
545.794	28.07
546.138	28.17
546.483	28.38
546.827	28.57
547.171	28.58
547.516	28.56
547.86	28.68
548.204	28.7
548.548	28.73
548.892	28.61
549.236	28.83
549.58	28.93
549.924	29.03
550.268	29.36
550.612	29.2
550.956	29.48
551.3	29.65
551.643	29.68
551.987	29.69
552.33	29.74
552.674	29.67
553.017	29.94
553.361	30.01
553.704	29.88
554.048	29.9
554.391	29.85
554.734	29.79
555.077	29.97
555.42	29.98
555.764	30.23
556.107	30.26
556.45	30.25
556.793	30.45
557.135	30.41
557.478	30.62
557.821	30.84
558.164	30.64
558.507	30.51
558.849	30.6
559.192	30.88
559.534	30.74
559.877	30.91
560.219	30.74
560.562	30.87
560.904	30.97
561.246	31.05
561.589	31.19
561.931	31.19
562.273	31.18
562.615	31.28
562.957	31.25
563.299	31.59
563.641	31.46
563.983	31.45
564.325	31.53
564.667	31.76
565.008	31.7
565.35	31.55
565.692	31.66
566.033	31.61
566.375	31.88
566.716	31.95
567.058	31.96
567.399	31.98
567.741	32.05
568.082	31.78
568.423	31.97
568.764	31.75
569.105	31.92
569.447	32.29
569.788	32.25
570.129	32.39
570.47	32.35
570.811	32.4
571.151	32.44
571.492	32.59
571.833	32.52
572.174	32.6
572.514	32.65
572.855	32.61
573.195	32.66
573.536	32.58
573.876	32.57
574.217	32.76
574.557	32.55
574.898	33.02
575.238	33.03
575.578	33.05
575.918	33.04
576.258	33.02
576.598	33.29
576.938	33.24
577.278	33.1
577.618	33.12
577.958	33.38
578.298	33.64
578.638	33.31
578.977	33.48
579.317	33.77
579.657	33.6
579.996	33.82
580.336	33.7
580.675	33.79
581.014	34.28
581.354	34.24
581.693	34.18
582.032	34.19
582.372	34.33
582.711	34.49
583.05	34.66
583.389	34.47
583.728	34.36
584.067	34.65
584.406	34.67
584.745	34.75
585.083	34.75
585.422	34.84
585.761	34.63
586.1	34.77
586.438	34.8
586.777	35.13
587.115	35.26
587.454	35.1
587.792	35.49
588.13	34.97
588.469	35.24
588.807	35.24
589.145	35.42
589.483	35.28
589.821	35.38
590.159	35.11
590.497	35.5
590.835	35.33
591.173	35.47
591.511	35.82
591.849	35.88
592.187	35.72
592.524	35.49
592.862	35.77
593.2	35.85
593.537	35.89
593.875	35.95
594.212	36.08
594.55	36.3
594.887	36.57
595.224	36.51
595.561	36.16
595.899	36.36
596.236	36.65
596.573	36.51
596.91	36.4
597.247	36.08
597.584	36.54
597.921	36.61
598.258	36.18
598.594	35.92
598.931	36.38
599.268	36.49
599.604	36.33
599.941	36.48
600.277	36.56
600.614	36.72
600.95	36.82
601.287	36.92
601.623	36.97
601.959	37.21
602.296	37.26
602.632	37.39
602.968	37.28
603.304	37.34
603.64	37.32
603.976	37.18
604.312	37.53
604.648	37.36
604.984	37.32
605.319	37.39
605.655	37.48
605.991	37.68
606.326	37.23
606.662	37.3
606.998	37.3
607.333	37.23
607.668	37.45
608.004	37.79
608.339	37.77
608.674	38.21
609.01	38.11
609.345	38.03
609.68	38.43
610.015	38.21
610.35	38.08
610.685	38.06
611.02	38.29
611.355	38.17
611.689	38.02
612.024	38.07
612.359	38.3
612.694	38.28
613.028	38.43
613.363	38.34
613.697	38.74
614.032	38.81
614.366	38.93
614.7	38.78
615.035	38.58
615.369	39.23
615.703	39.38
616.037	39.55
616.371	39.39
616.705	39.07
617.039	39.52
617.373	39.4
617.707	39.47
618.041	39.67
618.375	39.55
618.709	40.12
619.042	40.11
619.376	39.89
619.71	39.99
620.043	39.81
620.377	39.73
620.71	39.47
621.043	39.74
621.377	39.91
621.71	39.98
622.043	39.98
622.376	39.73
622.709	40.26
623.043	40.38
623.376	40.22
623.709	40.03
624.041	40.32
624.374	40.18
624.707	40.03
625.04	40.33
625.373	40.21
625.705	40.09
626.038	39.89
626.37	40.34
626.703	40.37
627.035	40.97
627.368	40.93
627.7	40.22
628.032	40.63
628.365	40.4
628.697	40.69
629.029	40.76
629.361	40.11
629.693	40.95
630.025	40.9
630.357	40.82
630.689	40.72
631.021	40.67
631.353	40.86
631.684	41.01
632.016	41.27
632.348	41.11
632.679	41.35
633.011	41.22
633.342	41.77
633.674	41.69
634.005	41.4
634.336	41.42
634.668	41.67
634.999	41.98
635.33	41.5
635.661	41.34
635.992	41.7
636.323	41.84
636.654	41.81
636.985	41.95
637.316	41.98
637.647	42.2
637.977	42.1
638.308	42.05
638.639	41.94
638.969	41.69
639.3	42.04
639.63	42.53
639.961	42.53
640.291	42.16
640.622	42.82
640.952	42.69
641.282	42.48
641.612	42.31
641.943	42.46
642.273	42.56
642.603	42.19
642.933	42.8
643.263	42.45
643.592	42.87
643.922	43.46
644.252	42.58
644.582	42.94
644.911	42.94
645.241	43.5
645.571	42.98
645.9	43.67
646.23	43.07
646.559	43.33
646.888	43.28
647.218	43.27
647.547	43.43
647.876	43.38
648.205	43.57
648.534	43.37
648.863	43.69
649.192	43.41
649.521	44.01
649.85	43.56
650.179	43.54
650.508	43.49
650.837	43.74
651.165	43.73
651.494	43.59
651.822	43.63
652.151	43.8
652.479	43.7
652.808	43.72
653.136	43.56
653.465	43.51
653.793	44.22
654.121	43.42
654.449	43.87
654.777	43.72
655.105	44.36
655.433	44.56
655.761	44.34
656.089	44.2
656.417	44.56
656.745	44.15
657.073	44.15
657.4	44.45
657.728	44.39
658.056	44.12
658.383	44.94
658.711	44.57
659.038	44.26
659.365	44.98
659.693	44.38
660.02	45.14
660.347	44.25
660.674	44.63
661.001	44.91
661.329	44.92
661.656	44.79
661.982	44.46
662.309	44.84
662.636	45.2
662.963	45.15
663.29	45.11
663.616	45.35
663.943	45.61
664.27	45.23
664.596	45.3
664.923	45.6
665.249	45.44
665.576	45.57
665.902	45.46
666.228	45.49
666.554	45.59
666.881	44.82
667.207	45.74
667.533	45.61
667.859	45.69
668.185	46.26
668.511	45.77
668.837	45.55
669.162	45.46
669.488	45.23
669.814	45.73
670.139	45.5
670.465	46.48
670.791	46.21
671.116	46.05
671.442	46.24
671.767	45.45
672.092	46.47
672.418	46.72
672.743	46.9
673.068	46.15
673.393	46.92
673.718	46.61
674.043	46.37
674.368	45.86
674.693	46.52
675.018	46.17
675.343	46.24
675.667	46.37
675.992	46.68
676.317	47.17
676.641	46.36
676.966	46.59
677.29	46.66
677.615	46.42
677.939	46.4
678.264	46.7
678.588	46.91
678.912	47.35
679.236	47.21
679.56	46.33
679.885	47.23
680.209	46.39
680.532	47.88
680.856	46.97
681.18	47.02
681.504	46.35
681.828	46.54
682.152	47.29
682.475	46.96
682.799	47.57
683.122	47.66
683.446	47.18
683.769	47.36
684.093	47.76
684.416	46.74
684.739	47.48
685.062	47.29
685.386	47.61
685.709	47.48
686.032	47.94
686.355	48.78
686.678	47.48
687.001	48.39
687.324	48.45
687.646	48.94
687.969	47.53
688.292	48.13
688.614	47.44
688.937	48.7
689.26	47.71
689.582	47.93
689.904	47.32
690.227	48.46
690.549	48.79
690.871	47.97
691.194	48.29
691.516	48.39
691.838	47.75
692.16	47.75
692.482	48.69
692.804	48.23
693.126	48.13
693.448	47.45
693.769	48.03
694.091	48.37
694.413	48.25
694.735	48.41
695.056	47.9
695.378	48.31
695.699	49.07
696.021	48.48
696.342	48.08
696.663	48.89
696.984	49.01
697.306	48.55
697.627	49.23
697.948	48.33
698.269	48.79
698.59	48.77
698.911	48.4
699.232	48.58
699.553	49.46
699.873	48.7
700.194	48.8
700.515	48.25
700.835	48.59
701.156	48.85
701.477	49.18
701.797	49.04
702.117	49.22
702.438	49.23
702.758	49.06
703.078	49.02
703.398	49.03
703.719	49.05
704.039	48.79
704.359	48.87
704.679	48.61
704.999	49.79
705.319	49.72
705.638	49.42
705.958	50.5
706.278	49.86
706.597	49.84
706.917	50.22
707.237	49.96
707.556	50.42
707.876	49.83
708.195	49.89
708.514	49.68
708.834	49.82
709.153	49.08
709.472	50.09
709.791	49.63
710.11	51
710.429	50.29
710.748	50.58
711.067	49.69
711.386	49.46
711.705	48.73
712.023	50.95
712.342	50.25
712.661	50.62
712.979	51.6
713.298	49.4
713.616	49.91
713.935	49.8
714.253	49.91
714.572	49.37
714.89	50.46
715.208	51.23
715.526	50.49
715.844	50.31
716.162	50.51
716.48	50.8
716.798	51.26
717.116	51.47
717.434	51.18
717.752	51.06
718.069	51.04
718.387	51.08
718.705	50.77
719.022	50.71
719.34	51.54
719.657	50.79
719.975	51.3
720.292	51.46
720.609	51.39
720.927	51.5
721.244	49.4
721.561	50.47
721.878	50.72
722.195	52
722.512	51.11
722.829	51.94
723.146	50.34
723.463	51.99
723.779	51.54
724.096	51.4
724.413	52.42
724.729	51.51
725.046	52.55
725.362	52.86
725.679	52.18
725.995	50.52
726.311	51.93
726.628	51.44
726.944	52.43
727.26	51.5
727.576	52.47
727.892	52.31
728.208	52.4
728.524	52.03
728.84	51.1
729.156	52.06
729.472	51.54
729.787	52.17
730.103	51.32
730.419	52.82
730.734	51.15
731.05	52.04
731.365	51.21
731.681	52.99
731.996	52.87
732.311	51.49
732.626	51.89
732.942	53.18
733.257	51.89
733.572	53.22
733.887	50.59
734.202	52.35
734.517	52.37
734.832	52.85
735.146	52.44
735.461	52.43
735.776	51.57
736.091	52.04
736.405	52.93
736.72	52.26
737.034	52.71
737.349	51.38
737.663	52.14
737.977	52.45
738.292	53.11
738.606	51.52
738.92	52.04
739.234	52.88
739.548	52.4
739.862	53.71
740.176	51.15
740.49	51.62
740.804	51.97
741.117	52.74
741.431	53.01
741.745	53.93
742.058	53.82
742.372	52.88
742.685	53.67
742.999	52.09
743.312	54.16
743.626	52.45
743.939	53.56
744.252	53.29
744.565	51.98
744.878	53.01
745.191	51.64
745.505	51.48
745.817	52.45
746.13	53.04
746.443	52.42
746.756	54.32
747.069	53.31
747.381	54.58
747.694	55.07
748.007	54.82
748.319	52.8
748.632	55.36
748.944	54.58
749.256	55.76
749.569	53.01
749.881	55.54
750.193	52.91
750.505	53.81
750.817	54.84
751.129	54.06
751.441	53.4
751.753	52.66
752.065	55.57
752.377	51.81
752.689	55.62
753	52.17
753.312	54.63
753.624	54.2
753.935	53.87
754.247	55.49
754.558	53.33
754.869	55.08
755.181	53.66
755.492	53.19
755.803	54.37
756.114	53.51
756.425	54.62
756.736	53.13
757.047	54.35
757.358	54.85
757.669	54.48
757.98	53.99
758.291	55.12
758.601	53.95
758.912	53.34
759.223	54.73
759.533	55.07
759.844	53.95
760.154	55.1
760.464	56.53
760.775	54.92
761.085	54.91
761.395	54.11
761.705	57.19
762.016	55.61
762.326	56.53
762.636	56.11
762.945	57.17
763.255	55.31
763.565	55.99
763.875	54.67
764.185	53.56
764.494	53.85
764.804	55.84
765.113	54.99
765.423	55.46
765.732	55.17
766.042	54.59
766.351	54.62
766.66	55.64
766.97	53.97
767.279	55.31
767.588	55.49
767.897	53.79
768.206	56.05
768.515	56.48
768.824	53.28
769.133	54.5
769.441	54.71
769.75	53.86
770.059	55.73
770.367	54.53
770.676	55.4
770.984	55.19
771.293	54.42
771.601	56.75
771.91	56
772.218	52.29
772.526	58
772.834	57.59
773.142	56.25
773.45	55.09
773.758	54.07
774.066	57.05
774.374	55.97
774.682	55.03
774.99	54.34
775.298	53.33
775.605	55.16
775.913	53.73
776.22	55.74
776.528	60.35
776.835	56.7
777.143	54.77
777.45	55.23
777.757	56.06
778.065	52.55
778.372	54.78
778.679	55.58
778.986	54.67
779.293	54.49
779.6	52.49
779.907	57.34
780.214	55.82
780.52	55.08
780.827	52.9
781.134	55.49
781.44	57.98
781.747	54.95
782.053	55.57
782.36	52.9
782.666	53.3
782.973	58.06
783.279	57.16
783.585	51.89
783.891	56.31
784.197	51.65
784.503	56.48
784.809	56.11
785.115	58.24
785.421	57.3
785.727	57.73
786.033	54.26
786.339	59.05
786.644	52.74
786.95	60.09
787.255	56.41
787.561	56.84
787.866	57.46
788.172	57.86
788.477	56.46
788.782	56.41
789.088	60.35
789.393	56.33
789.698	58.61
790.003	56.75
790.308	59.29
790.613	53.81
790.918	55.12
791.223	61.08
791.527	60.09
791.832	58.09
792.137	55.83
792.441	57.62
792.746	57.56
793.05	59.91
793.355	56.12
793.659	57.55
793.963	54.68
794.268	57.51
794.572	62.04
794.876	57.2
795.18	57.2
795.484	54.05
795.788	55.65
796.092	55.37
796.396	55.67
796.7	54.41
797.004	61.57
797.307	60.51
797.611	58.99
797.915	60.09
798.218	55.78
798.522	58.72
798.825	56.05
799.128	55.35
799.432	57.09
799.735	58.24
800.038	61.61
800.341	57.89
800.644	55.9
800.947	58.13
801.25	59.39
801.553	56.01
801.856	52.64
802.159	57.48
802.462	61.12
802.764	55.57
803.067	56.89
803.37	58.91
803.672	59.79
803.975	59.51
804.277	54.83
804.579	54.04
804.882	53.09
805.184	56.09
805.486	58
805.788	60.83
806.09	52.63
806.392	57.45
806.694	54.45
806.996	58.63
807.298	55.96
807.6	59.98
807.902	62.29
808.203	55.23
808.505	56.77
808.807	63.32
809.108	60.45
809.409	61.69
809.711	60.64
810.012	56.13
810.313	62.23
810.615	56.45
810.916	58.06
811.217	56.83
811.518	56.55
811.819	59.74
812.12	55.12
812.421	57.37
812.722	57.95
813.023	62.63
813.323	59.66
813.624	61.42
813.925	53.09
814.225	58.14
814.526	54.21
814.826	55.68
815.126	59.19
815.427	55.21
815.727	58.29
816.027	51.94
816.327	61.31
816.627	52.87
816.927	55.77
817.227	62.18
817.527	51.71
817.827	56.06
818.127	61.44
818.427	55.54
818.727	62.87
819.026	60.54
819.326	57.22
819.625	61.38
819.925	57.02
820.224	57.34
820.524	62.32
820.823	57.81
821.122	57.29
821.421	52.19
821.72	60.58
822.019	59.93
822.318	60.9
822.617	59.83
822.916	60.35
823.215	59.7
823.514	58.23
823.813	56.54
824.111	61.24
824.41	60.71
824.709	60.74
825.007	58.09
825.306	59.75
825.604	58.55
825.902	58.68
826.201	59.14
826.499	58.29
826.797	58.68
827.095	58.76
827.393	59.13
827.691	57.47
827.989	58.86
828.287	58.69
828.585	59.07
828.882	60.81
829.18	57.91
829.478	57.77
829.775	57.91
830.073	60.62
830.37	60.23
830.668	60
830.965	59.1
831.263	59.34
831.56	59.27
831.857	54.41
832.154	59.64
832.451	61.22
832.748	61.74
833.045	61.14
833.342	58.44
833.639	58.88
833.936	61.88
834.232	58.28
834.529	58.09
834.826	60.45
835.122	60.56
835.419	56.67
835.715	59.4
836.012	61.21
836.308	54.3
836.604	61.39
836.901	59.9
837.197	58.61
837.493	62.28
837.789	61.92
838.085	59.06
838.381	56.42
838.677	59.39
838.972	58.38
839.268	57.94
839.564	60.65
839.86	56.33
840.155	59.33
840.451	58.59
840.746	58.4
841.042	60.71
841.337	57.12
841.632	63.51
841.928	65.52
842.223	55.46
842.518	59.47
842.813	56.21
843.108	56.01
843.403	63.69
843.698	55.92
843.993	61.96
844.287	54.05
844.582	69.45
844.877	56.15
845.171	56.7
845.466	49.8
845.761	54.18
846.055	55.35
846.349	50.89
846.644	58.84
846.938	62.08
847.232	46.2
847.526	66.34
847.82	59.5
848.114	58.64
848.408	66.17
848.702	48.85
848.996	57.77
849.29	64.26
849.584	63.32
849.877	55.91
850.171	53.85
850.465	66.69
850.758	60.06
851.052	64.53
851.345	64.76
851.638	56.1
851.932	57.23
852.225	57.02
852.518	62.96
852.811	59.36
853.104	75.82
853.397	44.72
853.69	54.95
853.983	47.85
854.276	67.8
854.569	53.6
854.861	55.11
855.154	43.63
855.447	52.99
855.739	65.63
856.032	64.95
856.324	78.2
856.616	50.76
856.909	68.58
857.201	58.92
857.493	72.52
857.785	53.7
858.077	45.46
858.369	40.09
858.661	40.4
858.953	46.19
859.245	51.1
859.537	55.66
859.829	62.36
860.12	45.43
860.412	35.05
860.703	58.25
860.995	43.01
861.286	50.16
861.578	60.87
861.869	51.54
862.16	74.94
862.452	54.18
862.743	56.75
863.034	44.43
863.325	40.13
863.616	57.69
863.907	40.63
864.198	55.73
864.488	40.09
864.779	51.5
865.07	60.46
865.36	61.02
865.651	65.87
865.941	56.61
866.232	31.36
866.522	61.33
866.813	61.84
867.103	82.03
867.393	63.49
867.683	73.45
867.973	80.8
868.263	67.95
868.553	59.85
868.843	50.99
869.133	78.39
869.423	50.91
869.713	52.4
870.002	69.44
870.292	13.14
870.582	55.16
870.871	24.31
871.161	64.58
871.45	88.51
871.739	47.61
872.029	49.15
872.318	61.19
872.607	54.02
872.896	53.27
873.185	49.24
873.474	67.87
873.763	74.26
874.052	52.89
874.341	51.82
874.63	59.34
874.918	73.33
875.207	85.74
875.496	42.59
875.784	50.76
876.073	41.46
876.361	57.26
876.649	40.92
876.938	59
877.226	57.95
877.514	57.23
877.802	61.01
878.09	69.12
878.378	44.44
878.666	69.11
878.954	72.59
879.242	59.43
879.53	47.84
879.817	91.68
880.105	47.26
880.392	48.45
880.68	41.95
880.967	72.2
881.255	68.73
881.542	95.77
881.83	80.19
882.117	55.48
882.404	49.38
882.691	42.53
882.978	80.51
883.265	62.08
883.552	64.41
883.839	71.56
884.126	54.84
884.413	63.51
884.699	61.39
884.986	63.32
885.273	61.13
885.559	61.13
885.846	61.13
