Data from 001-16_chest_Reflection__0__64.txt Node

Date: Fri Nov 11 16:38:48 CST 2022
User: ToomeyLab
Spectrometer: FLMS14357
Trigger mode: 0
Integration Time (sec): 1.000000E-2
Scans to average: 100
Electric dark correction enabled: true
Nonlinearity correction enabled: false
Boxcar width: 0
XAxis mode: Wavelengths
Number of Pixels in Spectrum: 2048
>>>>>Begin Spectral Data<<<<<
189.047	43.64
189.435	43.64
189.823	43.64
190.211	-21.06
190.599	77.08
190.987	1122.88
191.375	90.79
191.763	31.57
192.151	79.11
192.538	771.67
192.926	-40.73
193.314	49.52
193.702	-150.72
194.089	-32.42
194.477	5
194.864	1683.33
195.252	153.64
195.639	321.52
196.027	-452.43
196.414	65.36
196.801	-1383.33
197.189	-62.27
197.576	-70.6
197.963	55.52
198.351	10.02
198.738	-144.82
199.125	35.63
199.512	12.92
199.899	22.07
200.286	41.23
200.673	36.23
201.06	-23.19
201.447	42.96
201.833	62.3
202.22	16.3
202.607	45.74
202.994	3.6
203.38	-5.38
203.767	13.53
204.154	-16.38
204.54	47.96
204.927	14.85
205.313	31.5
205.699	23.01
206.086	8.81
206.472	14.76
206.858	37.07
207.245	29.88
207.631	23.18
208.017	22.03
208.403	24.05
208.789	-61.21
209.175	26.18
209.561	22.9
209.947	24.43
210.333	20.43
210.719	23.16
211.105	35.06
211.491	-53.78
211.876	5.12
212.262	16.78
212.648	21.24
213.034	-2.18
213.419	14.22
213.805	18.58
214.19	-5.71
214.576	7.9
214.961	-16.31
215.346	-11.23
215.732	-48.5
216.117	30.87
216.502	10.38
216.888	7.81
217.273	-6.03
217.658	-3.54
218.043	-8.75
218.428	9.22
218.813	25.05
219.198	5.34
219.583	9.78
219.968	15.52
220.353	-7.51
220.738	14.36
221.122	-0.13
221.507	22.46
221.892	8.16
222.276	13.94
222.661	13.53
223.046	0.01
223.43	16.71
223.815	5.8
224.199	7.71
224.583	-1.39
224.968	19.96
225.352	0.78
225.736	6.02
226.121	5.35
226.505	7.98
226.889	9.38
227.273	4.33
227.657	-2.01
228.041	4.99
228.425	3.7
228.809	8.43
229.193	2.86
229.577	5.41
229.961	3.22
230.344	5.92
230.728	4.76
231.112	4.86
231.495	4.45
231.879	4.74
232.263	3.8
232.646	3
233.03	4.78
233.413	4.11
233.797	5.22
234.18	6
234.563	7.51
234.946	1.64
235.33	5.19
235.713	4.65
236.096	2.76
236.479	4.89
236.862	6.69
237.245	5.74
237.628	4.1
238.011	5.33
238.394	6.38
238.777	4.65
239.16	4.88
239.543	4.87
239.925	6.45
240.308	4.61
240.691	4.45
241.073	3.36
241.456	3.67
241.838	5.01
242.221	4.85
242.603	4.55
242.986	4.9
243.368	4.32
243.75	4.39
244.133	4.41
244.515	4.36
244.897	4.53
245.279	4.34
245.661	4.3
246.043	4.48
246.425	4.91
246.807	4.66
247.189	2.88
247.571	3.63
247.953	4.26
248.335	4.57
248.717	4.2
249.098	4.38
249.48	4.47
249.862	4.3
250.243	4.13
250.625	4.39
251.006	4.54
251.388	3.7
251.769	4.69
252.151	4.33
252.532	4.18
252.913	4.6
253.295	4.57
253.676	4.64
254.057	4.15
254.438	4.74
254.819	4.35
255.2	5.48
255.581	3.96
255.962	3.81
256.343	5.25
256.724	4.57
257.105	4.06
257.486	5.55
257.867	4.17
258.247	4.22
258.628	3.83
259.009	4.17
259.389	4.4
259.77	5.18
260.15	4.6
260.531	4.06
260.911	4.16
261.292	4.53
261.672	4.12
262.052	4.16
262.432	4.39
262.813	4.49
263.193	3.75
263.573	4.87
263.953	4.24
264.333	4.43
264.713	3.88
265.093	4.36
265.473	4.83
265.853	4.59
266.233	4.42
266.612	3.54
266.992	4.11
267.372	3.99
267.752	4.23
268.131	4.04
268.511	4.06
268.89	4.08
269.27	4
269.649	3.92
270.029	3.62
270.408	4.07
270.787	4.73
271.167	4.17
271.546	4.25
271.925	4.9
272.304	4.3
272.683	4.15
273.062	4.28
273.441	3.88
273.82	3.59
274.199	4.41
274.578	4.48
274.957	3.49
275.336	3.99
275.715	4.12
276.093	4.58
276.472	4.41
276.851	3.92
277.229	3.96
277.608	4.42
277.986	3.82
278.365	4.91
278.743	4.07
279.122	3.88
279.5	3.82
279.878	3.66
280.257	4.15
280.635	4.08
281.013	4.22
281.391	4.1
281.769	4.86
282.147	3.76
282.525	3.74
282.903	3.88
283.281	4.04
283.659	3.42
284.037	3.96
284.415	4
284.792	4.27
285.17	4
285.548	3.84
285.925	4.15
286.303	4.18
286.68	4.02
287.058	3.83
287.435	3.7
287.813	3.86
288.19	4.5
288.567	3.96
288.945	3.78
289.322	3.74
289.699	4.22
290.076	3.79
290.453	3.77
290.83	4.46
291.207	4.35
291.584	4.11
291.961	4.02
292.338	4.14
292.715	3.8
293.092	4.01
293.469	4.43
293.845	4.43
294.222	4.43
294.599	4.68
294.975	3.75
295.352	4.26
295.728	4.14
296.105	4.31
296.481	3.85
296.858	4.3
297.234	4.22
297.61	3.56
297.986	3.72
298.363	4.13
298.739	4.04
299.115	3.94
299.491	4.15
299.867	3.84
300.243	3.99
300.619	4.18
300.995	4.1
301.371	3.88
301.746	4.16
302.122	4.5
302.498	3.74
302.874	4.29
303.249	4.1
303.625	4
304	3.99
304.376	4.36
304.751	4.61
305.127	4.56
305.502	4.24
305.878	4.75
306.253	3.96
306.628	4.54
307.003	3.9
307.378	4.37
307.754	4.68
308.129	4.05
308.504	4.33
308.879	3.88
309.254	4.07
309.629	3.95
310.003	4.13
310.378	4.03
310.753	3.71
311.128	4.45
311.502	3.61
311.877	4.03
312.252	4.06
312.626	3.98
313.001	4.18
313.375	4.51
313.75	4.16
314.124	4.23
314.498	4.32
314.873	3.79
315.247	4.49
315.621	3.66
315.995	3.74
316.369	4.17
316.743	4.16
317.117	4.59
317.491	4.24
317.865	4.22
318.239	4.43
318.613	4
318.987	4.32
319.361	4.08
319.734	3.79
320.108	4.4
320.482	3.85
320.855	3.83
321.229	4.57
321.602	4.13
321.976	3.94
322.349	4.14
322.723	4.18
323.096	4.89
323.469	4.15
323.843	4.49
324.216	4.22
324.589	4.42
324.962	4.11
325.335	4.45
325.708	3.91
326.081	3.92
326.454	4.45
326.827	4.42
327.2	4.03
327.573	4.3
327.945	4.04
328.318	4.47
328.691	4.89
329.063	4.23
329.436	4.74
329.809	4.33
330.181	4.57
330.553	4.66
330.926	3.73
331.298	4.41
331.671	4.62
332.043	4.75
332.415	4.58
332.787	4.51
333.159	4.38
333.532	4.1
333.904	3.86
334.276	4.04
334.648	4.13
335.02	4.57
335.391	4.15
335.763	4.19
336.135	4.06
336.507	3.98
336.879	4.04
337.25	3.89
337.622	4.56
337.993	4.51
338.365	4.06
338.736	4.14
339.108	4.06
339.479	4.1
339.851	4.11
340.222	4.29
340.593	4.22
340.964	4.24
341.336	4.2
341.707	4.14
342.078	3.92
342.449	4.78
342.82	4.49
343.191	4.37
343.562	4.5
343.933	3.54
344.303	4.54
344.674	4.04
345.045	4.29
345.416	4.13
345.786	4.16
346.157	4.17
346.527	4.56
346.898	4.22
347.268	4.19
347.639	4.68
348.009	4.33
348.38	4.26
348.75	4.24
349.12	4.36
349.49	4
349.861	4.32
350.231	4.11
350.601	4.72
350.971	4.53
351.341	4.43
351.711	4.17
352.081	3.77
352.45	4.44
352.82	4.03
353.19	4.14
353.56	4.54
353.929	4.46
354.299	4.45
354.669	3.98
355.038	4.43
355.408	3.64
355.777	4.64
356.147	4.61
356.516	4.54
356.885	4.28
357.254	4.41
357.624	4.57
357.993	4.31
358.362	4.49
358.731	4.25
359.1	4.2
359.469	4.38
359.838	4.59
360.207	4.36
360.576	4.56
360.945	4.59
361.314	4.38
361.682	4.34
362.051	4.13
362.42	4.19
362.788	4.23
363.157	4.28
363.525	4.62
363.894	4.38
364.262	4.22
364.631	4.32
364.999	4.44
365.367	4.45
365.735	4.45
366.104	4.16
366.472	4.64
366.84	4.45
367.208	4.38
367.576	4.19
367.944	4.57
368.312	4.59
368.68	4.53
369.048	4.35
369.416	4.36
369.783	4.18
370.151	4.3
370.519	4.83
370.886	4.79
371.254	4.5
371.621	4.58
371.989	4.2
372.356	4.18
372.724	4.52
373.091	4.66
373.458	4.53
373.826	4.52
374.193	4.76
374.56	4.51
374.927	4.19
375.294	4.27
375.661	4.82
376.028	4.68
376.395	4.46
376.762	4.42
377.129	4.64
377.496	4.5
377.863	4.31
378.229	4.45
378.596	4.44
378.963	4.34
379.329	4.4
379.696	4.51
380.062	4.51
380.429	4.39
380.795	4.54
381.161	4.7
381.528	4.54
381.894	4.62
382.26	4.29
382.626	4.52
382.993	4.42
383.359	4.45
383.725	4.68
384.091	4.56
384.457	4.69
384.823	4.51
385.188	4.41
385.554	4.21
385.92	4.42
386.286	4.55
386.651	4.45
387.017	4.42
387.383	4.53
387.748	4.41
388.114	4.44
388.479	4.62
388.845	4.61
389.21	4.92
389.575	4.49
389.94	4.69
390.306	4.51
390.671	4.71
391.036	4.45
391.401	4.36
391.766	4.49
392.131	4.24
392.496	4.6
392.861	4.51
393.226	4.61
393.591	4.35
393.956	4.62
394.32	4.67
394.685	4.73
395.05	4.79
395.414	4.75
395.779	4.41
396.143	4.49
396.508	4.48
396.872	4.77
397.236	4.57
397.601	4.69
397.965	4.71
398.329	4.51
398.694	4.49
399.058	4.55
399.422	4.69
399.786	4.9
400.15	4.18
400.514	4.53
400.878	4.78
401.242	4.69
401.605	4.51
401.969	4.76
402.333	4.59
402.697	4.61
403.06	4.9
403.424	4.49
403.787	4.79
404.151	4.57
404.514	4.48
404.878	4.67
405.241	4.49
405.604	4.36
405.968	4.69
406.331	4.43
406.694	4.76
407.057	4.53
407.42	4.67
407.783	4.66
408.146	4.67
408.509	4.66
408.872	4.9
409.235	4.73
409.598	4.41
409.961	4.63
410.323	4.64
410.686	4.68
411.049	4.83
411.411	4.76
411.774	4.49
412.136	4.63
412.499	4.67
412.861	4.64
413.223	4.79
413.586	4.49
413.948	4.72
414.31	4.8
414.672	4.84
415.035	4.82
415.397	4.91
415.759	4.49
416.121	4.87
416.483	4.72
416.845	4.9
417.206	4.5
417.568	4.84
417.93	4.86
418.292	4.57
418.653	4.52
419.015	4.5
419.377	4.69
419.738	4.85
420.1	4.65
420.461	4.52
420.822	4.62
421.184	4.59
421.545	4.59
421.906	4.54
422.267	4.6
422.629	4.6
422.99	4.59
423.351	4.6
423.712	4.55
424.073	4.65
424.434	4.64
424.795	4.84
425.155	4.75
425.516	4.69
425.877	4.64
426.238	4.57
426.598	4.69
426.959	4.65
427.32	4.71
427.68	4.68
428.041	4.9
428.401	4.8
428.761	4.75
429.122	4.86
429.482	4.92
429.842	4.67
430.202	4.8
430.563	4.74
430.923	4.9
431.283	4.87
431.643	4.94
432.003	5.01
432.363	4.96
432.722	4.81
433.082	4.83
433.442	4.65
433.802	4.88
434.161	4.67
434.521	4.82
434.881	4.7
435.24	4.83
435.6	4.69
435.959	4.78
436.319	4.79
436.678	4.78
437.037	4.74
437.396	4.58
437.756	4.64
438.115	4.61
438.474	4.84
438.833	4.74
439.192	4.73
439.551	4.72
439.91	4.83
440.269	4.89
440.628	4.85
440.987	4.92
441.345	4.8
441.704	4.8
442.063	4.93
442.421	4.71
442.78	4.84
443.138	4.77
443.497	4.77
443.855	4.82
444.214	4.76
444.572	4.89
444.93	4.86
445.288	4.95
445.647	4.66
446.005	4.95
446.363	4.76
446.721	4.82
447.079	4.81
447.437	4.75
447.795	4.69
448.153	4.78
448.51	4.76
448.868	4.85
449.226	4.75
449.584	4.83
449.941	4.82
450.299	4.87
450.656	4.86
451.014	4.91
451.371	4.83
451.729	5.03
452.086	4.85
452.443	5.02
452.801	4.89
453.158	4.79
453.515	4.93
453.872	4.82
454.229	4.93
454.586	4.89
454.943	4.95
455.3	4.93
455.657	4.98
456.014	4.79
456.371	4.87
456.727	4.98
457.084	4.9
457.441	4.95
457.797	4.93
458.154	4.96
458.51	4.88
458.867	4.99
459.223	4.93
459.58	5.03
459.936	5.06
460.292	5.08
460.648	4.95
461.005	4.96
461.361	4.98
461.717	4.81
462.073	4.96
462.429	5.04
462.785	4.92
463.141	4.97
463.496	4.91
463.852	4.94
464.208	4.95
464.564	4.91
464.919	5.01
465.275	5.11
465.631	5.17
465.986	5.06
466.342	5.16
466.697	5.07
467.052	5.04
467.408	5.11
467.763	5.02
468.118	5.07
468.473	4.99
468.829	5.16
469.184	5.18
469.539	5.15
469.894	5.2
470.249	5.09
470.603	4.95
470.958	5.28
471.313	5.13
471.668	5.03
472.023	5.13
472.377	5.29
472.732	5.24
473.086	5.15
473.441	5.27
473.795	5.18
474.15	5.15
474.504	5.31
474.859	5.28
475.213	5.32
475.567	5.18
475.921	5.23
476.275	5.18
476.63	5.22
476.984	5.19
477.338	5.18
477.692	5.15
478.045	5.1
478.399	5.1
478.753	5.28
479.107	5.05
479.461	5.17
479.814	5.16
480.168	5.21
480.521	5.14
480.875	5.3
481.228	5.15
481.582	5.18
481.935	5.22
482.289	5.23
482.642	5.13
482.995	5.2
483.348	5.02
483.701	5.17
484.055	5.07
484.408	5.07
484.761	4.94
485.114	4.88
485.466	4.85
485.819	4.88
486.172	4.9
486.525	4.92
486.878	5.04
487.23	5.06
487.583	5.1
487.936	5.09
488.288	5.09
488.641	5.09
488.993	5.01
489.345	4.96
489.698	4.99
490.05	4.97
490.402	5.04
490.754	5.16
491.107	5.14
491.459	5.23
491.811	5.17
492.163	5.2
492.515	5.18
492.866	5.07
493.218	5
493.57	5.02
493.922	5.11
494.274	5.17
494.625	5.2
494.977	5.17
495.328	5.29
495.68	5.37
496.031	5.45
496.383	5.37
496.734	5.39
497.086	5.45
497.437	5.42
497.788	5.37
498.139	5.31
498.49	5.3
498.842	5.29
499.193	5.33
499.544	5.31
499.894	5.32
500.245	5.35
500.596	5.42
500.947	5.36
501.298	5.35
501.648	5.54
501.999	5.46
502.35	5.43
502.7	5.57
503.051	5.53
503.401	5.44
503.752	5.42
504.102	5.39
504.452	5.53
504.803	5.49
505.153	5.57
505.503	5.49
505.853	5.56
506.203	5.54
506.553	5.56
506.903	5.49
507.253	5.6
507.603	5.58
507.953	5.56
508.303	5.6
508.652	5.49
509.002	5.52
509.352	5.62
509.701	5.52
510.051	5.59
510.4	5.52
510.75	5.56
511.099	5.53
511.449	5.57
511.798	5.54
512.147	5.54
512.496	5.52
512.846	5.63
513.195	5.55
513.544	5.58
513.893	5.63
514.242	5.71
514.591	5.63
514.939	5.63
515.288	5.64
515.637	5.63
515.986	5.75
516.334	5.77
516.683	5.72
517.032	5.73
517.38	5.7
517.729	5.73
518.077	5.68
518.426	5.74
518.774	5.62
519.122	5.7
519.47	5.62
519.819	5.66
520.167	5.58
520.515	5.64
520.863	5.59
521.211	5.71
521.559	5.74
521.907	5.78
522.255	5.77
522.602	5.9
522.95	5.79
523.298	5.7
523.645	5.85
523.993	5.91
524.341	5.95
524.688	5.9
525.036	5.94
525.383	5.88
525.73	5.88
526.078	5.82
526.425	5.77
526.772	5.8
527.119	5.81
527.466	5.73
527.814	5.72
528.161	5.78
528.508	5.82
528.854	5.85
529.201	5.74
529.548	5.8
529.895	5.65
530.242	5.67
530.588	5.68
530.935	5.71
531.282	5.82
531.628	5.81
531.975	5.86
532.321	5.92
532.667	5.97
533.014	5.95
533.36	5.95
533.706	5.97
534.052	5.96
534.399	5.91
534.745	5.89
535.091	5.84
535.437	5.92
535.783	5.98
536.129	5.97
536.474	6.1
536.82	6.03
537.166	6.13
537.512	6.19
537.857	6.15
538.203	6.05
538.549	6.1
538.894	6.19
539.239	6.16
539.585	6.19
539.93	6.26
540.276	6.21
540.621	6.26
540.966	6.38
541.311	6.25
541.656	6.17
542.001	6.38
542.346	6.37
542.691	6.12
543.036	6.11
543.381	6.09
543.726	6.13
544.071	6.22
544.415	6.3
544.76	6.33
545.105	6.42
545.449	6.33
545.794	6.38
546.138	6.45
546.483	6.5
546.827	6.57
547.171	6.41
547.516	6.36
547.86	6.41
548.204	6.47
548.548	6.46
548.892	6.47
549.236	6.56
549.58	6.68
549.924	6.54
550.268	6.81
550.612	6.72
550.956	6.8
551.3	6.99
551.643	6.85
551.987	6.65
552.33	6.83
552.674	6.69
553.017	7.03
553.361	6.97
553.704	6.95
554.048	6.79
554.391	6.84
554.734	6.81
555.077	6.91
555.42	6.82
555.764	7.07
556.107	6.98
556.45	6.88
556.793	7.05
557.135	7.03
557.478	7.09
557.821	7.17
558.164	7.01
558.507	7
558.849	6.96
559.192	7.06
559.534	7.13
559.877	7.33
560.219	7.29
560.562	7.36
560.904	7.31
561.246	7.19
561.589	7.17
561.931	7.14
562.273	7.35
562.615	7.3
562.957	7.45
563.299	7.52
563.641	7.31
563.983	7.26
564.325	7.34
564.667	7.49
565.008	7.28
565.35	7.49
565.692	7.35
566.033	7.65
566.375	7.59
566.716	7.7
567.058	7.39
567.399	7.66
567.741	7.53
568.082	7.59
568.423	7.59
568.764	7.54
569.105	7.66
569.447	7.64
569.788	7.61
570.129	7.75
570.47	7.8
570.811	7.82
571.151	7.96
571.492	7.88
571.833	7.86
572.174	7.84
572.514	7.98
572.855	7.98
573.195	7.85
573.536	8
573.876	7.94
574.217	7.9
574.557	7.9
574.898	7.88
575.238	8
575.578	8.18
575.918	7.97
576.258	8.04
576.598	8.11
576.938	8
577.278	8.23
577.618	8.19
577.958	8.25
578.298	8.31
578.638	8.23
578.977	8.28
579.317	8.42
579.657	8.51
579.996	8.34
580.336	8.31
580.675	8.4
581.014	8.46
581.354	8.5
581.693	8.36
582.032	8.58
582.372	8.67
582.711	8.74
583.05	8.65
583.389	8.47
583.728	8.69
584.067	8.75
584.406	8.76
584.745	8.74
585.083	8.94
585.422	8.8
585.761	9.1
586.1	8.88
586.438	8.9
586.777	9.14
587.115	9.06
587.454	9.12
587.792	9.08
588.13	9.08
588.469	8.99
588.807	9.07
589.145	8.96
589.483	9.01
589.821	9.08
590.159	9.06
590.497	9.21
590.835	9.2
591.173	9.53
591.511	9.36
591.849	9.25
592.187	9.42
592.524	9.17
592.862	9.64
593.2	9.39
593.537	9.36
593.875	9.83
594.212	9.57
594.55	9.66
594.887	9.81
595.224	9.33
595.561	9.49
595.899	9.69
596.236	9.7
596.573	9.66
596.91	9.66
597.247	9.64
597.584	9.61
597.921	9.66
598.258	9.7
598.594	9.73
598.931	9.76
599.268	9.82
599.604	9.92
599.941	9.79
600.277	9.76
600.614	10.05
600.95	10.09
601.287	10.2
601.623	10.09
601.959	10.2
602.296	10.03
602.632	10.26
602.968	10.21
603.304	10.34
603.64	10.22
603.976	10.4
604.312	10.32
604.648	10.15
604.984	10.43
605.319	10.49
605.655	10.48
605.991	10.19
606.326	10.34
606.662	10.34
606.998	10.41
607.333	10.59
607.668	10.66
608.004	10.61
608.339	10.64
608.674	10.68
609.01	10.53
609.345	10.85
609.68	10.96
610.015	10.83
610.35	11.04
610.685	10.96
611.02	10.94
611.355	10.69
611.689	10.96
612.024	10.93
612.359	11.03
612.694	10.95
613.028	11.06
613.363	11.13
613.697	11.42
614.032	11.37
614.366	10.96
614.7	11.14
615.035	11.31
615.369	11.52
615.703	11.69
616.037	11.28
616.371	11.54
616.705	11.67
617.039	11.11
617.373	11.44
617.707	11.61
618.041	11.36
618.375	11.66
618.709	11.72
619.042	11.83
619.376	11.48
619.71	11.74
620.043	11.88
620.377	11.43
620.71	11.53
621.043	11.89
621.377	11.68
621.71	12.21
622.043	12.2
622.376	12.17
622.709	12.07
623.043	11.83
623.376	12.15
623.709	11.94
624.041	12.1
624.374	11.92
624.707	12.24
625.04	12.33
625.373	12.28
625.705	12.17
626.038	12.5
626.37	12.45
626.703	12.58
627.035	12.1
627.368	12.59
627.7	12.52
628.032	12.39
628.365	12.77
628.697	12.51
629.029	12.69
629.361	12.46
629.693	12.58
630.025	12.51
630.357	12.48
630.689	12.75
631.021	12.74
631.353	12.64
631.684	12.89
632.016	12.85
632.348	12.96
632.679	12.89
633.011	12.97
633.342	12.92
633.674	13.28
634.005	12.93
634.336	12.98
634.668	12.99
634.999	13.09
635.33	13.34
635.661	13.43
635.992	13.45
636.323	13.43
636.654	13.36
636.985	13.4
637.316	13.57
637.647	13.46
637.977	13.69
638.308	13.42
638.639	13.66
638.969	13.69
639.3	13.16
639.63	14.09
639.961	13.34
640.291	13.85
640.622	13.6
640.952	13.73
641.282	13.83
641.612	13.9
641.943	13.72
642.273	14.08
642.603	13.75
642.933	13.95
643.263	13.68
643.592	14.21
643.922	13.74
644.252	14.1
644.582	14.41
644.911	14.38
645.241	14.51
645.571	14.48
645.9	14.47
646.23	14.49
646.559	14.59
646.888	14.45
647.218	14.39
647.547	14.8
647.876	14.3
648.205	14.35
648.534	14.33
648.863	14.73
649.192	14.94
649.521	15.01
649.85	14.9
650.179	14.65
650.508	14.83
650.837	14.98
651.165	15.16
651.494	15.17
651.822	15.09
652.151	15.1
652.479	15.21
652.808	15.53
653.136	15.06
653.465	15.37
653.793	14.91
654.121	15.75
654.449	14.93
654.777	15.36
655.105	15.14
655.433	15.05
655.761	14.99
656.089	15.31
656.417	15.3
656.745	15.56
657.073	15.56
657.4	15.79
657.728	15.47
658.056	15.47
658.383	15.85
658.711	15.82
659.038	15.5
659.365	15.76
659.693	15.7
660.02	16.1
660.347	15.74
660.674	15.73
661.001	15.91
661.329	15.69
661.656	16.01
661.982	16.05
662.309	16.12
662.636	16.14
662.963	16.2
663.29	16.03
663.616	16.4
663.943	16.08
664.27	16.79
664.596	16.55
664.923	16.56
665.249	16.6
665.576	16.48
665.902	16.5
666.228	16.48
666.554	16.45
666.881	16.45
667.207	16.38
667.533	17.07
667.859	16.51
668.185	16.58
668.511	17.02
668.837	16.57
669.162	16.61
669.488	15.96
669.814	16.49
670.139	17.04
670.465	16.94
670.791	16.51
671.116	16.92
671.442	16.61
671.767	16.79
672.092	16.96
672.418	17.3
672.743	16.97
673.068	17
673.393	17
673.718	17.5
674.043	17.34
674.368	17.35
674.693	17.09
675.018	17.64
675.343	17.89
675.667	17
675.992	18.02
676.317	17.96
676.641	17.8
676.966	16.9
677.29	16.96
677.615	17.65
677.939	18.18
678.264	17.83
678.588	18.15
678.912	17.78
679.236	18.17
679.56	18.26
679.885	18.59
680.209	17.55
680.532	17.99
680.856	18.17
681.18	18.22
681.504	17.9
681.828	17.6
682.152	18.19
682.475	18.14
682.799	17.59
683.122	18.29
683.446	18.09
683.769	18.64
684.093	17.92
684.416	18.37
684.739	18.35
685.062	18.33
685.386	18.77
685.709	18.86
686.032	18.56
686.355	18.68
686.678	18.58
687.001	19.1
687.324	18.33
687.646	18.68
687.969	19.18
688.292	19.52
688.614	18.43
688.937	18.74
689.26	19.16
689.582	19.08
689.904	18.32
690.227	19.47
690.549	18.71
690.871	19.49
691.194	19.16
691.516	19.78
691.838	19.63
692.16	18.82
692.482	19.4
692.804	19.26
693.126	18.84
693.448	20.1
693.769	20.21
694.091	19.81
694.413	19.63
694.735	19.18
695.056	19.18
695.378	18.92
695.699	18.79
696.021	19.92
696.342	19.1
696.663	19.96
696.984	19.63
697.306	19.97
697.627	19.51
697.948	19.56
698.269	19.62
698.59	20.83
698.911	19.94
699.232	19.97
699.553	19.5
699.873	20.67
700.194	19.66
700.515	19.73
700.835	20.35
701.156	20.32
701.477	20.55
701.797	20.83
702.117	20.53
702.438	20.18
702.758	20.72
703.078	20.91
703.398	19.9
703.719	20.51
704.039	20.35
704.359	20.49
704.679	19.68
704.999	20.86
705.319	21.25
705.638	21.21
705.958	20.33
706.278	21.8
706.597	21.28
706.917	19.48
707.237	21.65
707.556	21.8
707.876	21.89
708.195	21.02
708.514	21.01
708.834	21.49
709.153	20.72
709.472	21.28
709.791	21.44
710.11	20.84
710.429	21.45
710.748	20.75
711.067	20.94
711.386	21.79
711.705	21.44
712.023	21.54
712.342	21.67
712.661	21.07
712.979	21.49
713.298	22.18
713.616	22.02
713.935	22.54
714.253	21.41
714.572	21.47
714.89	21.56
715.208	21.73
715.526	21.82
715.844	22.62
716.162	22.12
716.48	21.24
716.798	22.42
717.116	22.62
717.434	21.93
717.752	22.74
718.069	22.44
718.387	22.68
718.705	21.81
719.022	22.82
719.34	22.19
719.657	22.62
719.975	22.91
720.292	21.96
720.609	21.84
720.927	23.19
721.244	23.49
721.561	24.18
721.878	22.88
722.195	22.6
722.512	22.32
722.829	23.53
723.146	21.85
723.463	23.03
723.779	23.39
724.096	22.52
724.413	21.22
724.729	23.31
725.046	22.72
725.362	23.37
725.679	23.45
725.995	23.3
726.311	22.84
726.628	23.19
726.944	23.17
727.26	23.92
727.576	23.3
727.892	22.11
728.208	23.83
728.524	23.68
728.84	24.05
729.156	23.36
729.472	23.85
729.787	24.24
730.103	24.03
730.419	23.78
730.734	22.03
731.05	23.98
731.365	22.9
731.681	22.52
731.996	22.69
732.311	23.87
732.626	24.28
732.942	23.98
733.257	23.27
733.572	25.12
733.887	24.81
734.202	23.63
734.517	22.96
734.832	24.09
735.146	24.55
735.461	23.8
735.776	23.3
736.091	24.42
736.405	24.84
736.72	25.2
737.034	24.35
737.349	26.78
737.663	24.5
737.977	26.05
738.292	22.92
738.606	24.89
738.92	23.76
739.234	25.84
739.548	26.19
739.862	25.01
740.176	24.44
740.49	25.42
740.804	24.03
741.117	25.29
741.431	24.73
741.745	24.02
742.058	26.67
742.372	26.79
742.685	24.85
742.999	26.17
743.312	26.49
743.626	25.77
743.939	23.13
744.252	24.82
744.565	26.25
744.878	26.49
745.191	26.1
745.505	24.69
745.817	25.86
746.13	25
746.443	25.89
746.756	25.29
747.069	26.03
747.381	28.43
747.694	25.16
748.007	24.42
748.319	25.42
748.632	25.51
748.944	24.5
749.256	24.48
749.569	26.24
749.881	26.13
750.193	25.32
750.505	25.04
750.817	24.98
751.129	27.1
751.441	25.74
751.753	27.42
752.065	27.21
752.377	26.59
752.689	26.27
753	27.92
753.312	27.15
753.624	26.07
753.935	27.18
754.247	25.95
754.558	26.75
754.869	25.82
755.181	25.94
755.492	25.57
755.803	26.02
756.114	28.52
756.425	27.07
756.736	27.31
757.047	26.96
757.358	26.31
757.669	27.55
757.98	27.28
758.291	25.94
758.601	27.31
758.912	26.02
759.223	27.57
759.533	27.51
759.844	28.21
760.154	27.5
760.464	27.34
760.775	25.69
761.085	26.28
761.395	26.58
761.705	27.58
762.016	26.97
762.326	28.49
762.636	27.12
762.945	26.98
763.255	27.99
763.565	28.11
763.875	29.61
764.185	27.43
764.494	27.4
764.804	27.68
765.113	27.9
765.423	27.43
765.732	28.22
766.042	27.73
766.351	28.45
766.66	29.44
766.97	28.02
767.279	27.41
767.588	29.41
767.897	28.45
768.206	27.95
768.515	27.77
768.824	28.3
769.133	29.06
769.441	27.83
769.75	24.8
770.059	26.15
770.367	26.82
770.676	27.58
770.984	28.69
771.293	27.56
771.601	28.78
771.91	28.81
772.218	32.3
772.526	27.75
772.834	26.38
773.142	26.87
773.45	29.89
773.758	28.66
774.066	26.64
774.374	26.6
774.682	29.41
774.99	29.55
775.298	29.14
775.605	28.99
775.913	28.37
776.22	31.78
776.528	27.5
776.835	32.31
777.143	28.36
777.45	29.07
777.757	29.09
778.065	29.46
778.372	30.41
778.679	26.63
778.986	27.02
779.293	29.5
779.6	27.97
779.907	30.15
780.214	29.68
780.52	29.7
780.827	30.94
781.134	30.74
781.44	29.58
781.747	28.76
782.053	31.71
782.36	29.04
782.666	29.88
782.973	29.87
783.279	27.96
783.585	30.19
783.891	27.94
784.197	29.52
784.503	28.66
784.809	29.08
785.115	29.34
785.421	31
785.727	28.14
786.033	24.43
786.339	29.03
786.644	28.95
786.95	26.97
787.255	29.76
787.561	33.13
787.866	30.59
788.172	30.8
788.477	26.99
788.782	31.03
789.088	29.72
789.393	33.01
789.698	30.11
790.003	31.84
790.308	33.7
790.613	29.81
790.918	30.02
791.223	31.12
791.527	28.68
791.832	33.2
792.137	30.71
792.441	30.14
792.746	32.78
793.05	28.4
793.355	27.7
793.659	30.16
793.963	28.14
794.268	27
794.572	30.28
794.876	32.43
795.18	32.22
795.484	34.26
795.788	28.5
796.092	27.12
796.396	30.97
796.7	30.34
797.004	28.9
797.307	30.77
797.611	29.94
797.915	36.13
798.218	32.86
798.522	28.21
798.825	31.01
799.128	32.41
799.432	33.82
799.735	34.89
800.038	32.41
800.341	30.95
800.644	31.1
800.947	33.57
801.25	33.31
801.553	31.75
801.856	35.13
802.159	33.85
802.462	31.12
802.764	33.81
803.067	31.72
803.37	31.44
803.672	33.18
803.975	32.82
804.277	30.07
804.579	30.38
804.882	33.8
805.184	30.59
805.486	27.05
805.788	34.9
806.09	35.22
806.392	31.48
806.694	30.83
806.996	31.5
807.298	33.2
807.6	33.26
807.902	25.68
808.203	28.39
808.505	27.57
808.807	28.22
809.108	32.38
809.409	36.44
809.711	35.26
810.012	34.12
810.313	34.3
810.615	30.44
810.916	34.01
811.217	28.92
811.518	34.49
811.819	35.95
812.12	34.25
812.421	37.78
812.722	30.57
813.023	28.58
813.323	33.75
813.624	34.07
813.925	34.27
814.225	34.26
814.526	35.31
814.826	33.24
815.126	27.9
815.427	33.78
815.727	38.12
816.027	32.63
816.327	37.53
816.627	30.97
816.927	37.43
817.227	33.44
817.527	29.26
817.827	30.78
818.127	30.12
818.427	30.95
818.727	36.1
819.026	31.41
819.326	31.93
819.625	38.31
819.925	35.94
820.224	39.71
820.524	31.07
820.823	36.86
821.122	31.12
821.421	33.88
821.72	35.76
822.019	32.37
822.318	35.37
822.617	34.39
822.916	36.03
823.215	35.17
823.514	34.04
823.813	36.83
824.111	37.92
824.41	35.46
824.709	34.5
825.007	34.46
825.306	35.02
825.604	35.63
825.902	35.33
826.201	35.21
826.499	36.15
826.797	35.1
827.095	35.26
827.393	34.74
827.691	37.59
827.989	37.4
828.287	35.83
828.585	35
828.882	35.09
829.18	34.57
829.478	35.23
829.775	36.07
830.073	35.69
830.37	35.89
830.668	34.92
830.965	35.58
831.263	34.1
831.56	36.05
831.857	34.18
832.154	37.93
832.451	37.68
832.748	33.62
833.045	33.57
833.342	34.8
833.639	38.8
833.936	41.27
834.232	32.49
834.529	39.11
834.826	35
835.122	36.58
835.419	39.87
835.715	36.28
836.012	36.72
836.308	38.19
836.604	34.51
836.901	38.37
837.197	35.55
837.493	39.11
837.789	32.91
838.085	35.16
838.381	39.58
838.677	34.1
838.972	32.37
839.268	38.29
839.564	36.07
839.86	39.61
840.155	36.39
840.451	38.1
840.746	31.7
841.042	38.05
841.337	32.17
841.632	35.03
841.928	44.92
842.223	28.89
842.518	37.65
842.813	28.18
843.108	38.59
843.403	40.14
843.698	29.87
843.993	35.28
844.287	49.04
844.582	41.62
844.877	34.6
845.171	40.64
845.466	36.96
845.761	26.27
846.055	33.7
846.349	25.54
846.644	39.69
846.938	24.58
847.232	20.89
847.526	37.43
847.82	39.63
848.114	37.67
848.408	42.01
848.702	25.5
848.996	24.79
849.29	35.28
849.584	33.67
849.877	34.25
850.171	28.4
850.465	52.1
850.758	18.27
851.052	28.66
851.345	31.44
851.638	36.85
851.932	42.6
852.225	37.44
852.518	43.81
852.811	29.4
853.104	18.05
853.397	26
853.69	29.52
853.983	19.44
854.276	16.16
854.569	42.22
854.861	43.72
855.154	33.74
855.447	29.64
855.739	58.61
856.032	32.49
856.324	27.66
856.616	42.44
856.909	26.77
857.201	20.88
857.493	44.83
857.785	20.91
858.077	24.87
858.369	41.48
858.661	39.25
858.953	29.83
859.245	20.43
859.537	39.24
859.829	28.79
860.12	41.24
860.412	35.5
860.703	26.69
860.995	34.71
861.286	6.58
861.578	39.21
861.869	12.45
862.16	21.36
862.452	40.8
862.743	9.45
863.034	32.75
863.325	48.59
863.616	33.42
863.907	46.06
864.198	21.2
864.488	22.17
864.779	38.69
865.07	24.06
865.36	27.62
865.651	52.79
865.941	50.21
866.232	48.65
866.522	9.96
866.813	66.03
867.103	21.69
867.393	66.64
867.683	30.59
867.973	25.45
868.263	31.59
868.553	34.01
868.843	28.39
869.133	21.39
869.423	32.25
869.713	21.33
870.002	42.62
870.292	42.12
870.582	23.34
870.871	36.1
871.161	44.46
871.45	24
871.739	12.58
872.029	18.75
872.318	49.17
872.607	50.68
872.896	10.18
873.185	30.42
873.474	27.58
873.763	31.76
874.052	44.6
874.341	46.6
874.63	42.79
874.918	15.49
875.207	43.56
875.496	50.32
875.784	75.21
876.073	37.61
876.361	20.78
876.649	16.03
876.938	14.31
877.226	35.65
877.514	38.68
877.802	34.67
878.09	57.25
878.378	41.36
878.666	20.18
878.954	50.6
879.242	8.89
879.53	34.65
879.817	58.61
880.105	12.46
880.392	19.41
880.68	33.62
880.967	27.26
881.255	45.18
881.542	40.3
881.83	34.5
882.117	21.24
882.404	55.34
882.691	43.36
882.978	17.23
883.265	37.36
883.552	42.76
883.839	49.45
884.126	37.94
884.413	33.15
884.699	36.21
884.986	48.86
885.273	46.38
885.559	46.38
885.846	46.38
