Data from 001-16_chest_Reflection__1__65.txt Node

Date: Fri Nov 11 16:39:01 CST 2022
User: ToomeyLab
Spectrometer: FLMS14357
Trigger mode: 0
Integration Time (sec): 1.000000E-2
Scans to average: 100
Electric dark correction enabled: true
Nonlinearity correction enabled: false
Boxcar width: 0
XAxis mode: Wavelengths
Number of Pixels in Spectrum: 2048
>>>>>Begin Spectral Data<<<<<
189.047	-20.08
189.435	-20.08
189.823	-20.08
190.211	305.53
190.599	23.61
190.987	3440.68
191.375	-59.92
191.763	-12.72
192.151	108.77
192.538	550.74
192.926	209.27
193.314	45.61
193.702	-70.08
194.089	-10.9
194.477	57.63
194.864	-184
195.252	200
195.639	33.37
196.027	-275.46
196.414	203.39
196.801	1878.43
197.189	136.2
197.576	-138.21
197.963	104.59
198.351	7.88
198.738	-106.65
199.125	12.39
199.512	14.47
199.899	13.01
200.286	56.46
200.673	27.78
201.06	-0.27
201.447	33.43
201.833	48.47
202.22	9.94
202.607	18.97
202.994	24.63
203.38	19.1
203.767	26.76
204.154	-20.97
204.54	37.51
204.927	12.37
205.313	23.8
205.699	21.86
206.086	12.96
206.472	44.43
206.858	24.9
207.245	39.63
207.631	37.51
208.017	27.66
208.403	0.58
208.789	-47.25
209.175	38.91
209.561	31.22
209.947	21.11
210.333	-1.65
210.719	17.82
211.105	23.54
211.491	-62.01
211.876	11.28
212.262	1.28
212.648	1.2
213.034	-4.36
213.419	-17.02
213.805	27.69
214.19	-28.4
214.576	12.13
214.961	0.85
215.346	-91.57
215.732	-43.59
216.117	16.42
216.502	0.84
216.888	2.75
217.273	13.3
217.658	0.77
218.043	10.59
218.428	-7.94
218.813	9.6
219.198	-18.74
219.583	2.6
219.968	4.81
220.353	-35.37
220.738	6.22
221.122	5.48
221.507	12.2
221.892	14.04
222.276	8.5
222.661	23.71
223.046	9.79
223.43	13.79
223.815	-1.79
224.199	15.24
224.583	2.62
224.968	20.72
225.352	7.35
225.736	9.49
226.121	9.54
226.505	7.38
226.889	9.77
227.273	8.2
227.657	-0.48
228.041	5.74
228.425	4.73
228.809	12.43
229.193	3.77
229.577	6.06
229.961	6.36
230.344	6.98
230.728	5.42
231.112	5.99
231.495	6.06
231.879	5.23
232.263	3.29
232.646	5.56
233.03	5.52
233.413	6
233.797	6.32
234.18	5.6
234.563	6.67
234.946	5.31
235.33	5.93
235.713	5.8
236.096	4.46
236.479	6.49
236.862	5.07
237.245	6
237.628	4.87
238.011	5.54
238.394	5.34
238.777	5.69
239.16	5.83
239.543	4.62
239.925	7.05
240.308	4.98
240.691	4.37
241.073	5.12
241.456	3.97
241.838	5.54
242.221	5.43
242.603	5.36
242.986	5.18
243.368	5.12
243.75	5.64
244.133	5.02
244.515	5.4
244.897	4.64
245.279	5
245.661	5.52
246.043	5.76
246.425	5.7
246.807	5.63
247.189	4.41
247.571	4.26
247.953	5.14
248.335	5.49
248.717	5.04
249.098	5.03
249.48	5.3
249.862	5.14
250.243	5.36
250.625	5.14
251.006	5.26
251.388	5.38
251.769	6.32
252.151	5.69
252.532	5.48
252.913	4.24
253.295	4.52
253.676	4.71
254.057	4.74
254.438	5.49
254.819	4.75
255.2	5.01
255.581	4.78
255.962	4.95
256.343	4.86
256.724	4.93
257.105	4.81
257.486	5.33
257.867	4.71
258.247	5.72
258.628	4.6
259.009	4.64
259.389	4.41
259.77	6
260.15	5.1
260.531	4.42
260.911	4.82
261.292	4.79
261.672	4.69
262.052	4.83
262.432	5.19
262.813	4.5
263.193	4.49
263.573	5.55
263.953	5.72
264.333	5.06
264.713	4.3
265.093	4.92
265.473	4.83
265.853	4.53
266.233	5.19
266.612	4.58
266.992	4.74
267.372	4.31
267.752	4.73
268.131	4.47
268.511	5.23
268.89	5.46
269.27	4.55
269.649	4.22
270.029	4.45
270.408	4.61
270.787	5.32
271.167	4.36
271.546	5.07
271.925	4.86
272.304	4.69
272.683	4.55
273.062	5.12
273.441	4.43
273.82	4.55
274.199	5.1
274.578	5.22
274.957	4.37
275.336	4.79
275.715	4.5
276.093	5.52
276.472	4.76
276.851	4.82
277.229	4.61
277.608	5.27
277.986	4.44
278.365	5.02
278.743	4.38
279.122	4.43
279.5	4.62
279.878	4.37
280.257	5
280.635	4.46
281.013	4.53
281.391	4.37
281.769	5.14
282.147	4.34
282.525	4.4
282.903	4.68
283.281	4.54
283.659	4.24
284.037	4.65
284.415	4.64
284.792	4.62
285.17	4.41
285.548	4.7
285.925	4.64
286.303	4.5
286.68	4.62
287.058	4.79
287.435	4.79
287.813	4.6
288.19	4.79
288.567	4.58
288.945	4.36
289.322	4.08
289.699	4.41
290.076	4.04
290.453	4.27
290.83	4.69
291.207	4.5
291.584	4.34
291.961	4.12
292.338	4.57
292.715	4.64
293.092	4.49
293.469	4.86
293.845	4.94
294.222	4.91
294.599	5.11
294.975	4.26
295.352	3.95
295.728	4.42
296.105	4.56
296.481	4.18
296.858	4.56
297.234	4.86
297.61	4.32
297.986	4.09
298.363	4.23
298.739	4.56
299.115	4.49
299.491	4.5
299.867	4.22
300.243	4.26
300.619	4.15
300.995	4.4
301.371	4.03
301.746	4.11
302.122	4.57
302.498	3.98
302.874	4.46
303.249	4.07
303.625	4.83
304	4.19
304.376	4.23
304.751	5.11
305.127	4.51
305.502	4.73
305.878	4.75
306.253	4.2
306.628	4.93
307.003	4.44
307.378	4.79
307.754	4.84
308.129	5.05
308.504	4.26
308.879	4.19
309.254	3.81
309.629	3.96
310.003	4.44
310.378	4.03
310.753	3.89
311.128	4.65
311.502	4.27
311.877	4.93
312.252	4.01
312.626	4.14
313.001	4.53
313.375	4.53
313.75	4.43
314.124	4.62
314.498	4.43
314.873	4.33
315.247	4.59
315.621	4.03
315.995	4.4
316.369	4.87
316.743	4.28
317.117	4.43
317.491	4.58
317.865	4.59
318.239	4.78
318.613	4.17
318.987	4.23
319.361	4.23
319.734	3.91
320.108	4.75
320.482	4.1
320.855	4.01
321.229	4.58
321.602	4.01
321.976	3.85
322.349	4.29
322.723	4.44
323.096	4.76
323.469	4.48
323.843	4.89
324.216	4.31
324.589	4.4
324.962	3.95
325.335	5.19
325.708	4.32
326.081	4.17
326.454	4.16
326.827	4.59
327.2	4.52
327.573	4.51
327.945	4.89
328.318	4.51
328.691	4.71
329.063	4.17
329.436	4.18
329.809	3.96
330.181	4.73
330.553	4.59
330.926	3.71
331.298	3.84
331.671	4.44
332.043	4.55
332.415	4.54
332.787	5.04
333.159	4.77
333.532	4.19
333.904	4.2
334.276	4.03
334.648	4.36
335.02	4.44
335.391	4.75
335.763	4.39
336.135	4.67
336.507	4.64
336.879	4.2
337.25	4.02
337.622	4.53
337.993	4.5
338.365	4.27
338.736	4.33
339.108	4.36
339.479	4.51
339.851	3.85
340.222	4.23
340.593	3.73
340.964	4.43
341.336	4.05
341.707	4.41
342.078	4.38
342.449	4.83
342.82	4.06
343.191	4.77
343.562	4.4
343.933	4.21
344.303	4.81
344.674	4.49
345.045	4.4
345.416	4.43
345.786	4.15
346.157	4.31
346.527	4.31
346.898	4.75
347.268	4.47
347.639	4.27
348.009	4.17
348.38	4.42
348.75	4.76
349.12	4.3
349.49	4.41
349.861	4.21
350.231	4.17
350.601	4.65
350.971	4.78
351.341	4.56
351.711	4.25
352.081	3.82
352.45	4.37
352.82	4.11
353.19	4.23
353.56	4.26
353.929	4.47
354.299	4.4
354.669	4.32
355.038	4.19
355.408	4.11
355.777	4.48
356.147	4.36
356.516	4.58
356.885	4.51
357.254	4.69
357.624	4.31
357.993	4.52
358.362	4.21
358.731	4.26
359.1	4.06
359.469	4.42
359.838	4.69
360.207	4.58
360.576	4.46
360.945	4.61
361.314	4.67
361.682	4.51
362.051	4.29
362.42	4.25
362.788	4.23
363.157	4.52
363.525	4.56
363.894	4.44
364.262	4.25
364.631	4.11
364.999	4.25
365.367	4.55
365.735	4.68
366.104	4.3
366.472	4.53
366.84	4.36
367.208	4.37
367.576	4.55
367.944	4.78
368.312	4.44
368.68	4.7
369.048	4.28
369.416	4.18
369.783	4.27
370.151	4.53
370.519	4.69
370.886	4.5
371.254	4.36
371.621	4.66
371.989	4.37
372.356	4.39
372.724	4.65
373.091	4.32
373.458	4.42
373.826	4.71
374.193	4.73
374.56	4.32
374.927	4.19
375.294	4.55
375.661	4.64
376.028	4.91
376.395	4.56
376.762	4.56
377.129	4.78
377.496	4.32
377.863	4.55
378.229	4.61
378.596	4.43
378.963	4.41
379.329	4.52
379.696	4.62
380.062	4.67
380.429	4.74
380.795	4.58
381.161	4.8
381.528	4.67
381.894	4.71
382.26	4.76
382.626	4.49
382.993	4.72
383.359	4.62
383.725	4.83
384.091	4.5
384.457	4.62
384.823	4.53
385.188	4.24
385.554	4.86
385.92	4.73
386.286	4.46
386.651	4.49
387.017	4.42
387.383	4.61
387.748	4.42
388.114	4.58
388.479	4.56
388.845	4.49
389.21	4.62
389.575	4.48
389.94	5.14
390.306	4.64
390.671	4.46
391.036	4.56
391.401	4.6
391.766	4.48
392.131	4.36
392.496	4.68
392.861	4.48
393.226	4.52
393.591	4.62
393.956	4.7
394.32	4.67
394.685	4.75
395.05	4.67
395.414	4.59
395.779	4.61
396.143	4.4
396.508	4.66
396.872	4.82
397.236	4.68
397.601	4.58
397.965	4.74
398.329	4.63
398.694	4.48
399.058	4.68
399.422	4.81
399.786	4.82
400.15	4.73
400.514	4.67
400.878	4.8
401.242	4.81
401.605	4.71
401.969	4.76
402.333	4.82
402.697	4.6
403.06	4.54
403.424	4.56
403.787	4.76
404.151	4.64
404.514	4.47
404.878	4.91
405.241	4.65
405.604	4.49
405.968	4.79
406.331	4.61
406.694	4.71
407.057	4.85
407.42	4.8
407.783	4.75
408.146	4.78
408.509	4.64
408.872	4.79
409.235	4.69
409.598	4.42
409.961	4.7
410.323	4.77
410.686	4.77
411.049	4.72
411.411	4.65
411.774	4.63
412.136	4.72
412.499	4.89
412.861	4.71
413.223	4.73
413.586	4.58
413.948	4.72
414.31	4.79
414.672	4.85
415.035	4.91
415.397	4.69
415.759	4.85
416.121	4.82
416.483	4.72
416.845	4.76
417.206	4.94
417.568	4.91
417.93	4.97
418.292	4.41
418.653	4.67
419.015	4.57
419.377	4.85
419.738	4.72
420.1	4.76
420.461	4.65
420.822	4.59
421.184	4.72
421.545	4.65
421.906	4.59
422.267	4.73
422.629	4.71
422.99	4.53
423.351	4.59
423.712	4.64
424.073	4.69
424.434	4.61
424.795	4.82
425.155	4.79
425.516	4.69
425.877	4.73
426.238	4.58
426.598	4.68
426.959	4.74
427.32	4.71
427.68	4.73
428.041	4.8
428.401	4.74
428.761	4.79
429.122	4.8
429.482	4.74
429.842	4.89
430.202	4.86
430.563	4.86
430.923	4.74
431.283	4.84
431.643	4.91
432.003	5.26
432.363	4.92
432.722	4.81
433.082	4.75
433.442	4.82
433.802	4.95
434.161	4.84
434.521	4.8
434.881	4.67
435.24	4.92
435.6	4.64
435.959	4.77
436.319	4.73
436.678	4.76
437.037	4.74
437.396	4.67
437.756	4.71
438.115	4.56
438.474	4.76
438.833	4.81
439.192	4.89
439.551	4.63
439.91	4.83
440.269	4.85
440.628	4.87
440.987	4.96
441.345	4.85
441.704	4.78
442.063	4.86
442.421	4.72
442.78	4.71
443.138	4.68
443.497	4.79
443.855	4.73
444.214	4.89
444.572	4.86
444.93	4.86
445.288	5
445.647	4.76
446.005	4.81
446.363	4.82
446.721	4.82
447.079	4.78
447.437	4.76
447.795	4.57
448.153	4.74
448.51	4.72
448.868	4.79
449.226	4.74
449.584	4.82
449.941	4.75
450.299	4.83
450.656	4.8
451.014	4.87
451.371	4.72
451.729	4.91
452.086	4.98
452.443	5.08
452.801	4.96
453.158	4.79
453.515	4.87
453.872	4.86
454.229	4.85
454.586	4.88
454.943	4.88
455.3	4.79
455.657	4.9
456.014	4.82
456.371	4.78
456.727	5
457.084	4.86
457.441	4.96
457.797	4.88
458.154	4.87
458.51	4.8
458.867	5.05
459.223	4.74
459.58	4.94
459.936	5
460.292	4.91
460.648	4.8
461.005	5.01
461.361	4.91
461.717	4.77
462.073	4.9
462.429	4.85
462.785	4.83
463.141	4.83
463.496	5.01
463.852	4.96
464.208	5.06
464.564	4.89
464.919	4.87
465.275	4.96
465.631	5.11
465.986	4.98
466.342	5.16
466.697	4.93
467.052	5.01
467.408	4.94
467.763	4.97
468.118	5.07
468.473	5.01
468.829	4.97
469.184	5.04
469.539	5.04
469.894	5.01
470.249	4.92
470.603	4.95
470.958	5.11
471.313	5.1
471.668	5.04
472.023	5.19
472.377	5.11
472.732	5.11
473.086	4.83
473.441	4.9
473.795	5.01
474.15	5
474.504	5.3
474.859	5.14
475.213	4.96
475.567	5
475.921	5.16
476.275	5.07
476.63	5.07
476.984	5
477.338	4.94
477.692	5.22
478.045	4.92
478.399	4.89
478.753	5.08
479.107	4.96
479.461	5.05
479.814	5.06
480.168	5.15
480.521	5.02
480.875	5.13
481.228	5.08
481.582	4.99
481.935	5.11
482.289	5.01
482.642	4.93
482.995	5.02
483.348	4.89
483.701	5.07
484.055	4.9
484.408	4.97
484.761	4.77
485.114	4.75
485.466	4.63
485.819	4.73
486.172	4.72
486.525	4.77
486.878	4.78
487.23	4.84
487.583	4.9
487.936	4.93
488.288	4.88
488.641	4.86
488.993	4.8
489.345	4.79
489.698	4.8
490.05	4.79
490.402	4.84
490.754	4.99
491.107	4.9
491.459	4.99
491.811	4.98
492.163	4.98
492.515	4.9
492.866	4.86
493.218	4.78
493.57	4.78
493.922	4.86
494.274	4.9
494.625	4.9
494.977	4.91
495.328	4.98
495.68	5.06
496.031	5.09
496.383	5.19
496.734	5.12
497.086	5.1
497.437	5.09
497.788	5.15
498.139	4.96
498.49	5.04
498.842	5.08
499.193	5.05
499.544	5.11
499.894	5.25
500.245	5.1
500.596	5.15
500.947	5.01
501.298	5.17
501.648	5.16
501.999	5.11
502.35	5.09
502.7	5.2
503.051	5.12
503.401	5.23
503.752	5.06
504.102	5.17
504.452	5.28
504.803	5.26
505.153	5.28
505.503	5.24
505.853	5.18
506.203	5.21
506.553	5.2
506.903	5.16
507.253	5.23
507.603	5.27
507.953	5.16
508.303	5.22
508.652	5.06
509.002	5.16
509.352	5.24
509.701	5.2
510.051	5.12
510.4	5.15
510.75	5.08
511.099	5.2
511.449	5.11
511.798	5.12
512.147	5.2
512.496	5.25
512.846	5.27
513.195	5.14
513.544	5.11
513.893	5.25
514.242	5.32
514.591	5.16
514.939	5.22
515.288	5.21
515.637	5.19
515.986	5.24
516.334	5.22
516.683	5.29
517.032	5.23
517.38	5.38
517.729	5.37
518.077	5.2
518.426	5.39
518.774	5.14
519.122	5.25
519.47	5.1
519.819	5.18
520.167	5.12
520.515	5.24
520.863	5.27
521.211	5.25
521.559	5.22
521.907	5.31
522.255	5.33
522.602	5.28
522.95	5.28
523.298	5.22
523.645	5.33
523.993	5.31
524.341	5.38
524.688	5.36
525.036	5.38
525.383	5.3
525.73	5.39
526.078	5.36
526.425	5.27
526.772	5.31
527.119	5.33
527.466	5.18
527.814	5.22
528.161	5.28
528.508	5.26
528.854	5.25
529.201	5.28
529.548	5.27
529.895	5.1
530.242	5.1
530.588	5.06
530.935	5.11
531.282	5.25
531.628	5.14
531.975	5.2
532.321	5.26
532.667	5.34
533.014	5.38
533.36	5.35
533.706	5.32
534.052	5.41
534.399	5.19
534.745	5.27
535.091	5.16
535.437	5.23
535.783	5.26
536.129	5.31
536.474	5.39
536.82	5.36
537.166	5.45
537.512	5.54
537.857	5.51
538.203	5.48
538.549	5.39
538.894	5.4
539.239	5.45
539.585	5.42
539.93	5.52
540.276	5.42
540.621	5.51
540.966	5.58
541.311	5.59
541.656	5.51
542.001	5.56
542.346	5.58
542.691	5.33
543.036	5.38
543.381	5.31
543.726	5.37
544.071	5.38
544.415	5.42
544.76	5.43
545.105	5.52
545.449	5.56
545.794	5.51
546.138	5.51
546.483	5.65
546.827	5.69
547.171	5.56
547.516	5.56
547.86	5.58
548.204	5.58
548.548	5.63
548.892	5.71
549.236	5.73
549.58	5.75
549.924	5.72
550.268	5.81
550.612	5.74
550.956	5.87
551.3	5.85
551.643	5.93
551.987	5.8
552.33	5.77
552.674	5.81
553.017	5.81
553.361	5.91
553.704	5.86
554.048	5.9
554.391	5.77
554.734	5.84
555.077	5.99
555.42	5.99
555.764	5.93
556.107	5.98
556.45	5.88
556.793	6.04
557.135	5.9
557.478	5.83
557.821	6.09
558.164	6.1
558.507	6.07
558.849	6
559.192	6.05
559.534	6.04
559.877	6.21
560.219	6.04
560.562	6.13
560.904	6.12
561.246	5.96
561.589	6.17
561.931	6.22
562.273	6.28
562.615	6.16
562.957	6.15
563.299	6.32
563.641	6.23
563.983	6.11
564.325	6.26
564.667	6.41
565.008	6.14
565.35	6.16
565.692	6.06
566.033	6.33
566.375	6.31
566.716	6.39
567.058	6.18
567.399	6.26
567.741	6.31
568.082	6.28
568.423	6.38
568.764	6.33
569.105	6.36
569.447	6.41
569.788	6.44
570.129	6.41
570.47	6.28
570.811	6.49
571.151	6.66
571.492	6.48
571.833	6.51
572.174	6.49
572.514	6.45
572.855	6.44
573.195	6.51
573.536	6.58
573.876	6.5
574.217	6.55
574.557	6.45
574.898	6.58
575.238	6.73
575.578	6.71
575.918	6.52
576.258	6.74
576.598	6.8
576.938	6.65
577.278	6.86
577.618	6.79
577.958	6.76
578.298	7
578.638	6.74
578.977	6.81
579.317	6.82
579.657	6.95
579.996	6.8
580.336	7.1
580.675	6.94
581.014	6.93
581.354	6.92
581.693	7.03
582.032	7.06
582.372	7.06
582.711	6.95
583.05	6.9
583.389	7.23
583.728	7.01
584.067	7.15
584.406	7
584.745	7.13
585.083	7.13
585.422	7.13
585.761	7.32
586.1	7.25
586.438	7.11
586.777	7.46
587.115	7.27
587.454	7.39
587.792	7.4
588.13	7.44
588.469	7.41
588.807	7.42
589.145	7.42
589.483	7.28
589.821	7.09
590.159	7.39
590.497	7.38
590.835	7.46
591.173	7.67
591.511	7.45
591.849	7.55
592.187	7.49
592.524	7.4
592.862	7.81
593.2	7.63
593.537	7.63
593.875	7.64
594.212	7.68
594.55	7.74
594.887	7.8
595.224	7.54
595.561	7.67
595.899	7.71
596.236	7.81
596.573	7.67
596.91	7.87
597.247	7.75
597.584	7.74
597.921	7.69
598.258	7.73
598.594	7.98
598.931	7.95
599.268	7.9
599.604	7.98
599.941	7.97
600.277	7.75
600.614	8.07
600.95	8.04
601.287	8.18
601.623	7.97
601.959	8.16
602.296	8.21
602.632	8.12
602.968	8.25
603.304	8.32
603.64	8.27
603.976	8.37
604.312	8.2
604.648	8.01
604.984	8.47
605.319	8.19
605.655	8.29
605.991	8.27
606.326	8.21
606.662	8.05
606.998	8.42
607.333	8.3
607.668	8.34
608.004	8.53
608.339	8.63
608.674	8.62
609.01	8.19
609.345	8.39
609.68	8.89
610.015	8.69
610.35	8.62
610.685	8.66
611.02	8.59
611.355	8.69
611.689	8.73
612.024	8.7
612.359	8.51
612.694	8.75
613.028	8.65
613.363	8.75
613.697	8.8
614.032	9.09
614.366	8.83
614.7	8.69
615.035	9.24
615.369	9.01
615.703	9.36
616.037	9.01
616.371	9.02
616.705	9.32
617.039	8.97
617.373	9.48
617.707	9.28
618.041	9.17
618.375	9.41
618.709	9.15
619.042	9.35
619.376	9.31
619.71	9.29
620.043	9.48
620.377	9.29
620.71	9.57
621.043	9.58
621.377	9.29
621.71	9.51
622.043	9.35
622.376	9.55
622.709	9.78
623.043	9.35
623.376	9.53
623.709	9.66
624.041	9.72
624.374	10.12
624.707	9.67
625.04	9.49
625.373	9.93
625.705	9.69
626.038	9.66
626.37	9.62
626.703	9.93
627.035	9.61
627.368	9.87
627.7	9.89
628.032	9.82
628.365	9.97
628.697	10.04
629.029	10.11
629.361	10.17
629.693	9.78
630.025	10.1
630.357	9.96
630.689	10.33
631.021	10.13
631.353	9.99
631.684	10.28
632.016	9.99
632.348	10.12
632.679	10.54
633.011	10.2
633.342	10.06
633.674	10.25
634.005	10.56
634.336	10.01
634.668	10.12
634.999	10.01
635.33	10.47
635.661	10.65
635.992	10.4
636.323	10.67
636.654	10.92
636.985	10.54
637.316	10.61
637.647	10.52
637.977	10.46
638.308	10.43
638.639	10.71
638.969	11.06
639.3	10.52
639.63	11.34
639.961	11.06
640.291	10.96
640.622	11.06
640.952	10.91
641.282	11.28
641.612	11.06
641.943	10.99
642.273	11.48
642.603	10.96
642.933	11.09
643.263	10.72
643.592	11.59
643.922	10.88
644.252	11.23
644.582	10.94
644.911	11.42
645.241	11.74
645.571	11.43
645.9	11.34
646.23	11.48
646.559	11.59
646.888	11.77
647.218	11.71
647.547	11.79
647.876	11.47
648.205	11.57
648.534	11.3
648.863	12.16
649.192	11.88
649.521	11.89
649.85	11.59
650.179	11.72
650.508	11.81
650.837	11.64
651.165	12.22
651.494	11.83
651.822	11.81
652.151	11.83
652.479	12.12
652.808	12.09
653.136	12.06
653.465	12.33
653.793	12.48
654.121	12.14
654.449	12.15
654.777	12.5
655.105	12.5
655.433	12.12
655.761	12.23
656.089	12.64
656.417	12.44
656.745	12.5
657.073	12.72
657.4	12.53
657.728	12.9
658.056	11.93
658.383	12.4
658.711	13.09
659.038	12.79
659.365	12.56
659.693	12.35
660.02	13.04
660.347	12.36
660.674	12.69
661.001	12.79
661.329	12.67
661.656	12.6
661.982	12.99
662.309	12.66
662.636	12.95
662.963	13.18
663.29	13.16
663.616	13.5
663.943	13.11
664.27	13.04
664.596	13.07
664.923	13.33
665.249	13.21
665.576	12.97
665.902	13.13
666.228	13.32
666.554	13.3
666.881	12.89
667.207	12.71
667.533	13.81
667.859	12.92
668.185	13.78
668.511	13.86
668.837	13.45
669.162	13.79
669.488	13.14
669.814	13.4
670.139	13.87
670.465	13.62
670.791	13.51
671.116	13.77
671.442	13.71
671.767	13.76
672.092	13.47
672.418	13.65
672.743	13.73
673.068	13.86
673.393	13.62
673.718	14.21
674.043	13.9
674.368	13.59
674.693	14.52
675.018	14.28
675.343	13.84
675.667	13.79
675.992	14.18
676.317	14.07
676.641	14.1
676.966	14.59
677.29	14.07
677.615	14.37
677.939	14.72
678.264	14.14
678.588	14.46
678.912	14.98
679.236	14.69
679.56	15.02
679.885	14.55
680.209	14.41
680.532	14.13
680.856	15.1
681.18	14.79
681.504	14.82
681.828	14.23
682.152	15.19
682.475	14.5
682.799	14.9
683.122	14.75
683.446	14.92
683.769	15.55
684.093	14.91
684.416	15.63
684.739	15.3
685.062	14.88
685.386	14.99
685.709	15.41
686.032	15.31
686.355	14.6
686.678	15.39
687.001	15.74
687.324	14.78
687.646	15.53
687.969	14.96
688.292	15.28
688.614	15.17
688.937	15.58
689.26	15.57
689.582	15.81
689.904	15.31
690.227	16.28
690.549	16.25
690.871	16.27
691.194	16.36
691.516	16.3
691.838	16
692.16	16.25
692.482	15.54
692.804	16.26
693.126	16.37
693.448	16.11
693.769	15.81
694.091	15.77
694.413	15.26
694.735	16.19
695.056	16.14
695.378	15.58
695.699	16.03
696.021	16.76
696.342	16.96
696.663	17.07
696.984	15.86
697.306	16.64
697.627	16.51
697.948	16.9
698.269	17.11
698.59	16.51
698.911	16.31
699.232	16.77
699.553	16.57
699.873	16.9
700.194	16.51
700.515	16.57
700.835	17.02
701.156	16.93
701.477	16.75
701.797	16.84
702.117	16.8
702.438	17.28
702.758	17.2
703.078	17.31
703.398	17.07
703.719	17.38
704.039	17.74
704.359	16.27
704.679	16.24
704.999	17.82
705.319	17.08
705.638	17.46
705.958	17.21
706.278	17.92
706.597	17.9
706.917	16.38
707.237	16.97
707.556	17.81
707.876	19.05
708.195	17.8
708.514	18.34
708.834	18.44
709.153	17.71
709.472	17.77
709.791	17.67
710.11	17.97
710.429	17.35
710.748	17.78
711.067	18.16
711.386	18.6
711.705	18.09
712.023	18.06
712.342	17.99
712.661	17.97
712.979	17.62
713.298	18.54
713.616	17.62
713.935	18.64
714.253	17.79
714.572	18.59
714.89	18.6
715.208	18.41
715.526	18.15
715.844	18.07
716.162	19.53
716.48	18.19
716.798	18.46
717.116	18.98
717.434	19.12
717.752	19.28
718.069	19.07
718.387	19.32
718.705	18.29
719.022	18.93
719.34	19.41
719.657	18.21
719.975	19.19
720.292	19.35
720.609	19.57
720.927	20.06
721.244	20.06
721.561	19.79
721.878	20.59
722.195	20.14
722.512	19.97
722.829	20.5
723.146	19.69
723.463	19.95
723.779	19.89
724.096	18.7
724.413	19.11
724.729	18.54
725.046	18.44
725.362	19.37
725.679	20.37
725.995	19.34
726.311	19.02
726.628	18.55
726.944	20.01
727.26	20.52
727.576	19.98
727.892	18.83
728.208	21.11
728.524	19.88
728.84	20.13
729.156	19.76
729.472	19.78
729.787	20.19
730.103	20.5
730.419	20.89
730.734	20.01
731.05	20.27
731.365	19.61
731.681	19.45
731.996	20.48
732.311	20.17
732.626	19.93
732.942	21.07
733.257	19.81
733.572	21.71
733.887	20.22
734.202	21.39
734.517	21.16
734.832	21.55
735.146	21.63
735.461	20.76
735.776	20.56
736.091	21.16
736.405	22.52
736.72	20.84
737.034	21.39
737.349	22.37
737.663	21.25
737.977	21.94
738.292	20.9
738.606	21.17
738.92	21.29
739.234	22.16
739.548	21.14
739.862	21.07
740.176	20.31
740.49	21.16
740.804	20.84
741.117	21.08
741.431	21.91
741.745	20.73
742.058	24.18
742.372	22.97
742.685	20.69
742.999	22.51
743.312	23.43
743.626	23.02
743.939	22.44
744.252	20.47
744.565	22.62
744.878	22.82
745.191	22.57
745.505	22.96
745.817	21.57
746.13	22.73
746.443	22.37
746.756	22.32
747.069	21.82
747.381	22.8
747.694	23.98
748.007	23.06
748.319	22.77
748.632	23.21
748.944	22.82
749.256	23.04
749.569	22.96
749.881	22.62
750.193	23.49
750.505	22.25
750.817	22.71
751.129	24.23
751.441	24.4
751.753	24.39
752.065	23.93
752.377	22.7
752.689	22.54
753	24.38
753.312	23.12
753.624	23.9
753.935	23.28
754.247	23.57
754.558	22.83
754.869	22.42
755.181	24.47
755.492	20.34
755.803	22.97
756.114	24.23
756.425	24.94
756.736	22.92
757.047	22.58
757.358	23.49
757.669	24.67
757.98	24.62
758.291	22.88
758.601	24.13
758.912	22.16
759.223	24.22
759.533	22.95
759.844	25.9
760.154	23.61
760.464	22.98
760.775	23.81
761.085	23.85
761.395	22.91
761.705	22.86
762.016	24.34
762.326	25.83
762.636	25.8
762.945	23.7
763.255	25.05
763.565	24.55
763.875	24.12
764.185	26.1
764.494	24.73
764.804	25.16
765.113	25.44
765.423	25.42
765.732	24.79
766.042	25.4
766.351	25.75
766.66	25.2
766.97	25
767.279	26
767.588	25.82
767.897	25.69
768.206	25.8
768.515	25.49
768.824	24.66
769.133	26.68
769.441	25.43
769.75	23.3
770.059	23.97
770.367	25.11
770.676	24.22
770.984	26.18
771.293	26.05
771.601	24.47
771.91	26.07
772.218	27.88
772.526	26.99
772.834	22.83
773.142	24.33
773.45	27.17
773.758	26.23
774.066	26.61
774.374	23.8
774.682	26.97
774.99	26.67
775.298	25.83
775.605	24.08
775.913	24.49
776.22	25.24
776.528	28.17
776.835	26.59
777.143	27.14
777.45	30.26
777.757	25.94
778.065	28.32
778.372	26.06
778.679	25.01
778.986	26.18
779.293	25.29
779.6	24.62
779.907	28.44
780.214	27.26
780.52	29.51
780.827	30.35
781.134	23.94
781.44	27.04
781.747	27.27
782.053	28.87
782.36	25.83
782.666	28.85
782.973	27.22
783.279	24.08
783.585	24.72
783.891	25.86
784.197	29.26
784.503	25.06
784.809	25.67
785.115	26.68
785.421	27.58
785.727	24.91
786.033	25.99
786.339	26.98
786.644	27.14
786.95	24.82
787.255	29.23
787.561	31.51
787.866	26.13
788.172	26.9
788.477	22.18
788.782	28.37
789.088	26.3
789.393	28.41
789.698	32.25
790.003	28.75
790.308	30.18
790.613	29.04
790.918	28.37
791.223	30.98
791.527	26.25
791.832	30.42
792.137	31.52
792.441	31.51
792.746	26.81
793.05	26.14
793.355	27.39
793.659	28.13
793.963	26.73
794.268	27.33
794.572	28.22
794.876	31.4
795.18	33.52
795.484	30.3
795.788	29.92
796.092	28.25
796.396	26.41
796.7	28.99
797.004	25.48
797.307	27.54
797.611	28.42
797.915	31.33
798.218	32.15
798.522	28.3
798.825	26.13
799.128	28.99
799.432	32.77
799.735	32.11
800.038	31.11
800.341	30.2
800.644	25.99
800.947	30.83
801.25	30.81
801.553	30.75
801.856	29.36
802.159	35.35
802.462	32.16
802.764	33.98
803.067	26.58
803.37	28.42
803.672	33.1
803.975	31.12
804.277	25.98
804.579	28.56
804.882	35.4
805.184	24.35
805.486	29.2
805.788	33.28
806.09	30.97
806.392	28.84
806.694	30.16
806.996	33.01
807.298	34.68
807.6	31.92
807.902	29.3
808.203	30.84
808.505	25.8
808.807	26.47
809.108	32
809.409	34.68
809.711	29.06
810.012	31.47
810.313	34.95
810.615	28.19
810.916	32.72
811.217	29.22
811.518	31.29
811.819	32
812.12	32.95
812.421	33.74
812.722	31.35
813.023	28.03
813.323	33.13
813.624	28.93
813.925	28.74
814.225	34.87
814.526	34.97
814.826	32.73
815.126	30.92
815.427	32.7
815.727	30.8
816.027	31.57
816.327	33.44
816.627	30.94
816.927	28.82
817.227	28.57
817.527	26.39
817.827	35.72
818.127	28.29
818.427	27.24
818.727	30.94
819.026	25.28
819.326	32.68
819.625	28.89
819.925	36.9
820.224	34.07
820.524	28.26
820.823	29.34
821.122	31.36
821.421	33.02
821.72	36.71
822.019	32.31
822.318	34.36
822.617	30.42
822.916	33.51
823.215	31.77
823.514	34.7
823.813	34.14
824.111	34.07
824.41	33.76
824.709	33.9
825.007	33.07
825.306	32.96
825.604	33.83
825.902	33.57
826.201	33.72
826.499	33.81
826.797	33.44
827.095	32.32
827.393	34.08
827.691	34.84
827.989	33.48
828.287	34.94
828.585	34.3
828.882	35.24
829.18	34.3
829.478	34.39
829.775	34.84
830.073	33.66
830.37	33.07
830.668	34.7
830.965	36.04
831.263	35.04
831.56	37.92
831.857	30.26
832.154	36.18
832.451	37.17
832.748	34.45
833.045	36.03
833.342	34.67
833.639	28.15
833.936	34.61
834.232	35.17
834.529	33.85
834.826	32.06
835.122	36.62
835.419	32.53
835.715	32.63
836.012	34.09
836.308	34.69
836.604	33.56
836.901	34.81
837.197	34.79
837.493	35.19
837.789	35.08
838.085	36.17
838.381	35.4
838.677	37.31
838.972	34.05
839.268	32.55
839.564	37.03
839.86	35.68
840.155	36.94
840.451	33.71
840.746	43.31
841.042	33.6
841.337	31.94
841.632	36.17
841.928	44.52
842.223	29.84
842.518	33.26
842.813	25.8
843.108	33.79
843.403	37.79
843.698	32.46
843.993	31.4
844.287	42.94
844.582	40
844.877	40.14
845.171	38.31
845.466	42.56
845.761	27.37
846.055	32.7
846.349	48.02
846.644	44.39
846.938	25.1
847.232	27.06
847.526	36.1
847.82	30.19
848.114	56.35
848.408	44.3
848.702	21.28
848.996	27.78
849.29	28.1
849.584	31.12
849.877	33.38
850.171	45.06
850.465	54.4
850.758	29.22
851.052	48.23
851.345	50.32
851.638	41.72
851.932	44.24
852.225	45.28
852.518	41.82
852.811	25.51
853.104	27.76
853.397	17.08
853.69	33.19
853.983	21.43
854.276	29.99
854.569	32.78
854.861	34.57
855.154	46.23
855.447	28.07
855.739	43.71
856.032	35.67
856.324	41.76
856.616	31.09
856.909	26.02
857.201	28.5
857.493	52.16
857.785	28.96
858.077	25.95
858.369	32.58
858.661	28.14
858.953	60.32
859.245	32.93
859.537	36.66
859.829	31.52
860.12	11.16
860.412	34.28
860.703	35.22
860.995	42.03
861.286	28.78
861.578	30.21
861.869	20.84
862.16	-10.04
862.452	45.1
862.743	19.02
863.034	34.07
863.325	43.01
863.616	37.99
863.907	48.99
864.198	44.18
864.488	45.29
864.779	30.79
865.07	18.26
865.36	42.08
865.651	26.74
865.941	66.62
866.232	31.74
866.522	49.64
866.813	30.43
867.103	24.48
867.393	64.27
867.683	34.86
867.973	51.23
868.263	57.79
868.553	32.46
868.843	18.8
869.133	36.08
869.423	60.06
869.713	47.55
870.002	23.79
870.292	15.97
870.582	36.44
870.871	19.48
871.161	68.32
871.45	58.97
871.739	26.41
872.029	18.2
872.318	21.38
872.607	51.6
872.896	-12.4
873.185	40.12
873.474	40.16
873.763	53.11
874.052	25.22
874.341	42.91
874.63	33.38
874.918	11.85
875.207	52.36
875.496	52.06
875.784	14.65
876.073	18.97
876.361	33.14
876.649	28.47
876.938	17.98
877.226	39.88
877.514	38.53
877.802	40.68
878.09	42.11
878.378	39.09
878.666	37.27
878.954	37.94
879.242	46.75
879.53	15.76
879.817	67.72
880.105	36.13
880.392	41.79
880.68	22.75
880.967	17.87
881.255	36.99
881.542	26.45
881.83	47.25
882.117	16.21
882.404	41.6
882.691	55.82
882.978	39.27
883.265	27.57
883.552	52.01
883.839	62.19
884.126	44.03
884.413	31.52
884.699	32.99
884.986	35.13
885.273	46.77
885.559	46.77
885.846	46.77
