Data from 0211_forehead_Reflection__0__262.txt Node

Date: Fri Sep 22 22:51:28 CDT 2023
User: ToomeyLab
Spectrometer: FLMS14357
Trigger mode: 0
Integration Time (sec): 1.000000E-2
Scans to average: 100
Electric dark correction enabled: true
Nonlinearity correction enabled: false
Boxcar width: 0
XAxis mode: Wavelengths
Number of Pixels in Spectrum: 2048
>>>>>Begin Spectral Data<<<<<
189.047	110.02
189.435	110.02
189.823	110.02
190.211	193.95
190.599	-239.11
190.987	18.25
191.375	-254.96
191.763	392.11
192.151	70.15
192.538	-39.5
192.926	319.57
193.314	-159.35
193.702	258.62
194.089	-2417.48
194.477	357.93
194.864	53.63
195.252	141.41
195.639	352.6
196.027	113.05
196.414	200.08
196.801	-43.26
197.189	431.2
197.576	89.86
197.963	58.64
198.351	-9.79
198.738	27.88
199.125	22.23
199.512	-1.62
199.899	58.17
200.286	40.56
200.673	39.8
201.06	37.46
201.447	41.73
201.833	27.1
202.22	29.52
202.607	25.85
202.994	46.6
203.38	40.23
203.767	23.35
204.154	41.53
204.54	34.05
204.927	45.8
205.313	31.39
205.699	45.18
206.086	31.52
206.472	50.8
206.858	11.8
207.245	31.92
207.631	26.78
208.017	12.69
208.403	48.96
208.789	42.85
209.175	40.38
209.561	42.9
209.947	40.14
210.333	33.72
210.719	-0.6
211.105	31.88
211.491	14.82
211.876	41.33
212.262	50.39
212.648	54.52
213.034	36.26
213.419	25.04
213.805	51.81
214.19	31.31
214.576	33.24
214.961	31.62
215.346	7.09
215.732	30.34
216.117	17.98
216.502	28.41
216.888	17.92
217.273	22.96
217.658	18.63
218.043	36.87
218.428	26.76
218.813	14.14
219.198	28.95
219.583	-10.02
219.968	3.41
220.353	37.31
220.738	3.53
221.122	13.98
221.507	13.88
221.892	25.85
222.276	5.08
222.661	-4.12
223.046	28.95
223.43	36.69
223.815	10.98
224.199	-1.65
224.583	19.5
224.968	20.59
225.352	7.97
225.736	14.8
226.121	13.45
226.505	5.18
226.889	6.31
227.273	16.24
227.657	9.26
228.041	12.15
228.425	14.28
228.809	7.79
229.193	6.6
229.577	8.28
229.961	6.47
230.344	7.11
230.728	4.22
231.112	5.3
231.495	4.73
231.879	6.03
232.263	3.87
232.646	5.82
233.03	6.09
233.413	6.38
233.797	5.61
234.18	4.55
234.563	5.37
234.946	7.46
235.33	3.89
235.713	5.74
236.096	5.08
236.479	3.45
236.862	7.75
237.245	6.78
237.628	7.64
238.011	6.85
238.394	6.01
238.777	8.58
239.16	5.79
239.543	6.86
239.925	6.87
240.308	6.48
240.691	6.26
241.073	5.69
241.456	4.28
241.838	4.94
242.221	5.67
242.603	4.78
242.986	5.54
243.368	4.34
243.75	4.99
244.133	5.34
244.515	5.39
244.897	4.46
245.279	4.74
245.661	5.29
246.043	5.04
246.425	4.95
246.807	5.93
247.189	5.19
247.571	5.58
247.953	5.63
248.335	5.3
248.717	5.33
249.098	4.77
249.48	4.78
249.862	4.75
250.243	4.76
250.625	4.88
251.006	4.66
251.388	5.27
251.769	5.5
252.151	4.71
252.532	4.59
252.913	5.5
253.295	6.76
253.676	5.85
254.057	5.45
254.438	5.51
254.819	4.86
255.2	5.15
255.581	6.01
255.962	4.95
256.343	5.63
256.724	5.67
257.105	6.49
257.486	5.85
257.867	4.7
258.247	6.15
258.628	5.88
259.009	5.94
259.389	5.12
259.77	5.93
260.15	6.1
260.531	4.9
260.911	5.15
261.292	4.91
261.672	4.99
262.052	5
262.432	4.96
262.813	4.95
263.193	4.9
263.573	5.5
263.953	5.25
264.333	4.82
264.713	5.42
265.093	4.95
265.473	5.03
265.853	4.44
266.233	5.95
266.612	5.45
266.992	5.31
267.372	5.56
267.752	5.33
268.131	4.71
268.511	4.59
268.89	5.72
269.27	5.37
269.649	5.17
270.029	4.69
270.408	4.77
270.787	5.14
271.167	5.13
271.546	5.07
271.925	5.58
272.304	4.84
272.683	4.81
273.062	5.84
273.441	5.18
273.82	5.36
274.199	5.35
274.578	5.04
274.957	5.16
275.336	4.89
275.715	4.89
276.093	5.17
276.472	4.45
276.851	5.46
277.229	4.36
277.608	5.13
277.986	4.82
278.365	5.29
278.743	5.29
279.122	4.99
279.5	5.82
279.878	5.15
280.257	5.28
280.635	4.61
281.013	5.3
281.391	5.13
281.769	4.95
282.147	5.23
282.525	4.82
282.903	5
283.281	5.25
283.659	4.75
284.037	4.88
284.415	5.1
284.792	4.95
285.17	4.69
285.548	5.49
285.925	5.38
286.303	4.74
286.68	4.62
287.058	4.98
287.435	4.78
287.813	4.72
288.19	4.7
288.567	4.94
288.945	4.88
289.322	4.95
289.699	5.14
290.076	5.42
290.453	5.22
290.83	4.83
291.207	5.44
291.584	4.7
291.961	5.14
292.338	5.37
292.715	5.46
293.092	5.34
293.469	4.89
293.845	5.39
294.222	5.38
294.599	5.75
294.975	5.85
295.352	5.69
295.728	5.43
296.105	5.71
296.481	5.49
296.858	5.89
297.234	5.38
297.61	5.8
297.986	5.64
298.363	5.81
298.739	6.15
299.115	5.94
299.491	5.71
299.867	5.69
300.243	5.72
300.619	5.65
300.995	5.66
301.371	6.52
301.746	6.24
302.122	6.09
302.498	5.94
302.874	6.07
303.249	5.68
303.625	6.44
304	6.23
304.376	6.58
304.751	6.53
305.127	6.4
305.502	7.07
305.878	6.1
306.253	6.67
306.628	6.68
307.003	6.37
307.378	7.02
307.754	7.07
308.129	6.7
308.504	6.67
308.879	6.93
309.254	6.91
309.629	7.03
310.003	7.57
310.378	6.73
310.753	6.81
311.128	6.94
311.502	7.17
311.877	6.35
312.252	7.14
312.626	7.02
313.001	7.21
313.375	7.28
313.75	7.53
314.124	7.89
314.498	7.05
314.873	7.54
315.247	8.03
315.621	7.59
315.995	7.55
316.369	7.88
316.743	7.97
317.117	8
317.491	8.34
317.865	7.38
318.239	8.01
318.613	8.58
318.987	8.45
319.361	8.03
319.734	8.06
320.108	8.41
320.482	8.27
320.855	8.2
321.229	9.2
321.602	8.33
321.976	8.16
322.349	8.52
322.723	8.69
323.096	8.83
323.469	9.09
323.843	8.8
324.216	9.31
324.589	9.52
324.962	8.69
325.335	8.89
325.708	9.14
326.081	9.22
326.454	8.99
326.827	9.24
327.2	9.16
327.573	9.36
327.945	9.36
328.318	9.3
328.691	9.32
329.063	9.44
329.436	9.82
329.809	9.64
330.181	9.95
330.553	9.79
330.926	9.45
331.298	10.32
331.671	9.46
332.043	9.24
332.415	9.93
332.787	9.98
333.159	9.97
333.532	9.58
333.904	10.13
334.276	9.89
334.648	10.03
335.02	9.81
335.391	10.18
335.763	10.47
336.135	10.35
336.507	10.27
336.879	10.23
337.25	10.79
337.622	10.99
337.993	10.62
338.365	10.82
338.736	10.79
339.108	10.98
339.479	10.28
339.851	10.34
340.222	10.64
340.593	10.72
340.964	9.98
341.336	10.86
341.707	10.96
342.078	11.19
342.449	10.68
342.82	10.67
343.191	10.59
343.562	11.03
343.933	10.94
344.303	11.12
344.674	11.31
345.045	11.01
345.416	11.51
345.786	11.34
346.157	11.23
346.527	10.98
346.898	11.27
347.268	11
347.639	11.28
348.009	11.65
348.38	11.56
348.75	11.76
349.12	11.57
349.49	11.82
349.861	12.14
350.231	11.98
350.601	11.87
350.971	12.13
351.341	11.65
351.711	11.87
352.081	11.63
352.45	11.75
352.82	11.83
353.19	12.34
353.56	12.17
353.929	12.41
354.299	12.21
354.669	11.73
355.038	12.37
355.408	12.39
355.777	12.59
356.147	12.35
356.516	12.6
356.885	12.43
357.254	12.81
357.624	12.13
357.993	12.84
358.362	12.39
358.731	12.77
359.1	12.82
359.469	12.75
359.838	12.41
360.207	12.72
360.576	12.74
360.945	12.66
361.314	12.78
361.682	12.97
362.051	13.48
362.42	13.15
362.788	12.94
363.157	13
363.525	12.89
363.894	12.7
364.262	12.88
364.631	13.31
364.999	12.99
365.367	13.47
365.735	12.97
366.104	13.4
366.472	13.7
366.84	13.27
367.208	13.94
367.576	13.58
367.944	13.62
368.312	13.94
368.68	13.79
369.048	13.86
369.416	13.92
369.783	13.88
370.151	13.57
370.519	13.88
370.886	13.81
371.254	14.16
371.621	13.99
371.989	14.32
372.356	14.12
372.724	14.5
373.091	14.26
373.458	14.3
373.826	14.45
374.193	14.68
374.56	14.44
374.927	14.83
375.294	14.27
375.661	14.51
376.028	14.74
376.395	14.64
376.762	14.04
377.129	14.99
377.496	15.05
377.863	15.06
378.229	15.03
378.596	15.03
378.963	15.09
379.329	14.73
379.696	15.15
380.062	14.88
380.429	14.91
380.795	15.21
381.161	15.52
381.528	15.13
381.894	15.08
382.26	14.93
382.626	15.33
382.993	15.38
383.359	15.22
383.725	15.32
384.091	15.28
384.457	15.49
384.823	15.62
385.188	15.78
385.554	15.76
385.92	15.98
386.286	15.69
386.651	15.87
387.017	16.11
387.383	15.8
387.748	15.83
388.114	15.97
388.479	15.84
388.845	15.82
389.21	15.73
389.575	16.45
389.94	15.96
390.306	16.22
390.671	16.49
391.036	15.88
391.401	16.53
391.766	16.22
392.131	16.44
392.496	16.49
392.861	16.65
393.226	16.57
393.591	16.6
393.956	16.49
394.32	16.59
394.685	16.74
395.05	17.17
395.414	17.04
395.779	16.79
396.143	17.07
396.508	16.84
396.872	17.06
397.236	17.12
397.601	17.11
397.965	17.1
398.329	17.09
398.694	17.1
399.058	17.18
399.422	17.23
399.786	17.29
400.15	17.61
400.514	17.56
400.878	17.33
401.242	17.57
401.605	17.55
401.969	17.17
402.333	17.79
402.697	17.76
403.06	17.66
403.424	17.81
403.787	18.01
404.151	17.91
404.514	17.95
404.878	17.85
405.241	18.17
405.604	18.19
405.968	18.18
406.331	17.92
406.694	18.15
407.057	17.85
407.42	18.29
407.783	18.17
408.146	18.3
408.509	18.13
408.872	18.54
409.235	18.43
409.598	18.58
409.961	18.88
410.323	18.8
410.686	19
411.049	19.16
411.411	19.04
411.774	18.73
412.136	18.97
412.499	18.94
412.861	19.1
413.223	19.15
413.586	19.02
413.948	19.24
414.31	19.1
414.672	19.31
415.035	19.41
415.397	19.58
415.759	19.63
416.121	19.43
416.483	19.57
416.845	19.62
417.206	19.58
417.568	19.71
417.93	19.86
418.292	19.54
418.653	19.71
419.015	19.63
419.377	19.67
419.738	19.83
420.1	19.67
420.461	19.9
420.822	19.68
421.184	19.62
421.545	19.6
421.906	19.67
422.267	19.67
422.629	19.79
422.99	19.57
423.351	19.53
423.712	19.68
424.073	19.66
424.434	19.88
424.795	19.93
425.155	19.99
425.516	20.06
425.877	19.91
426.238	20.01
426.598	19.93
426.959	20
427.32	20.03
427.68	20.23
428.041	20.13
428.401	20.45
428.761	20.66
429.122	20.66
429.482	20.69
429.842	20.7
430.202	20.67
430.563	20.92
430.923	21.09
431.283	21.12
431.643	21.25
432.003	21.43
432.363	21.14
432.722	21.26
433.082	21.24
433.442	21.33
433.802	21.42
434.161	21.58
434.521	21.32
434.881	21.51
435.24	21.44
435.6	21.37
435.959	21.35
436.319	21.36
436.678	21.55
437.037	21.69
437.396	21.45
437.756	21.74
438.115	21.82
438.474	21.98
438.833	21.99
439.192	22
439.551	21.96
439.91	22.13
440.269	22.13
440.628	22.07
440.987	22.09
441.345	22.02
441.704	22
442.063	21.94
442.421	22.05
442.78	22
443.138	22.11
443.497	22.17
443.855	22.12
444.214	22.2
444.572	22.32
444.93	22.4
445.288	22.48
445.647	22.65
446.005	22.52
446.363	22.53
446.721	22.66
447.079	22.41
447.437	22.51
447.795	22.56
448.153	22.28
448.51	22.44
448.868	22.4
449.226	22.49
449.584	22.51
449.941	22.5
450.299	22.71
450.656	22.68
451.014	22.84
451.371	23.08
451.729	23.04
452.086	23.11
452.443	23.32
452.801	23.5
453.158	23.47
453.515	23.51
453.872	23.54
454.229	23.61
454.586	23.45
454.943	23.44
455.3	23.42
455.657	23.5
456.014	23.48
456.371	23.77
456.727	23.98
457.084	23.93
457.441	23.82
457.797	23.77
458.154	23.98
458.51	24.04
458.867	24.15
459.223	24.13
459.58	23.93
459.936	24.23
460.292	24.31
460.648	24.35
461.005	24.25
461.361	24.24
461.717	24.02
462.073	23.75
462.429	23.77
462.785	23.97
463.141	24.05
463.496	24.38
463.852	24.3
464.208	24.52
464.564	24.91
464.919	24.57
465.275	24.76
465.631	24.75
465.986	25.01
466.342	25.31
466.697	25.25
467.052	24.89
467.408	24.82
467.763	24.99
468.118	25.33
468.473	25.16
468.829	25.32
469.184	25.22
469.539	25.17
469.894	25.43
470.249	25.47
470.603	25.22
470.958	25.65
471.313	25.58
471.668	25.44
472.023	25.62
472.377	25.56
472.732	25.59
473.086	25.72
473.441	25.6
473.795	26.1
474.15	25.81
474.504	25.93
474.859	26.11
475.213	25.89
475.567	25.97
475.921	26.11
476.275	26.12
476.63	25.91
476.984	26.31
477.338	26.24
477.692	26.11
478.045	26.27
478.399	26.25
478.753	26.2
479.107	26.43
479.461	26.34
479.814	26.37
480.168	26.31
480.521	26.49
480.875	26.53
481.228	26.27
481.582	26.39
481.935	26.45
482.289	26.59
482.642	26.55
482.995	26.55
483.348	26.61
483.701	26.61
484.055	26.48
484.408	26.37
484.761	26.46
485.114	26.3
485.466	25.84
485.819	25.79
486.172	25.82
486.525	25.79
486.878	25.76
487.23	25.84
487.583	26.02
487.936	26.24
488.288	26.36
488.641	26.47
488.993	26.41
489.345	26.39
489.698	26.25
490.05	26.37
490.402	26.31
490.754	26.25
491.107	26.51
491.459	26.58
491.811	26.81
492.163	26.97
492.515	27.16
492.866	27.22
493.218	27.1
493.57	27
493.922	26.84
494.274	26.92
494.625	26.94
494.977	27.14
495.328	27.27
495.68	27.61
496.031	27.79
496.383	28.19
496.734	28.26
497.086	28.23
497.437	28.25
497.788	28.2
498.139	28.32
498.49	28.4
498.842	28.19
499.193	28.18
499.544	28.3
499.894	28.22
500.245	28.32
500.596	28.33
500.947	28.53
501.298	28.66
501.648	28.56
501.999	28.82
502.35	28.75
502.7	28.88
503.051	28.93
503.401	29.02
503.752	28.9
504.102	29.1
504.452	29.21
504.803	29.2
505.153	29.34
505.503	29.22
505.853	29.26
506.203	29.34
506.553	29.28
506.903	29.22
507.253	29.33
507.603	29.44
507.953	29.57
508.303	29.77
508.652	29.63
509.002	29.76
509.352	29.71
509.701	29.8
510.051	29.61
510.4	29.72
510.75	29.84
511.099	29.59
511.449	29.76
511.798	29.8
512.147	29.72
512.496	29.82
512.846	29.92
513.195	30.06
513.544	30.15
513.893	29.95
514.242	30.06
514.591	30.04
514.939	30.32
515.288	30.2
515.637	30.22
515.986	30.27
516.334	30.51
516.683	30.52
517.032	30.76
517.38	30.61
517.729	30.71
518.077	30.72
518.426	30.74
518.774	30.82
519.122	30.72
519.47	30.94
519.819	30.75
520.167	30.65
520.515	30.61
520.863	30.61
521.211	30.69
521.559	30.65
521.907	30.65
522.255	30.74
522.602	30.87
522.95	31
523.298	31.14
523.645	31.18
523.993	31.24
524.341	31.37
524.688	31.45
525.036	31.56
525.383	31.69
525.73	31.75
526.078	31.7
526.425	31.66
526.772	31.8
527.119	31.49
527.466	31.51
527.814	31.28
528.161	31.33
528.508	31.29
528.854	31.36
529.201	31.38
529.548	31.55
529.895	31.56
530.242	31.3
530.588	31.21
530.935	31.11
531.282	31.1
531.628	31.17
531.975	31.15
532.321	31.28
532.667	31.52
533.014	31.65
533.36	31.94
533.706	32.08
534.052	32.16
534.399	32.3
534.745	32.17
535.091	32.09
535.437	32
535.783	31.85
536.129	32.02
536.474	32.16
536.82	32.13
537.166	32.51
537.512	32.66
537.857	32.7
538.203	32.86
538.549	32.7
538.894	32.69
539.239	32.65
539.585	32.7
539.93	32.77
540.276	32.98
540.621	32.9
540.966	33.36
541.311	33.52
541.656	33.56
542.001	33.68
542.346	33.61
542.691	33.25
543.036	33.08
543.381	32.93
543.726	32.95
544.071	32.98
544.415	32.97
544.76	33.02
545.105	33.01
545.449	33.4
545.794	33.52
546.138	33.43
546.483	33.56
546.827	33.64
547.171	33.83
547.516	34.26
547.86	34.24
548.204	34.23
548.548	34.23
548.892	34.13
549.236	34.3
549.58	34.06
549.924	34.44
550.268	34.56
550.612	34.71
550.956	34.73
551.3	35.06
551.643	35.12
551.987	35.33
552.33	35.67
552.674	35.15
553.017	35.25
553.361	35.31
553.704	35.56
554.048	35.5
554.391	35.39
554.734	35.69
555.077	35.45
555.42	35.45
555.764	35.43
556.107	35.66
556.45	35.45
556.793	35.7
557.135	36.1
557.478	35.82
557.821	35.9
558.164	36.25
558.507	36.37
558.849	35.98
559.192	36.19
559.534	36.31
559.877	36.25
560.219	36.42
560.562	36.4
560.904	36.39
561.246	36.45
561.589	36.54
561.931	36.46
562.273	36.27
562.615	36.55
562.957	36.59
563.299	36.54
563.641	36.69
563.983	36.76
564.325	36.78
564.667	36.63
565.008	36.76
565.35	36.77
565.692	36.96
566.033	36.98
566.375	37.16
566.716	37.31
567.058	37.09
567.399	37.23
567.741	37.08
568.082	37.25
568.423	37.13
568.764	37.29
569.105	37.01
569.447	37.07
569.788	37.16
570.129	37.41
570.47	37.55
570.811	37.63
571.151	37.7
571.492	37.61
571.833	37.69
572.174	37.66
572.514	37.71
572.855	37.6
573.195	37.37
573.536	37.92
573.876	37.86
574.217	38.07
574.557	37.71
574.898	38.1
575.238	37.96
575.578	38.01
575.918	38.05
576.258	38.14
576.598	38.14
576.938	38.41
577.278	38.63
577.618	38.41
577.958	38.4
578.298	38.36
578.638	38.29
578.977	38.53
579.317	38.61
579.657	38.56
579.996	38.7
580.336	39
580.675	39.18
581.014	38.89
581.354	39.07
581.693	39.03
582.032	39.23
582.372	39.57
582.711	39.45
583.05	39.36
583.389	39.47
583.728	39.4
584.067	39.21
584.406	39.93
584.745	39.67
585.083	40.05
585.422	39.81
585.761	39.83
586.1	39.72
586.438	39.87
586.777	39.89
587.115	39.8
587.454	39.85
587.792	39.84
588.13	40.2
588.469	40.18
588.807	40.31
589.145	40.32
589.483	39.91
589.821	40.61
590.159	40.14
590.497	40.43
590.835	40.46
591.173	40.64
591.511	40.29
591.849	40.65
592.187	40.46
592.524	40.78
592.862	40.46
593.2	40.58
593.537	40.76
593.875	40.39
594.212	40.7
594.55	41.18
594.887	40.72
595.224	40.8
595.561	41.16
595.899	41.15
596.236	41.4
596.573	41.25
596.91	41.08
597.247	41.16
597.584	41.16
597.921	41.11
598.258	41.1
598.594	40.99
598.931	41.29
599.268	41.23
599.604	41.23
599.941	40.91
600.277	41.16
600.614	41.28
600.95	41.39
601.287	41.45
601.623	41.47
601.959	41.83
602.296	41.91
602.632	41.83
602.968	41.87
603.304	42.04
603.64	42.42
603.976	42.15
604.312	42.41
604.648	42.01
604.984	42.03
605.319	42.17
605.655	42.26
605.991	42.08
606.326	42.1
606.662	41.99
606.998	41.75
607.333	42.2
607.668	41.83
608.004	42.4
608.339	42.21
608.674	42.42
609.01	42.45
609.345	43.02
609.68	43.09
610.015	42.53
610.35	42.8
610.685	42.98
611.02	42.81
611.355	43.14
611.689	42.76
612.024	43.04
612.359	42.52
612.694	42.51
613.028	43.1
613.363	42.75
613.697	42.77
614.032	43.04
614.366	43.05
614.7	43.63
615.035	43.23
615.369	43.41
615.703	43.6
616.037	43.49
616.371	43.78
616.705	43.76
617.039	43.59
617.373	43.61
617.707	43.82
618.041	43.88
618.375	44.07
618.709	43.79
619.042	43.52
619.376	43.56
619.71	44.34
620.043	43.87
620.377	44
620.71	44.15
621.043	43.82
621.377	44
621.71	44.71
622.043	44.58
622.376	44.35
622.709	44.1
623.043	44.95
623.376	44.12
623.709	44.66
624.041	44.38
624.374	44.69
624.707	44.9
625.04	44.96
625.373	44.46
625.705	45.35
626.038	44.55
626.37	44.91
626.703	45
627.035	44.91
627.368	44.87
627.7	45.08
628.032	45.25
628.365	44.98
628.697	45.3
629.029	45.15
629.361	45.38
629.693	45.05
630.025	45.03
630.357	45.15
630.689	45.08
631.021	45.21
631.353	45.37
631.684	45.51
632.016	45.22
632.348	45.6
632.679	45.31
633.011	45.96
633.342	45.7
633.674	45.95
634.005	45.5
634.336	45.39
634.668	45.35
634.999	45.81
635.33	46.14
635.661	45.99
635.992	45.94
636.323	46.01
636.654	45.94
636.985	45.66
637.316	46.13
637.647	46.09
637.977	45.47
638.308	45.99
638.639	46.13
638.969	46.19
639.3	46.37
639.63	46.05
639.961	45.95
640.291	45.68
640.622	46.67
640.952	46.73
641.282	46.12
641.612	46.47
641.943	46.55
642.273	46.78
642.603	46.31
642.933	46.27
643.263	46.03
643.592	47.12
643.922	46.75
644.252	46.59
644.582	46.83
644.911	47.06
645.241	47.24
645.571	47.1
645.9	46.55
646.23	47.1
646.559	47.39
646.888	47.23
647.218	47.04
647.547	46.98
647.876	47.33
648.205	47.03
648.534	47.26
648.863	47.62
649.192	47.58
649.521	47.33
649.85	47.29
650.179	47.46
650.508	47.44
650.837	47.79
651.165	47.57
651.494	47.94
651.822	48.44
652.151	47.84
652.479	47.7
652.808	47.78
653.136	48.02
653.465	47.37
653.793	48.23
654.121	48.17
654.449	47.79
654.777	48.52
655.105	48.14
655.433	48.03
655.761	48
656.089	48.07
656.417	48.09
656.745	48.04
657.073	48.41
657.4	48.34
657.728	47.93
658.056	48.27
658.383	48.6
658.711	47.84
659.038	48.52
659.365	48.35
659.693	48.79
660.02	48.9
660.347	48.52
660.674	48.48
661.001	48.48
661.329	48.98
661.656	48.76
661.982	48.67
662.309	48.86
662.636	48.1
662.963	47.98
663.29	48.68
663.616	48.42
663.943	48.23
664.27	48.91
664.596	48.54
664.923	49.03
665.249	48.45
665.576	48.84
665.902	48.66
666.228	49.41
666.554	49
666.881	49.22
667.207	49.49
667.533	48.93
667.859	48.98
668.185	49.42
668.511	50.45
668.837	49.85
669.162	49.68
669.488	49.26
669.814	49.22
670.139	49.6
670.465	49.92
670.791	48.72
671.116	49.85
671.442	49.65
671.767	49.6
672.092	50
672.418	50.26
672.743	49.64
673.068	50.36
673.393	49.69
673.718	50.1
674.043	50.39
674.368	50.19
674.693	50.74
675.018	50.18
675.343	50.93
675.667	49.96
675.992	49.5
676.317	50.46
676.641	49.98
676.966	50.23
677.29	50.51
677.615	50.21
677.939	50.26
678.264	49.8
678.588	51.39
678.912	50.63
679.236	50.53
679.56	50.57
679.885	49.71
680.209	50.43
680.532	50.2
680.856	50.4
681.18	50.57
681.504	49.78
681.828	51.13
682.152	51.63
682.475	50.32
682.799	51.35
683.122	50.44
683.446	50.54
683.769	50.16
684.093	51.21
684.416	50.97
684.739	50.49
685.062	51.26
685.386	50.83
685.709	51.31
686.032	51.01
686.355	51.58
686.678	51.56
687.001	51.22
687.324	51.96
687.646	52.18
687.969	51.95
688.292	51.74
688.614	52.36
688.937	51.85
689.26	51.64
689.582	51.7
689.904	50.8
690.227	52.15
690.549	51.52
690.871	51.72
691.194	51.46
691.516	52.11
691.838	51.18
692.16	51.76
692.482	51.79
692.804	51.9
693.126	51.39
693.448	51.97
693.769	52.02
694.091	52.37
694.413	52.11
694.735	51.76
695.056	51.75
695.378	51.58
695.699	51.53
696.021	51.27
696.342	51.45
696.663	51.65
696.984	51.41
697.306	51.67
697.627	51.97
697.948	51.93
698.269	51.65
698.59	51.76
698.911	51.69
699.232	52.13
699.553	52.62
699.873	52.81
700.194	51.41
700.515	52.95
700.835	52.67
701.156	52.26
701.477	52.56
701.797	52.38
702.117	52.59
702.438	51.71
702.758	51.95
703.078	52.72
703.398	52.59
703.719	52.18
704.039	52.81
704.359	52.39
704.679	51.97
704.999	52.51
705.319	53.19
705.638	52.23
705.958	52.58
706.278	52.41
706.597	51.86
706.917	53.12
707.237	52.63
707.556	52.86
707.876	52.5
708.195	53.43
708.514	53.2
708.834	53.4
709.153	52.85
709.472	53.51
709.791	52.65
710.11	53.64
710.429	53.23
710.748	53.5
711.067	53.16
711.386	53.57
711.705	53.04
712.023	52.74
712.342	54.18
712.661	54.31
712.979	53.94
713.298	54.67
713.616	55.04
713.935	53.5
714.253	54.94
714.572	54.13
714.89	53.84
715.208	53.63
715.526	53.55
715.844	54.18
716.162	53.46
716.48	53.84
716.798	54.52
717.116	54.03
717.434	54.46
717.752	54.23
718.069	53.9
718.387	54.36
718.705	53.08
719.022	54.3
719.34	53.79
719.657	53.36
719.975	54.64
720.292	54.54
720.609	54.01
720.927	55.31
721.244	54.12
721.561	54.65
721.878	54.61
722.195	55.62
722.512	54.9
722.829	55.3
723.146	54.93
723.463	55.63
723.779	53.98
724.096	54.15
724.413	56.09
724.729	54.44
725.046	55.09
725.362	54.42
725.679	54.43
725.995	54.61
726.311	54.06
726.628	55.33
726.944	53.29
727.26	55.03
727.576	54.32
727.892	54.23
728.208	55.73
728.524	55.49
728.84	55.97
729.156	55
729.472	55.69
729.787	54.79
730.103	55.67
730.419	55.11
730.734	55.91
731.05	55.04
731.365	54.76
731.681	55.78
731.996	54.06
732.311	55.04
732.626	55.19
732.942	55.15
733.257	55.59
733.572	55.86
733.887	55.43
734.202	54.22
734.517	55.79
734.832	55
735.146	56.18
735.461	56.16
735.776	55.45
736.091	56.07
736.405	56.29
736.72	55.34
737.034	54.14
737.349	53.54
737.663	55.05
737.977	56.32
738.292	55.92
738.606	56.28
738.92	55.33
739.234	55.22
739.548	55.37
739.862	55.31
740.176	56.73
740.49	57.05
740.804	57.32
741.117	56.59
741.431	56.05
741.745	55.76
742.058	56.65
742.372	55.05
742.685	56.46
742.999	55.06
743.312	56.16
743.626	55.45
743.939	54.16
744.252	55.49
744.565	55.28
744.878	56.12
745.191	55.84
745.505	56.36
745.817	57.88
746.13	57.31
746.443	56.5
746.756	55.73
747.069	55.48
747.381	54.51
747.694	57.06
748.007	55.66
748.319	55.88
748.632	55.6
748.944	56.56
749.256	56.8
749.569	54.81
749.881	55.67
750.193	58.7
750.505	57.82
750.817	57.18
751.129	58.22
751.441	56.89
751.753	58.58
752.065	60.31
752.377	56.91
752.689	57.18
753	56.77
753.312	56.86
753.624	57
753.935	58.14
754.247	56.08
754.558	58.17
754.869	58.14
755.181	56.53
755.492	58.55
755.803	57.87
756.114	59.39
756.425	57.89
756.736	55.55
757.047	56.83
757.358	55.08
757.669	56.69
757.98	56.12
758.291	56.24
758.601	56.97
758.912	55.37
759.223	59.85
759.533	56.57
759.844	58.2
760.154	57.3
760.464	57.88
760.775	56.17
761.085	55.98
761.395	56.35
761.705	56.2
762.016	57.81
762.326	56.61
762.636	56.38
762.945	55.89
763.255	59.13
763.565	57
763.875	56.85
764.185	57.37
764.494	58.2
764.804	55.95
765.113	56.82
765.423	58.07
765.732	58.54
766.042	58.52
766.351	56.75
766.66	58.3
766.97	57.36
767.279	57.48
767.588	57.36
767.897	56.78
768.206	57.75
768.515	57.33
768.824	57.02
769.133	57.49
769.441	58.43
769.75	60.44
770.059	58.86
770.367	56.41
770.676	57.17
770.984	56.48
771.293	57.93
771.601	57.72
771.91	56.65
772.218	56.24
772.526	58.3
772.834	57.63
773.142	58.41
773.45	59.57
773.758	57.41
774.066	57.76
774.374	56.26
774.682	57.36
774.99	57.42
775.298	59.03
775.605	56.9
775.913	60.22
776.22	59.55
776.528	58.9
776.835	58.12
777.143	58.87
777.45	58.14
777.757	55.08
778.065	58.3
778.372	54.71
778.679	61.69
778.986	58.63
779.293	57.49
779.6	57.45
779.907	57.85
780.214	63.65
780.52	54.89
780.827	57.8
781.134	58.46
781.44	56.85
781.747	58.47
782.053	58.28
782.36	58.13
782.666	58.5
782.973	59.4
783.279	59.91
783.585	62.01
783.891	57.92
784.197	60.73
784.503	57.09
784.809	57.21
785.115	53.97
785.421	62.21
785.727	57.45
786.033	58.5
786.339	55.75
786.644	56.74
786.95	55.64
787.255	61.33
787.561	62.33
787.866	59.31
788.172	59.7
788.477	57.02
788.782	62.24
789.088	56.17
789.393	55.9
789.698	57.39
790.003	61.26
790.308	57.89
790.613	56.25
790.918	60
791.223	55.77
791.527	58.06
791.832	60.05
792.137	60.11
792.441	59.29
792.746	56.19
793.05	58.61
793.355	62.79
793.659	58.37
793.963	58.55
794.268	56.14
794.572	58.59
794.876	55.87
795.18	58.97
795.484	56.93
795.788	56.34
796.092	61.78
796.396	58.9
796.7	57.84
797.004	54.35
797.307	54.57
797.611	61.82
797.915	55.83
798.218	59.19
798.522	60.48
798.825	58.64
799.128	61.14
799.432	55.27
799.735	59.8
800.038	58.67
800.341	54.82
800.644	58.64
800.947	63.3
801.25	60.66
801.553	64.52
801.856	61.29
802.159	60.91
802.462	60.58
802.764	62.98
803.067	61.36
803.37	55.23
803.672	58.8
803.975	58.84
804.277	61.27
804.579	62.3
804.882	55.91
805.184	58.07
805.486	56.56
805.788	63.97
806.09	58.79
806.392	63.53
806.694	61.37
806.996	61.91
807.298	62.85
807.6	56.62
807.902	58.85
808.203	61.05
808.505	58.28
808.807	61.85
809.108	56.8
809.409	62.05
809.711	57.12
810.012	59.65
810.313	65.92
810.615	60.51
810.916	55.72
811.217	56.86
811.518	54.79
811.819	60.76
812.12	59.48
812.421	58.98
812.722	55.15
813.023	64.01
813.323	61.76
813.624	59.73
813.925	57.6
814.225	59.23
814.526	61.06
814.826	49.7
815.126	59.25
815.427	60.07
815.727	61.95
816.027	53.2
816.327	54.13
816.627	63.11
816.927	58.13
817.227	55.78
817.527	60.36
817.827	55.46
818.127	61.73
818.427	64.56
818.727	64.96
819.026	63.91
819.326	58.1
819.625	65.41
819.925	62.84
820.224	59.86
820.524	54.05
820.823	60.5
821.122	58.01
821.421	52.89
821.72	63.15
822.019	64.02
822.318	57.56
822.617	56.11
822.916	59.56
823.215	59.53
823.514	59.99
823.813	61.99
824.111	60.42
824.41	61.93
824.709	60.39
825.007	61.28
825.306	61.68
825.604	62.04
825.902	61.51
826.201	61.05
826.499	61.19
826.797	60.27
827.095	61.14
827.393	61.01
827.691	59.72
827.989	58.97
828.287	58.92
828.585	61.43
828.882	60.69
829.18	58.18
829.478	61.99
829.775	59.31
830.073	61.98
830.37	61.57
830.668	60.62
830.965	60.95
831.263	61.49
831.56	59.02
831.857	60.53
832.154	62.58
832.451	60.12
832.748	60.73
833.045	64.28
833.342	58.04
833.639	58.65
833.936	58.38
834.232	59.64
834.529	58.27
834.826	60.75
835.122	59.69
835.419	53.9
835.715	64.07
836.012	60.13
836.308	63.07
836.604	60.73
836.901	63.97
837.197	63.84
837.493	60.52
837.789	60.51
838.085	60.85
838.381	60.46
838.677	59.87
838.972	59.47
839.268	66.05
839.564	56.28
839.86	62.22
840.155	61.12
840.451	62.98
840.746	63.01
841.042	52.12
841.337	64.31
841.632	54.26
841.928	57.14
842.223	66.09
842.518	61.88
842.813	62.15
843.108	66.82
843.403	55.4
843.698	59.05
843.993	61.89
844.287	67.91
844.582	64.45
844.877	58.8
845.171	57.77
845.466	56.66
845.761	46.74
846.055	55.66
846.349	52.6
846.644	52.65
846.938	53.33
847.232	52.55
847.526	68.57
847.82	47.55
848.114	61.14
848.408	58.53
848.702	48.12
848.996	62.31
849.29	47.96
849.584	53.39
849.877	58.63
850.171	49.23
850.465	56.93
850.758	46.25
851.052	49.25
851.345	74.17
851.638	63.15
851.932	53.2
852.225	59.4
852.518	60.31
852.811	43.32
853.104	66.15
853.397	63.16
853.69	70.67
853.983	60.07
854.276	70.85
854.569	67.49
854.861	44.47
855.154	52.45
855.447	44.82
855.739	55.91
856.032	43.59
856.324	59.84
856.616	68.76
856.909	59.62
857.201	79.31
857.493	37.01
857.785	60.64
858.077	72.83
858.369	63.52
858.661	85.32
858.953	72.84
859.245	62.06
859.537	56.52
859.829	54.15
860.12	72.69
860.412	40.93
860.703	42.2
860.995	49.65
861.286	49.4
861.578	65.1
861.869	43.16
862.16	78.1
862.452	35.82
862.743	68.13
863.034	69.73
863.325	64.52
863.616	49.18
863.907	55.15
864.198	54.39
864.488	53.6
864.779	68.87
865.07	41.86
865.36	71.73
865.651	51.83
865.941	60.98
866.232	43.51
866.522	74.47
866.813	49.1
867.103	77.09
867.393	56.34
867.683	69.96
867.973	50.09
868.263	64.84
868.553	65.31
868.843	60.58
869.133	56.7
869.423	55.01
869.713	67.25
870.002	57.77
870.292	71.99
870.582	34.92
870.871	38.58
871.161	47.98
871.45	56.07
871.739	53.66
872.029	51.56
872.318	60.98
872.607	66.55
872.896	23.92
873.185	45.27
873.474	43.94
873.763	69.78
874.052	37.77
874.341	54.11
874.63	54.22
874.918	47.95
875.207	62.27
875.496	55
875.784	65.6
876.073	76.33
876.361	67.5
876.649	53.07
876.938	52.88
877.226	55.24
877.514	58.03
877.802	62.34
878.09	59.41
878.378	50.63
878.666	61.05
878.954	63.23
879.242	65.57
879.53	59.08
879.817	54.25
880.105	51.16
880.392	54.92
880.68	71.16
880.967	57.81
881.255	73.66
881.542	78.54
881.83	75.2
882.117	57.33
882.404	39.51
882.691	42.85
882.978	46.46
883.265	76.38
883.552	44.02
883.839	61.21
884.126	80.2
884.413	79.62
884.699	68.8
884.986	74.26
885.273	53.97
885.559	53.97
885.846	53.97
