Data from 1610-3_forehead_Reflection__0__136.txt Node

Date: Fri Nov 11 17:09:58 CST 2022
User: ToomeyLab
Spectrometer: FLMS14357
Trigger mode: 0
Integration Time (sec): 1.000000E-2
Scans to average: 100
Electric dark correction enabled: true
Nonlinearity correction enabled: false
Boxcar width: 0
XAxis mode: Wavelengths
Number of Pixels in Spectrum: 2048
>>>>>Begin Spectral Data<<<<<
189.047	44.18
189.435	44.18
189.823	44.18
190.211	-98.47
190.599	76.82
190.987	72.49
191.375	111.46
191.763	90.42
192.151	-440.57
192.538	-190.31
192.926	71.32
193.314	-162.98
193.702	-10.81
194.089	-773.29
194.477	-8.26
194.864	149.82
195.252	122.35
195.639	63.89
196.027	53.85
196.414	133.05
196.801	106.34
197.189	265.81
197.576	-413.9
197.963	-67.67
198.351	38.35
198.738	-17.06
199.125	9.56
199.512	32.08
199.899	32.97
200.286	28.06
200.673	-1.25
201.06	2.38
201.447	34.87
201.833	56.31
202.22	33.29
202.607	29.05
202.994	24.08
203.38	45.74
203.767	49.59
204.154	-47.09
204.54	41.02
204.927	72.29
205.313	27.73
205.699	17.86
206.086	-1.68
206.472	3.57
206.858	27.97
207.245	11.96
207.631	31.82
208.017	14.41
208.403	16.37
208.789	-31.95
209.175	10.2
209.561	58.35
209.947	27.83
210.333	11.14
210.719	28.05
211.105	26.75
211.491	-127.39
211.876	21.08
212.262	-15.53
212.648	25.88
213.034	-0.7
213.419	35.45
213.805	23.14
214.19	-4.89
214.576	14.98
214.961	25.63
215.346	-64.6
215.732	-36.79
216.117	11.95
216.502	1.41
216.888	1.18
217.273	9.32
217.658	-3.54
218.043	-15.19
218.428	-35.58
218.813	22.11
219.198	7.84
219.583	10.83
219.968	41.77
220.353	-7.97
220.738	-16.44
221.122	-10.5
221.507	29.84
221.892	9.15
222.276	3.5
222.661	-5.49
223.046	21.34
223.43	1.75
223.815	3.37
224.199	12.94
224.583	2.54
224.968	19.8
225.352	-11.01
225.736	8.98
226.121	5.05
226.505	11.47
226.889	2.67
227.273	0.9
227.657	-2.94
228.041	1.02
228.425	11.52
228.809	8.48
229.193	1.21
229.577	5.66
229.961	3.71
230.344	3
230.728	3.41
231.112	2.83
231.495	3.69
231.879	5.28
232.263	2.17
232.646	1.45
233.03	2.69
233.413	2.66
233.797	3.73
234.18	2.39
234.563	5.09
234.946	1.78
235.33	2.34
235.713	4.34
236.096	1.54
236.479	2.16
236.862	4.1
237.245	3.38
237.628	3.3
238.011	3.34
238.394	2.55
238.777	3.44
239.16	4.47
239.543	3.42
239.925	5.37
240.308	2.7
240.691	3.29
241.073	3.58
241.456	2.59
241.838	3.49
242.221	3.62
242.603	2.77
242.986	2.87
243.368	3.52
243.75	3.04
244.133	3.52
244.515	3.29
244.897	2.81
245.279	2.35
245.661	3.47
246.043	3.59
246.425	5.02
246.807	3.92
247.189	2.05
247.571	2.63
247.953	3.21
248.335	3.34
248.717	3.45
249.098	2.93
249.48	3.22
249.862	3.04
250.243	3.19
250.625	2.91
251.006	3.23
251.388	3.4
251.769	3.41
252.151	3.64
252.532	3.76
252.913	2.17
253.295	2.72
253.676	3.14
254.057	3.04
254.438	3.85
254.819	4.05
255.2	4.19
255.581	3.43
255.962	3.61
256.343	4.64
256.724	3.27
257.105	3.54
257.486	4.43
257.867	2.92
258.247	3.86
258.628	2.92
259.009	3.71
259.389	3.31
259.77	4.17
260.15	3.6
260.531	3.06
260.911	3.16
261.292	3.49
261.672	3.11
262.052	3.01
262.432	3.59
262.813	3.44
263.193	2.91
263.573	3.9
263.953	3.53
264.333	3.68
264.713	3.18
265.093	3.27
265.473	4.33
265.853	2.24
266.233	2.47
266.612	3.64
266.992	2.81
267.372	3.02
267.752	3.38
268.131	3.15
268.511	3.05
268.89	3.56
269.27	2.85
269.649	3.17
270.029	3.05
270.408	3.24
270.787	3.18
271.167	3.29
271.546	3.49
271.925	3.59
272.304	3.36
272.683	3.3
273.062	3.16
273.441	3.15
273.82	2.74
274.199	3.22
274.578	3.34
274.957	2.57
275.336	3.15
275.715	3.08
276.093	3.42
276.472	3.17
276.851	3.65
277.229	3.09
277.608	2.97
277.986	3.2
278.365	3.59
278.743	3.05
279.122	2.82
279.5	2.15
279.878	2.59
280.257	3.36
280.635	3.04
281.013	3.01
281.391	3.22
281.769	3.73
282.147	2.69
282.525	2.78
282.903	3.51
283.281	2.7
283.659	2.96
284.037	3.49
284.415	2.86
284.792	2.8
285.17	2.94
285.548	3.47
285.925	3.21
286.303	3.13
286.68	2.99
287.058	3.06
287.435	3.33
287.813	3.06
288.19	3.12
288.567	3.41
288.945	2.54
289.322	2.81
289.699	3.26
290.076	2.51
290.453	3.32
290.83	3.4
291.207	3.29
291.584	3.1
291.961	3.15
292.338	3.41
292.715	3.28
293.092	3.39
293.469	3.43
293.845	3.88
294.222	3.52
294.599	3.6
294.975	3.12
295.352	2.98
295.728	3.03
296.105	3.3
296.481	3.07
296.858	3.53
297.234	3.59
297.61	3.39
297.986	3.3
298.363	3.63
298.739	3.49
299.115	3.4
299.491	3.82
299.867	3.51
300.243	3.25
300.619	3.95
300.995	3.88
301.371	3.27
301.746	3.52
302.122	3.68
302.498	3.25
302.874	3.61
303.249	3.9
303.625	4.03
304	3.51
304.376	4.07
304.751	4.44
305.127	4.34
305.502	4.06
305.878	4.66
306.253	4.66
306.628	4.58
307.003	4.2
307.378	4.31
307.754	4.4
308.129	4.44
308.504	3.94
308.879	4.22
309.254	3.78
309.629	4.54
310.003	4.56
310.378	4.15
310.753	3.98
311.128	4.69
311.502	4.03
311.877	4.7
312.252	4.43
312.626	4.46
313.001	4.5
313.375	4.98
313.75	4.93
314.124	5.02
314.498	5.02
314.873	4.62
315.247	4.88
315.621	4.34
315.995	5.2
316.369	4.99
316.743	4.95
317.117	5.04
317.491	5.25
317.865	5.53
318.239	5.66
318.613	5.38
318.987	5.52
319.361	5.61
319.734	5.26
320.108	5.19
320.482	5.02
320.855	4.96
321.229	5.47
321.602	4.62
321.976	5.09
322.349	5.44
322.723	5.8
323.096	5.64
323.469	5.29
323.843	5.92
324.216	5.72
324.589	5.86
324.962	5.58
325.335	6.16
325.708	5.78
326.081	5.68
326.454	5.87
326.827	6.36
327.2	5.68
327.573	6.2
327.945	5.64
328.318	5.89
328.691	6.07
329.063	6.1
329.436	5.93
329.809	5.69
330.181	6.39
330.553	6.5
330.926	5.9
331.298	5.75
331.671	6.27
332.043	6.72
332.415	6.25
332.787	6.74
333.159	6.54
333.532	6.33
333.904	6.86
334.276	6.43
334.648	6.42
335.02	7.07
335.391	6.51
335.763	6.94
336.135	6.28
336.507	6.63
336.879	6.86
337.25	6
337.622	6.76
337.993	6.93
338.365	6.75
338.736	6.78
339.108	6.59
339.479	7.03
339.851	6.65
340.222	7.05
340.593	6.69
340.964	6.79
341.336	6.75
341.707	6.83
342.078	6.73
342.449	7.17
342.82	7.32
343.191	7.4
343.562	7.61
343.933	6.97
344.303	7.81
344.674	7.14
345.045	7.12
345.416	7.34
345.786	7.7
346.157	6.99
346.527	7.63
346.898	7.05
347.268	7.54
347.639	7.73
348.009	7.42
348.38	7.63
348.75	7.92
349.12	7.77
349.49	7.69
349.861	7.03
350.231	7.65
350.601	8.01
350.971	7.99
351.341	7.63
351.711	7.82
352.081	7.04
352.45	7.74
352.82	7.96
353.19	7.82
353.56	7.79
353.929	8.1
354.299	7.96
354.669	8.41
355.038	8.07
355.408	7.93
355.777	8.1
356.147	8.31
356.516	8.01
356.885	8.05
357.254	8
357.624	8.26
357.993	8.27
358.362	8.08
358.731	8.12
359.1	8.21
359.469	8.31
359.838	8.38
360.207	8.51
360.576	8.38
360.945	8.64
361.314	8.71
361.682	8.5
362.051	8.41
362.42	8.24
362.788	8.57
363.157	8.7
363.525	8.69
363.894	8.56
364.262	8.36
364.631	8.56
364.999	8.72
365.367	8.71
365.735	8.75
366.104	8.47
366.472	8.86
366.84	9.12
367.208	8.82
367.576	8.66
367.944	9.32
368.312	8.92
368.68	9.18
369.048	8.89
369.416	8.91
369.783	9.07
370.151	9.25
370.519	9.26
370.886	9.31
371.254	9.04
371.621	9.19
371.989	9.11
372.356	9.04
372.724	9.33
373.091	9.31
373.458	9.05
373.826	9.3
374.193	9.54
374.56	9.45
374.927	9.23
375.294	9.74
375.661	9.83
376.028	9.45
376.395	9.66
376.762	9.43
377.129	9.74
377.496	9.49
377.863	9.69
378.229	9.96
378.596	9.46
378.963	9.69
379.329	9.61
379.696	9.98
380.062	9.92
380.429	9.82
380.795	9.47
381.161	10.1
381.528	9.92
381.894	9.93
382.26	9.9
382.626	10.11
382.993	10.21
383.359	9.84
383.725	10.39
384.091	10.32
384.457	10.12
384.823	10.25
385.188	10.43
385.554	10.42
385.92	10.17
386.286	10.28
386.651	10.25
387.017	10.31
387.383	10.36
387.748	10.15
388.114	10.26
388.479	10.58
388.845	10.43
389.21	10.68
389.575	10.34
389.94	10.77
390.306	10.64
390.671	10.59
391.036	10.67
391.401	10.59
391.766	10.74
392.131	10.53
392.496	10.76
392.861	10.61
393.226	10.67
393.591	10.59
393.956	10.9
394.32	10.96
394.685	11.02
395.05	11.23
395.414	11.03
395.779	10.83
396.143	10.98
396.508	10.94
396.872	11.4
397.236	11.18
397.601	11.22
397.965	11.27
398.329	10.96
398.694	11.12
399.058	11.07
399.422	11.24
399.786	11.23
400.15	11.2
400.514	11.4
400.878	11.3
401.242	11.24
401.605	11.61
401.969	11.59
402.333	11.7
402.697	11.41
403.06	11.59
403.424	11.27
403.787	11.41
404.151	11.29
404.514	11.78
404.878	11.84
405.241	11.36
405.604	11.52
405.968	11.83
406.331	11.69
406.694	11.57
407.057	11.74
407.42	11.7
407.783	11.66
408.146	11.87
408.509	11.66
408.872	11.98
409.235	12.03
409.598	11.94
409.961	11.68
410.323	12.05
410.686	11.86
411.049	11.95
411.411	11.83
411.774	11.85
412.136	12.09
412.499	12.22
412.861	11.78
413.223	11.99
413.586	12.02
413.948	12.02
414.31	12.2
414.672	12.07
415.035	12.32
415.397	12.43
415.759	12.2
416.121	12.41
416.483	12.23
416.845	12.07
417.206	12.44
417.568	12.26
417.93	12.2
418.292	12.24
418.653	12.19
419.015	12.2
419.377	12.41
419.738	12.31
420.1	12.34
420.461	12.23
420.822	12.33
421.184	12.28
421.545	12.34
421.906	12.41
422.267	12.39
422.629	12.45
422.99	12.34
423.351	12.37
423.712	12.46
424.073	12.57
424.434	12.51
424.795	12.75
425.155	12.63
425.516	12.73
425.877	12.57
426.238	12.66
426.598	12.65
426.959	12.75
427.32	12.77
427.68	12.86
428.041	13.1
428.401	12.98
428.761	13.05
429.122	13.24
429.482	13.23
429.842	13.16
430.202	13.09
430.563	13.43
430.923	13.39
431.283	13.62
431.643	13.54
432.003	13.49
432.363	13.43
432.722	13.49
433.082	13.39
433.442	13.61
433.802	13.44
434.161	13.51
434.521	13.62
434.881	13.5
435.24	13.5
435.6	13.44
435.959	13.64
436.319	13.7
436.678	13.74
437.037	13.71
437.396	13.67
437.756	13.76
438.115	13.72
438.474	13.81
438.833	13.87
439.192	14
439.551	13.87
439.91	13.94
440.269	13.91
440.628	14.05
440.987	14.04
441.345	14.05
441.704	13.99
442.063	14.18
442.421	13.93
442.78	14
443.138	14.14
443.497	14.08
443.855	14.09
444.214	14.29
444.572	14.45
444.93	14.37
445.288	14.45
445.647	14.12
446.005	14.47
446.363	14.39
446.721	14.41
447.079	14.39
447.437	14.35
447.795	14.23
448.153	14.37
448.51	14.39
448.868	14.41
449.226	14.45
449.584	14.56
449.941	14.42
450.299	14.55
450.656	14.77
451.014	14.86
451.371	14.71
451.729	14.79
452.086	14.81
452.443	14.89
452.801	14.99
453.158	14.86
453.515	14.94
453.872	15.12
454.229	15.07
454.586	15.09
454.943	15.01
455.3	15.09
455.657	15.29
456.014	15.14
456.371	15.21
456.727	15.18
457.084	15.18
457.441	15.21
457.797	15.23
458.154	15.27
458.51	15.41
458.867	15.66
459.223	15.37
459.58	15.66
459.936	15.54
460.292	15.51
460.648	15.52
461.005	15.53
461.361	15.34
461.717	15.24
462.073	15.33
462.429	15.43
462.785	15.48
463.141	15.54
463.496	15.67
463.852	15.73
464.208	15.84
464.564	15.98
464.919	15.92
465.275	15.86
465.631	15.81
465.986	15.88
466.342	16.1
466.697	16.19
467.052	16.03
467.408	15.97
467.763	15.99
468.118	16.14
468.473	16.1
468.829	16.12
469.184	16.23
469.539	16.21
469.894	16.2
470.249	16.22
470.603	16.23
470.958	16.5
471.313	16.46
471.668	16.35
472.023	16.62
472.377	16.59
472.732	16.57
473.086	16.4
473.441	16.37
473.795	16.8
474.15	16.39
474.504	16.71
474.859	16.63
475.213	16.64
475.567	16.69
475.921	16.81
476.275	16.89
476.63	16.75
476.984	16.77
477.338	16.69
477.692	16.88
478.045	17
478.399	16.8
478.753	16.81
479.107	16.96
479.461	16.87
479.814	17.09
480.168	17.01
480.521	17.04
480.875	17.22
481.228	17.03
481.582	17.17
481.935	17.12
482.289	17.18
482.642	17.18
482.995	17.19
483.348	16.93
483.701	17.05
484.055	16.99
484.408	16.95
484.761	16.75
485.114	16.53
485.466	16.37
485.819	16.42
486.172	16.52
486.525	16.58
486.878	16.65
487.23	16.9
487.583	17
487.936	17.11
488.288	16.99
488.641	16.91
488.993	16.84
489.345	16.79
489.698	16.89
490.05	16.86
490.402	17.02
490.754	17.19
491.107	17.29
491.459	17.4
491.811	17.55
492.163	17.51
492.515	17.49
492.866	17.35
493.218	17.18
493.57	17.12
493.922	17.25
494.274	17.43
494.625	17.53
494.977	17.69
495.328	17.88
495.68	17.93
496.031	18.05
496.383	18.16
496.734	18.23
497.086	18.21
497.437	18.24
497.788	18.28
498.139	18.2
498.49	18.15
498.842	18.27
499.193	18.22
499.544	18.36
499.894	18.33
500.245	18.3
500.596	18.49
500.947	18.4
501.298	18.57
501.648	18.69
501.999	18.47
502.35	18.62
502.7	18.89
503.051	18.59
503.401	18.53
503.752	18.7
504.102	18.79
504.452	18.9
504.803	18.88
505.153	19.09
505.503	18.67
505.853	18.84
506.203	18.97
506.553	18.99
506.903	18.89
507.253	19.03
507.603	19.16
507.953	19.03
508.303	19.15
508.652	19.14
509.002	19.2
509.352	19.18
509.701	19.15
510.051	19.05
510.4	19.07
510.75	19.08
511.099	18.98
511.449	19.19
511.798	19.07
512.147	19.13
512.496	19.33
512.846	19.15
513.195	19.22
513.544	19.34
513.893	19.29
514.242	19.35
514.591	19.28
514.939	19.42
515.288	19.48
515.637	19.47
515.986	19.57
516.334	19.64
516.683	19.69
517.032	19.75
517.38	19.71
517.729	19.64
518.077	19.68
518.426	19.79
518.774	19.68
519.122	19.69
519.47	19.57
519.819	19.38
520.167	19.52
520.515	19.52
520.863	19.55
521.211	19.6
521.559	19.55
521.907	19.76
522.255	20.06
522.602	19.98
522.95	20.11
523.298	20.11
523.645	20.1
523.993	20.15
524.341	20.07
524.688	20.29
525.036	20.14
525.383	20.24
525.73	20.11
526.078	20.19
526.425	20.07
526.772	20.05
527.119	19.91
527.466	19.88
527.814	19.91
528.161	19.97
528.508	20.08
528.854	20.06
529.201	19.97
529.548	19.93
529.895	19.67
530.242	19.61
530.588	19.58
530.935	19.67
531.282	19.85
531.628	19.74
531.975	19.93
532.321	20.05
532.667	20.27
533.014	20.32
533.36	20.34
533.706	20.41
534.052	20.45
534.399	20.26
534.745	20.16
535.091	20.15
535.437	20.25
535.783	20.28
536.129	20.4
536.474	20.51
536.82	20.63
537.166	20.79
537.512	20.78
537.857	20.89
538.203	20.68
538.549	20.6
538.894	20.71
539.239	20.85
539.585	20.86
539.93	21.07
540.276	21.16
540.621	21.05
540.966	21.15
541.311	21.29
541.656	21.03
542.001	21.2
542.346	21.01
542.691	20.75
543.036	20.59
543.381	20.55
543.726	20.75
544.071	20.81
544.415	20.99
544.76	20.96
545.105	21.1
545.449	21.14
545.794	21.25
546.138	21.35
546.483	21.44
546.827	21.52
547.171	21.51
547.516	21.46
547.86	21.63
548.204	21.46
548.548	21.59
548.892	21.44
549.236	21.5
549.58	21.74
549.924	21.81
550.268	22.04
550.612	21.99
550.956	22.14
551.3	22.31
551.643	22.19
551.987	22.26
552.33	22.1
552.674	22.11
553.017	22.23
553.361	22.25
553.704	22.38
554.048	22.28
554.391	22.19
554.734	22.18
555.077	22.41
555.42	22.39
555.764	22.45
556.107	22.34
556.45	22.54
556.793	22.76
557.135	22.45
557.478	22.69
557.821	22.73
558.164	22.86
558.507	22.74
558.849	22.69
559.192	22.65
559.534	22.84
559.877	23.17
560.219	23.03
560.562	22.91
560.904	22.86
561.246	22.87
561.589	22.72
561.931	22.97
562.273	23.19
562.615	23.17
562.957	23.11
563.299	23.14
563.641	23.27
563.983	23.18
564.325	23.19
564.667	23.36
565.008	23.26
565.35	23.25
565.692	23.25
566.033	23.26
566.375	23.13
566.716	23.45
567.058	23.2
567.399	23.21
567.741	23.29
568.082	23.19
568.423	23.21
568.764	23.37
569.105	23.5
569.447	23.42
569.788	23.7
570.129	23.68
570.47	23.45
570.811	23.53
571.151	23.83
571.492	23.52
571.833	23.72
572.174	23.72
572.514	23.5
572.855	23.67
573.195	23.77
573.536	23.76
573.876	23.66
574.217	23.6
574.557	23.69
574.898	23.84
575.238	23.95
575.578	23.96
575.918	23.88
576.258	23.97
576.598	24.02
576.938	24.11
577.278	24.02
577.618	23.93
577.958	24.06
578.298	24.15
578.638	24.17
578.977	24
579.317	24.07
579.657	24.36
579.996	24.27
580.336	24.45
580.675	24.39
581.014	24.46
581.354	24.53
581.693	24.48
582.032	24.78
582.372	24.57
582.711	24.67
583.05	24.62
583.389	24.64
583.728	24.91
584.067	24.56
584.406	24.9
584.745	25.03
585.083	24.84
585.422	24.85
585.761	24.78
586.1	25.01
586.438	24.84
586.777	24.77
587.115	24.85
587.454	25.29
587.792	25.22
588.13	25.19
588.469	24.91
588.807	25.02
589.145	25.16
589.483	25.12
589.821	24.95
590.159	25.18
590.497	25.26
590.835	25.18
591.173	25.29
591.511	25.25
591.849	25.2
592.187	25.22
592.524	25.61
592.862	25.34
593.2	25.52
593.537	25.2
593.875	25.46
594.212	25.48
594.55	25.63
594.887	25.66
595.224	25.65
595.561	25.4
595.899	25.41
596.236	25.47
596.573	25.62
596.91	25.46
597.247	25.68
597.584	25.58
597.921	25.58
598.258	25.73
598.594	25.51
598.931	25.39
599.268	25.31
599.604	25.69
599.941	25.8
600.277	25.77
600.614	25.92
600.95	25.86
601.287	25.94
601.623	25.96
601.959	26.1
602.296	25.91
602.632	25.99
602.968	26.2
603.304	26.1
603.64	25.77
603.976	26.17
604.312	25.92
604.648	25.82
604.984	26
605.319	26.21
605.655	25.94
605.991	25.82
606.326	26.27
606.662	25.94
606.998	26.2
607.333	26.14
607.668	26.17
608.004	26.39
608.339	26.59
608.674	26.42
609.01	26.1
609.345	26.29
609.68	26.47
610.015	26.59
610.35	26.76
610.685	26.44
611.02	26.41
611.355	26.44
611.689	26.75
612.024	26.57
612.359	26.16
612.694	26.55
613.028	26.73
613.363	26.83
613.697	26.7
614.032	27.03
614.366	26.45
614.7	26.99
615.035	27.26
615.369	27.02
615.703	27.05
616.037	27.11
616.371	26.88
616.705	26.95
617.039	27.1
617.373	27.09
617.707	27.41
618.041	27.41
618.375	27.4
618.709	27.09
619.042	27.38
619.376	27.23
619.71	27.2
620.043	27.17
620.377	27.23
620.71	27.39
621.043	27.56
621.377	26.94
621.71	27.71
622.043	27.28
622.376	27.11
622.709	27.48
623.043	27.82
623.376	27.49
623.709	27.59
624.041	27.58
624.374	28.02
624.707	27.61
625.04	27.63
625.373	27.65
625.705	27.68
626.038	27.83
626.37	27.45
626.703	28.01
627.035	27.87
627.368	27.7
627.7	27.77
628.032	27.84
628.365	28.09
628.697	28.48
629.029	27.57
629.361	27.93
629.693	27.75
630.025	27.89
630.357	28.06
630.689	28.31
631.021	27.78
631.353	28.13
631.684	28.12
632.016	27.72
632.348	28.11
632.679	28.32
633.011	27.94
633.342	28.08
633.674	28.19
634.005	28.6
634.336	28.17
634.668	28.18
634.999	28.14
635.33	28.2
635.661	28.46
635.992	28.25
636.323	28.39
636.654	28.43
636.985	28.29
637.316	28.17
637.647	28.59
637.977	28.33
638.308	28.32
638.639	28.51
638.969	29.12
639.3	28.64
639.63	28.78
639.961	28.49
640.291	28.7
640.622	28.51
640.952	28.71
641.282	28.7
641.612	28.54
641.943	29.05
642.273	29.03
642.603	29.1
642.933	28.34
643.263	28.65
643.592	29.19
643.922	28.91
644.252	28.88
644.582	29.05
644.911	29.07
645.241	29.3
645.571	29.19
645.9	29.34
646.23	28.98
646.559	28.86
646.888	29.27
647.218	29.02
647.547	29.55
647.876	28.82
648.205	28.97
648.534	29.52
648.863	29.08
649.192	29.39
649.521	29.26
649.85	29.14
650.179	29.38
650.508	29.52
650.837	29.96
651.165	29.73
651.494	29.56
651.822	29.17
652.151	29.51
652.479	29.62
652.808	29.58
653.136	29.53
653.465	29.63
653.793	29.96
654.121	29.84
654.449	29.63
654.777	29.83
655.105	29.69
655.433	29.44
655.761	29.59
656.089	29.81
656.417	29.98
656.745	29.57
657.073	30.19
657.4	29.56
657.728	29.83
658.056	30.14
658.383	29.5
658.711	30.3
659.038	30.28
659.365	29.73
659.693	29.65
660.02	30.06
660.347	29.87
660.674	29.77
661.001	29.94
661.329	29.83
661.656	29.77
661.982	30.37
662.309	30.11
662.636	30.33
662.963	30.12
663.29	30.58
663.616	30.52
663.943	30.36
664.27	30.55
664.596	30.51
664.923	30.82
665.249	30.43
665.576	29.77
665.902	30.41
666.228	30.2
666.554	30.1
666.881	30.64
667.207	30.56
667.533	30.52
667.859	30.38
668.185	30
668.511	30.78
668.837	30.55
669.162	30.46
669.488	30.28
669.814	30.32
670.139	30.66
670.465	30.64
670.791	30.56
671.116	30.79
671.442	30.41
671.767	30.39
672.092	30.65
672.418	30.28
672.743	31.03
673.068	30.69
673.393	30.28
673.718	30.73
674.043	30.49
674.368	30.84
674.693	31.24
675.018	30.73
675.343	31.12
675.667	31.26
675.992	30.69
676.317	30.88
676.641	30.36
676.966	30.88
677.29	31.13
677.615	30.6
677.939	31.18
678.264	30.97
678.588	31.2
678.912	31.09
679.236	30.84
679.56	30.72
679.885	30.82
680.209	31.01
680.532	30.86
680.856	31.23
681.18	30.91
681.504	31.63
681.828	30.81
682.152	31.25
682.475	31.02
682.799	31.53
683.122	31.73
683.446	31.31
683.769	31.41
684.093	31.2
684.416	31.73
684.739	31.65
685.062	31.29
685.386	31.44
685.709	31.55
686.032	31.29
686.355	31.76
686.678	31.67
687.001	32.67
687.324	31.84
687.646	31.55
687.969	31.57
688.292	32.19
688.614	32.09
688.937	31.21
689.26	31.39
689.582	32.15
689.904	31.2
690.227	31.68
690.549	31.39
690.871	32.31
691.194	32.31
691.516	31.87
691.838	31.45
692.16	32.4
692.482	32
692.804	32.1
693.126	32.38
693.448	32.24
693.769	32.08
694.091	30.97
694.413	31.9
694.735	32.42
695.056	31.73
695.378	31.45
695.699	31.91
696.021	32.49
696.342	32.47
696.663	32.67
696.984	32.06
697.306	32.43
697.627	31.8
697.948	32.65
698.269	32.43
698.59	32.56
698.911	31.9
699.232	32.23
699.553	32.14
699.873	33.32
700.194	32.07
700.515	31.95
700.835	31.7
701.156	32.65
701.477	32.85
701.797	32.61
702.117	32.25
702.438	32.08
702.758	32.69
703.078	32.45
703.398	32.08
703.719	32.53
704.039	33.05
704.359	32.35
704.679	31.32
704.999	33.25
705.319	33.22
705.638	32.89
705.958	31.61
706.278	32.68
706.597	32.48
706.917	32.26
707.237	32.45
707.556	32.32
707.876	32.6
708.195	32.72
708.514	30.92
708.834	33.06
709.153	33.79
709.472	32.7
709.791	32.96
710.11	31.92
710.429	31.67
710.748	32.41
711.067	31.91
711.386	32.97
711.705	32.94
712.023	32.42
712.342	33.48
712.661	34
712.979	32.84
713.298	32.83
713.616	32.98
713.935	33
714.253	33.25
714.572	32.54
714.89	33.33
715.208	32.85
715.526	32.35
715.844	33.43
716.162	32.88
716.48	32.59
716.798	32.95
717.116	32.85
717.434	33.27
717.752	33.66
718.069	33.36
718.387	33.37
718.705	32.57
719.022	33.04
719.34	33.92
719.657	32.52
719.975	33.65
720.292	33.21
720.609	33.43
720.927	33.81
721.244	33.27
721.561	33.58
721.878	33.61
722.195	33.22
722.512	33.21
722.829	33.59
723.146	32.59
723.463	32.74
723.779	33.41
724.096	33.91
724.413	33.07
724.729	32.61
725.046	33.08
725.362	32.56
725.679	32.34
725.995	34.23
726.311	33.46
726.628	33.7
726.944	33.28
727.26	34.1
727.576	32.75
727.892	32.81
728.208	34.88
728.524	33.58
728.84	33.15
729.156	34.27
729.472	33.69
729.787	32.81
730.103	33.25
730.419	34.06
730.734	34.02
731.05	33.71
731.365	32.31
731.681	32.48
731.996	32.32
732.311	34.18
732.626	33.66
732.942	33.05
733.257	34.26
733.572	33.99
733.887	33.48
734.202	33.82
734.517	33.98
734.832	35.07
735.146	32.64
735.461	33.85
735.776	33.09
736.091	33.68
736.405	34.91
736.72	32.95
737.034	32.66
737.349	34.58
737.663	33.3
737.977	34.8
738.292	32.97
738.606	34.66
738.92	34.61
739.234	33.66
739.548	33.53
739.862	34.11
740.176	34.54
740.49	34.48
740.804	32.46
741.117	35.12
741.431	33.51
741.745	33.88
742.058	34.55
742.372	33.45
742.685	33.93
742.999	32.81
743.312	33.93
743.626	34.73
743.939	34.31
744.252	31.91
744.565	35.25
744.878	35.22
745.191	35.22
745.505	35.07
745.817	33.92
746.13	33.36
746.443	33.18
746.756	33.16
747.069	33.83
747.381	36.09
747.694	34.73
748.007	34.33
748.319	35.06
748.632	35.77
748.944	35.15
749.256	33.49
749.569	34.24
749.881	34.04
750.193	33.92
750.505	34.43
750.817	34.97
751.129	35.37
751.441	34.07
751.753	33.39
752.065	35.64
752.377	34.4
752.689	34.23
753	36.33
753.312	34.32
753.624	34.29
753.935	34.92
754.247	34.54
754.558	34.86
754.869	33.84
755.181	34.5
755.492	34.49
755.803	33.03
756.114	33.95
756.425	35.24
756.736	32.96
757.047	33.35
757.358	35.42
757.669	35.48
757.98	35.11
758.291	33.97
758.601	34.05
758.912	34.64
759.223	35.51
759.533	35.62
759.844	33.63
760.154	35.15
760.464	35.13
760.775	34.4
761.085	34.71
761.395	34.98
761.705	36.02
762.016	34.14
762.326	35.01
762.636	35.56
762.945	35.06
763.255	35.86
763.565	34.03
763.875	35.74
764.185	35.11
764.494	33.17
764.804	35.17
765.113	33.78
765.423	36.91
765.732	35.65
766.042	35.83
766.351	35.13
766.66	35.64
766.97	35.36
767.279	35.35
767.588	36.5
767.897	35.19
768.206	36.32
768.515	35.82
768.824	34.09
769.133	33.76
769.441	36.2
769.75	34.87
770.059	34.91
770.367	36.86
770.676	34.04
770.984	35.23
771.293	33.89
771.601	34.6
771.91	34.64
772.218	36.73
772.526	35.45
772.834	33.06
773.142	35.07
773.45	36.44
773.758	36.29
774.066	34.23
774.374	33.78
774.682	37.05
774.99	33.79
775.298	36.5
775.605	33.14
775.913	34.49
776.22	32.61
776.528	34.94
776.835	37.24
777.143	35.85
777.45	34.19
777.757	35.62
778.065	35.24
778.372	36.14
778.679	35.86
778.986	32.74
779.293	33.84
779.6	35.7
779.907	35.14
780.214	33.3
780.52	35.38
780.827	39.47
781.134	33.74
781.44	33.57
781.747	35.26
782.053	35.53
782.36	35.17
782.666	35.78
782.973	34.06
783.279	31.1
783.585	35.82
783.891	34.48
784.197	37.27
784.503	35.66
784.809	34.71
785.115	34.31
785.421	35.41
785.727	36.73
786.033	36.05
786.339	32.16
786.644	35.91
786.95	33.95
787.255	33.7
787.561	38.52
787.866	35.92
788.172	32.79
788.477	32.07
788.782	35.68
789.088	36.18
789.393	34.85
789.698	36.07
790.003	38.17
790.308	36.58
790.613	34.53
790.918	35.21
791.223	36.32
791.527	35.25
791.832	35.95
792.137	36.7
792.441	33.92
792.746	37.29
793.05	33.39
793.355	36.9
793.659	35.37
793.963	35.78
794.268	34.42
794.572	37.05
794.876	34.86
795.18	36.53
795.484	38.13
795.788	34.04
796.092	35.09
796.396	36.79
796.7	35.46
797.004	34.58
797.307	35.7
797.611	35.1
797.915	37.53
798.218	38.48
798.522	35.29
798.825	33.19
799.128	37.9
799.432	39.96
799.735	38.25
800.038	37.05
800.341	35.78
800.644	33.59
800.947	39.63
801.25	35.77
801.553	38.94
801.856	35.17
802.159	38.83
802.462	38.26
802.764	35.55
803.067	38.69
803.37	32.68
803.672	31.87
803.975	39.65
804.277	33.48
804.579	33.79
804.882	34.13
805.184	36.03
805.486	36.4
805.788	35.65
806.09	33.74
806.392	34.3
806.694	29.46
806.996	41.94
807.298	40.67
807.6	38.07
807.902	34.7
808.203	34.99
808.505	34.41
808.807	36.84
809.108	37.73
809.409	37.49
809.711	36.49
810.012	36.01
810.313	38.49
810.615	30.5
810.916	38.74
811.217	33.67
811.518	33.31
811.819	36.11
812.12	37.29
812.421	35.92
812.722	34.43
813.023	28.64
813.323	35.45
813.624	36.18
813.925	37.1
814.225	40.04
814.526	39.57
814.826	38.56
815.126	34.7
815.427	39.66
815.727	38.21
816.027	29.55
816.327	36.12
816.627	36.03
816.927	33.74
817.227	34.39
817.527	31.08
817.827	33.97
818.127	34.47
818.427	35.25
818.727	29.88
819.026	30.75
819.326	37.32
819.625	33.34
819.925	35.52
820.224	33.16
820.524	29.37
820.823	41.25
821.122	33.79
821.421	37.06
821.72	38.21
822.019	35.44
822.318	36.19
822.617	35.49
822.916	37.74
823.215	35.09
823.514	34.87
823.813	39.41
824.111	36.06
824.41	36.12
824.709	36.84
825.007	38.1
825.306	36.96
825.604	38.26
825.902	38.98
826.201	37.56
826.499	38.05
826.797	37.79
827.095	38.91
827.393	38.14
827.691	37.01
827.989	36.56
828.287	37.69
828.585	38.07
828.882	36.69
829.18	37.62
829.478	36.09
829.775	35.92
830.073	35.89
830.37	38.21
830.668	36.87
830.965	37.12
831.263	38.23
831.56	36.76
831.857	35.24
832.154	37.7
832.451	38.86
832.748	35.76
833.045	35.2
833.342	35.99
833.639	37.37
833.936	38.01
834.232	45.13
834.529	35
834.826	40.06
835.122	37.32
835.419	38.07
835.715	39.79
836.012	36.27
836.308	40.95
836.604	35.55
836.901	38.33
837.197	39.1
837.493	38.77
837.789	37.43
838.085	38.92
838.381	35.27
838.677	34.57
838.972	35.3
839.268	37.67
839.564	38.43
839.86	31.36
840.155	36.47
840.451	35.18
840.746	36.71
841.042	35.24
841.337	35.87
841.632	33.68
841.928	38.9
842.223	34.63
842.518	38.57
842.813	25.24
843.108	38.34
843.403	33.56
843.698	34.78
843.993	36
844.287	40.19
844.582	45.58
844.877	42.32
845.171	37.47
845.466	36.46
845.761	33.44
846.055	38.37
846.349	33.07
846.644	37.89
846.938	24.86
847.232	35.15
847.526	41.71
847.82	32.25
848.114	42.62
848.408	33.24
848.702	27.38
848.996	29.81
849.29	30.05
849.584	36.59
849.877	58.63
850.171	25.75
850.465	12.82
850.758	20.98
851.052	27.92
851.345	34.44
851.638	36.8
851.932	37.64
852.225	40.16
852.518	50.18
852.811	41.48
853.104	48.02
853.397	24.94
853.69	51.4
853.983	23.71
854.276	33.12
854.569	16.79
854.861	50.6
855.154	36.7
855.447	40.75
855.739	47.63
856.032	35.65
856.324	27.7
856.616	30.78
856.909	36.7
857.201	23.29
857.493	40.95
857.785	36.35
858.077	20.01
858.369	46.15
858.661	22.57
858.953	32.08
859.245	22.42
859.537	30.79
859.829	43.53
860.12	32.08
860.412	35.82
860.703	32.31
860.995	40.04
861.286	12.55
861.578	33.03
861.869	37.76
862.16	-23.1
862.452	40.62
862.743	30.16
863.034	36.81
863.325	51.75
863.616	24.71
863.907	26.44
864.198	35.06
864.488	33.6
864.779	38.95
865.07	45.35
865.36	33.45
865.651	6.34
865.941	53.3
866.232	27.16
866.522	13.92
866.813	19.69
867.103	34.45
867.393	19.17
867.683	35.19
867.973	14.24
868.263	34.76
868.553	19.19
868.843	10.7
869.133	10.55
869.423	13.12
869.713	12.79
870.002	23.85
870.292	40.56
870.582	29.82
870.871	-0.37
871.161	41.04
871.45	36.3
871.739	12.88
872.029	36.64
872.318	34.44
872.607	55.33
872.896	22
873.185	21.9
873.474	26.83
873.763	30.96
874.052	26.99
874.341	63.86
874.63	43.66
874.918	51.02
875.207	48.39
875.496	45.43
875.784	38.85
876.073	0.32
876.361	6.65
876.649	41.96
876.938	39.89
877.226	47.36
877.514	9.78
877.802	14.45
878.09	46.18
878.378	56.19
878.666	13.36
878.954	40.2
879.242	37.09
879.53	23.6
879.817	41.46
880.105	37.84
880.392	21.52
880.68	32.35
880.967	-2.22
881.255	41.56
881.542	61.32
881.83	25.02
882.117	34.99
882.404	26.55
882.691	28.8
882.978	26.41
883.265	45.04
883.552	31.18
883.839	40.15
884.126	36.42
884.413	32.5
884.699	35.85
884.986	44.83
885.273	33.6
885.559	33.6
885.846	33.6
