Data from 0160_forehead_Reflection__0__106.txt Node

Date: Fri Sep 22 21:09:39 CDT 2023
User: ToomeyLab
Spectrometer: FLMS14357
Trigger mode: 0
Integration Time (sec): 1.000000E-2
Scans to average: 100
Electric dark correction enabled: true
Nonlinearity correction enabled: false
Boxcar width: 0
XAxis mode: Wavelengths
Number of Pixels in Spectrum: 2048
>>>>>Begin Spectral Data<<<<<
189.047	77.03
189.435	77.03
189.823	77.03
190.211	-22.36
190.599	125.96
190.987	84.14
191.375	284.32
191.763	-9.6
192.151	103.94
192.538	739.45
192.926	141.01
193.314	30.37
193.702	-5.95
194.089	80.21
194.477	32.11
194.864	59.22
195.252	121.33
195.639	39.72
196.027	1858.54
196.414	8.76
196.801	6.79
197.189	-89.95
197.576	132.08
197.963	-957.89
198.351	10.41
198.738	31.43
199.125	31.68
199.512	83.47
199.899	35.67
200.286	42.14
200.673	-13.53
201.06	47.85
201.447	54.55
201.833	35.88
202.22	30.84
202.607	78.96
202.994	57.79
203.38	66.62
203.767	8.28
204.154	33.56
204.54	44.2
204.927	46.96
205.313	27.28
205.699	64.36
206.086	50.78
206.472	66.29
206.858	43.04
207.245	21.1
207.631	71.78
208.017	40
208.403	51.77
208.789	65.78
209.175	48.86
209.561	85.68
209.947	44.23
210.333	48
210.719	-2.85
211.105	47.33
211.491	65.91
211.876	42.61
212.262	48.67
212.648	46.73
213.034	59.16
213.419	16.66
213.805	16.19
214.19	33.8
214.576	25.02
214.961	18.23
215.346	-5.7
215.732	32.04
216.117	14.21
216.502	33.87
216.888	42.81
217.273	24.67
217.658	68.7
218.043	46.73
218.428	48.33
218.813	29.79
219.198	29.48
219.583	36.92
219.968	18.24
220.353	36.25
220.738	17.04
221.122	18.31
221.507	16.82
221.892	22.06
222.276	31.4
222.661	19.19
223.046	52.28
223.43	26.78
223.815	24.78
224.199	17.22
224.583	23.03
224.968	13.35
225.352	11.08
225.736	14.48
226.121	18.65
226.505	15.5
226.889	17.13
227.273	4.88
227.657	11.09
228.041	8.39
228.425	9.98
228.809	4.27
229.193	8.29
229.577	9.54
229.961	6.07
230.344	6.06
230.728	3.69
231.112	3.65
231.495	3.68
231.879	4.02
232.263	3.37
232.646	5.28
233.03	3.76
233.413	4.88
233.797	4.33
234.18	6.03
234.563	7.59
234.946	4.81
235.33	3.25
235.713	2.68
236.096	4.01
236.479	5.4
236.862	6.72
237.245	3.17
237.628	4.87
238.011	6.63
238.394	4.87
238.777	6.77
239.16	5.02
239.543	7.21
239.925	5.5
240.308	4.57
240.691	5.18
241.073	4.99
241.456	4.33
241.838	3.6
242.221	3.52
242.603	4.37
242.986	4.88
243.368	2.77
243.75	3.44
244.133	3.45
244.515	3.78
244.897	3.41
245.279	3.36
245.661	3.26
246.043	3.67
246.425	2.59
246.807	5.13
247.189	2.32
247.571	3.65
247.953	3.37
248.335	3.09
248.717	3.37
249.098	2.97
249.48	2.82
249.862	3.04
250.243	2.94
250.625	3.45
251.006	3.09
251.388	3.36
251.769	3.62
252.151	3.42
252.532	4.15
252.913	4.97
253.295	4.82
253.676	4
254.057	3.75
254.438	3.96
254.819	3.29
255.2	3.5
255.581	4.08
255.962	3.83
256.343	3.94
256.724	3.07
257.105	2.9
257.486	4.02
257.867	5.18
258.247	4.43
258.628	4.61
259.009	4.39
259.389	3.46
259.77	4.16
260.15	3.87
260.531	3.43
260.911	3.56
261.292	3.09
261.672	3.14
262.052	3.1
262.432	2.92
262.813	3.23
263.193	2.83
263.573	3.59
263.953	3.37
264.333	3.44
264.713	4.01
265.093	3.77
265.473	2.86
265.853	3.22
266.233	3.49
266.612	3.35
266.992	4.59
267.372	4.19
267.752	4.36
268.131	3.69
268.511	3.7
268.89	3.94
269.27	3.42
269.649	3.61
270.029	3.48
270.408	3.78
270.787	3.63
271.167	3.62
271.546	2.97
271.925	3.68
272.304	2.58
272.683	3.52
273.062	4.04
273.441	3.61
273.82	3.72
274.199	3.34
274.578	3.34
274.957	3.05
275.336	2.77
275.715	3.09
276.093	2.83
276.472	3.31
276.851	3.61
277.229	2.76
277.608	3.95
277.986	3.48
278.365	3.46
278.743	3.54
279.122	3.53
279.5	3.39
279.878	3.19
280.257	3.92
280.635	3.39
281.013	3.68
281.391	3.05
281.769	3.23
282.147	3.18
282.525	3.07
282.903	3.21
283.281	3.39
283.659	3.33
284.037	2.9
284.415	3.48
284.792	3.56
285.17	3.77
285.548	4.04
285.925	3.21
286.303	3.81
286.68	3.1
287.058	3.17
287.435	3.32
287.813	3
288.19	2.79
288.567	3.48
288.945	3.14
289.322	3.47
289.699	2.85
290.076	3.13
290.453	3.01
290.83	3.09
291.207	3.12
291.584	2.91
291.961	2.93
292.338	3.05
292.715	3.52
293.092	2.79
293.469	3.46
293.845	3.76
294.222	3.25
294.599	3.49
294.975	3.63
295.352	3.42
295.728	3.48
296.105	3.48
296.481	3.8
296.858	3.7
297.234	3.27
297.61	3.29
297.986	3.74
298.363	3.22
298.739	3.55
299.115	3.69
299.491	3.72
299.867	3.6
300.243	3.36
300.619	3.63
300.995	3.32
301.371	3.87
301.746	3.94
302.122	4.18
302.498	3.51
302.874	3.67
303.249	3.47
303.625	3.4
304	4.32
304.376	4.63
304.751	3.92
305.127	3.72
305.502	4.33
305.878	3.82
306.253	4.06
306.628	4.12
307.003	4.44
307.378	4.63
307.754	4.12
308.129	3.93
308.504	4.65
308.879	4.43
309.254	4.91
309.629	4.41
310.003	4.62
310.378	4.94
310.753	4.19
311.128	4.46
311.502	4.64
311.877	4.14
312.252	4.1
312.626	4.21
313.001	4.88
313.375	4.84
313.75	5.02
314.124	4.91
314.498	4.25
314.873	5.07
315.247	5.36
315.621	4.96
315.995	4.88
316.369	4.89
316.743	5
317.117	5.07
317.491	5.3
317.865	4.99
318.239	5.5
318.613	5.48
318.987	5.24
319.361	5.16
319.734	4.98
320.108	5.75
320.482	5.23
320.855	5.23
321.229	5.96
321.602	5.53
321.976	5.69
322.349	5.92
322.723	5.53
323.096	6.13
323.469	5.72
323.843	6.07
324.216	6.69
324.589	6.37
324.962	5.66
325.335	5.8
325.708	5.9
326.081	6.01
326.454	5.05
326.827	6.2
327.2	5.87
327.573	6.28
327.945	6.02
328.318	5.94
328.691	5.88
329.063	5.87
329.436	6.11
329.809	6.19
330.181	6.36
330.553	6.29
330.926	6.8
331.298	6.33
331.671	7.03
332.043	6.67
332.415	6.7
332.787	7.28
333.159	6.02
333.532	6.59
333.904	6.67
334.276	5.97
334.648	6.12
335.02	7
335.391	6.65
335.763	6.99
336.135	6.79
336.507	7.25
336.879	6.35
337.25	6.94
337.622	7.27
337.993	7.01
338.365	6.98
338.736	7.49
339.108	7.29
339.479	7.16
339.851	6.93
340.222	6.95
340.593	7.35
340.964	6.91
341.336	7.29
341.707	7.31
342.078	7.49
342.449	7.82
342.82	7.45
343.191	7.24
343.562	7.25
343.933	7.78
344.303	7.35
344.674	7.95
345.045	7.71
345.416	8.13
345.786	7.67
346.157	7.88
346.527	7.52
346.898	7.9
347.268	7.71
347.639	7.69
348.009	8.23
348.38	8.12
348.75	8.23
349.12	7.91
349.49	8.3
349.861	8.19
350.231	8.38
350.601	8.81
350.971	8.89
351.341	8.31
351.711	8.31
352.081	8.2
352.45	8.58
352.82	8.83
353.19	8.73
353.56	8.71
353.929	8.75
354.299	8.7
354.669	8.55
355.038	8.75
355.408	9.13
355.777	9.17
356.147	8.83
356.516	9.32
356.885	8.93
357.254	9.1
357.624	8.87
357.993	9
358.362	9.2
358.731	9.18
359.1	8.92
359.469	9.27
359.838	9.01
360.207	8.98
360.576	9.38
360.945	9.67
361.314	9.47
361.682	9.55
362.051	9.7
362.42	9.57
362.788	9.44
363.157	9.81
363.525	9.45
363.894	9.4
364.262	9.33
364.631	9.61
364.999	9.43
365.367	9.96
365.735	10.02
366.104	9.69
366.472	10.11
366.84	10.1
367.208	10.45
367.576	10.29
367.944	10.32
368.312	10.58
368.68	10.29
369.048	10.29
369.416	10.17
369.783	10.08
370.151	10.44
370.519	10.72
370.886	10.48
371.254	10.93
371.621	10.56
371.989	10.76
372.356	10.48
372.724	10.9
373.091	11.24
373.458	10.73
373.826	11.17
374.193	11.35
374.56	11.28
374.927	11.39
375.294	10.97
375.661	11.06
376.028	11.46
376.395	11.51
376.762	11.29
377.129	11.52
377.496	11.64
377.863	11.6
378.229	11.98
378.596	11.72
378.963	11.89
379.329	11.67
379.696	12.03
380.062	11.5
380.429	11.72
380.795	11.86
381.161	11.88
381.528	12.06
381.894	11.92
382.26	12.13
382.626	12.36
382.993	12.19
383.359	12.26
383.725	12.4
384.091	12.52
384.457	12.52
384.823	12.59
385.188	12.7
385.554	12.62
385.92	13.04
386.286	12.66
386.651	12.84
387.017	12.95
387.383	12.81
387.748	12.85
388.114	13.04
388.479	13.14
388.845	13.08
389.21	12.93
389.575	13.48
389.94	12.98
390.306	13.13
390.671	13.42
391.036	13.12
391.401	13.41
391.766	13.51
392.131	13.4
392.496	13.44
392.861	13.65
393.226	13.78
393.591	13.7
393.956	13.93
394.32	13.7
394.685	13.97
395.05	13.93
395.414	13.84
395.779	14.24
396.143	14.18
396.508	14.17
396.872	14.09
397.236	14.17
397.601	14.23
397.965	14.4
398.329	14.68
398.694	14.31
399.058	14.55
399.422	14.83
399.786	14.7
400.15	14.67
400.514	14.9
400.878	14.92
401.242	15.24
401.605	15.09
401.969	14.79
402.333	15.18
402.697	15.24
403.06	15.31
403.424	15.3
403.787	15.34
404.151	15.39
404.514	15.54
404.878	15.53
405.241	15.61
405.604	15.85
405.968	15.7
406.331	15.47
406.694	15.63
407.057	15.56
407.42	15.86
407.783	15.76
408.146	15.68
408.509	15.8
408.872	16.14
409.235	16.21
409.598	16.1
409.961	16.3
410.323	16.44
410.686	16.28
411.049	16.72
411.411	16.55
411.774	16.55
412.136	16.3
412.499	16.61
412.861	16.34
413.223	16.58
413.586	16.76
413.948	16.74
414.31	16.67
414.672	17.08
415.035	16.99
415.397	17.05
415.759	17.39
416.121	17.14
416.483	17.25
416.845	17.26
417.206	17.22
417.568	17.26
417.93	17.14
418.292	17.22
418.653	17.12
419.015	17.55
419.377	17.17
419.738	17.43
420.1	17.4
420.461	17.47
420.822	17.44
421.184	17.51
421.545	17.5
421.906	17.47
422.267	17.59
422.629	17.49
422.99	17.61
423.351	17.4
423.712	17.46
424.073	17.66
424.434	17.85
424.795	17.72
425.155	18
425.516	18.05
425.877	17.97
426.238	17.89
426.598	17.92
426.959	18.11
427.32	18.16
427.68	18.21
428.041	18.24
428.401	18.5
428.761	18.66
429.122	18.65
429.482	18.76
429.842	18.85
430.202	19.09
430.563	19.06
430.923	19.22
431.283	19.25
431.643	19.41
432.003	19.52
432.363	19.45
432.722	19.61
433.082	19.42
433.442	19.57
433.802	19.72
434.161	19.63
434.521	19.56
434.881	19.79
435.24	19.71
435.6	19.7
435.959	19.78
436.319	19.86
436.678	20.02
437.037	20.1
437.396	20.11
437.756	20.08
438.115	20.25
438.474	20.14
438.833	20.34
439.192	20.18
439.551	20.41
439.91	20.7
440.269	20.58
440.628	20.34
440.987	20.51
441.345	20.6
441.704	20.6
442.063	20.44
442.421	20.48
442.78	20.52
443.138	20.67
443.497	20.52
443.855	20.79
444.214	20.79
444.572	21.05
444.93	21.05
445.288	21.09
445.647	21.36
446.005	21.31
446.363	21.19
446.721	21.35
447.079	21.13
447.437	21.46
447.795	21.26
448.153	21.21
448.51	21.24
448.868	21.18
449.226	21.37
449.584	21.31
449.941	21.34
450.299	21.49
450.656	21.69
451.014	21.86
451.371	21.96
451.729	22.18
452.086	22.08
452.443	22.16
452.801	22.37
453.158	22.25
453.515	22.61
453.872	22.51
454.229	22.59
454.586	22.71
454.943	22.57
455.3	22.61
455.657	22.68
456.014	22.69
456.371	23.03
456.727	23.09
457.084	22.9
457.441	23.03
457.797	23.18
458.154	22.99
458.51	23.04
458.867	23.22
459.223	23.41
459.58	23.45
459.936	23.38
460.292	23.6
460.648	23.56
461.005	23.31
461.361	23.38
461.717	23.12
462.073	23.06
462.429	22.89
462.785	23.18
463.141	23.38
463.496	23.73
463.852	23.79
464.208	23.95
464.564	23.96
464.919	24
465.275	24.36
465.631	24.39
465.986	24.4
466.342	24.44
466.697	24.33
467.052	24.28
467.408	24.33
467.763	24.65
468.118	24.8
468.473	24.72
468.829	24.74
469.184	24.83
469.539	24.87
469.894	24.96
470.249	24.97
470.603	24.8
470.958	25.09
471.313	25.1
471.668	25.04
472.023	25.24
472.377	25.46
472.732	25.24
473.086	25.7
473.441	25.42
473.795	25.66
474.15	25.6
474.504	25.61
474.859	25.99
475.213	25.44
475.567	25.62
475.921	25.81
476.275	25.81
476.63	25.99
476.984	25.89
477.338	25.98
477.692	26.18
478.045	26.22
478.399	26.32
478.753	26.16
479.107	26.28
479.461	26.16
479.814	26.05
480.168	26.21
480.521	26.25
480.875	26.28
481.228	26.43
481.582	26.45
481.935	26.5
482.289	26.48
482.642	26.33
482.995	26.67
483.348	26.45
483.701	26.6
484.055	26.53
484.408	26.4
484.761	26.38
485.114	26.08
485.466	25.78
485.819	25.39
486.172	25.42
486.525	25.48
486.878	25.69
487.23	25.85
487.583	25.98
487.936	26.23
488.288	26.47
488.641	26.46
488.993	26.4
489.345	26.22
489.698	26.2
490.05	26.1
490.402	26.21
490.754	26.34
491.107	26.54
491.459	26.83
491.811	27.02
492.163	27.33
492.515	27.39
492.866	27.48
493.218	27.22
493.57	26.92
493.922	26.85
494.274	26.85
494.625	27.15
494.977	27.3
495.328	27.62
495.68	27.88
496.031	28.26
496.383	28.35
496.734	28.38
497.086	28.52
497.437	28.65
497.788	28.71
498.139	28.8
498.49	28.79
498.842	28.5
499.193	28.24
499.544	28.51
499.894	28.64
500.245	28.82
500.596	28.94
500.947	29.08
501.298	28.95
501.648	29.06
501.999	29.13
502.35	29.29
502.7	29.43
503.051	29.37
503.401	29.75
503.752	29.67
504.102	29.78
504.452	29.82
504.803	29.74
505.153	30
505.503	29.85
505.853	29.72
506.203	29.76
506.553	29.89
506.903	30.03
507.253	29.95
507.603	29.99
507.953	30.11
508.303	30.21
508.652	30.2
509.002	30.44
509.352	30.15
509.701	30.37
510.051	30.37
510.4	30.34
510.75	30.22
511.099	30.28
511.449	30.34
511.798	30.44
512.147	30.45
512.496	30.52
512.846	30.5
513.195	30.65
513.544	30.75
513.893	30.75
514.242	30.66
514.591	30.75
514.939	30.95
515.288	30.91
515.637	31.08
515.986	31.04
516.334	31.17
516.683	31.19
517.032	31.4
517.38	31.37
517.729	31.52
518.077	31.45
518.426	31.28
518.774	31.52
519.122	31.26
519.47	31.28
519.819	31.44
520.167	31.25
520.515	31
520.863	30.93
521.211	31.02
521.559	31.18
521.907	31.34
522.255	31.52
522.602	31.66
522.95	31.75
523.298	31.9
523.645	32.11
523.993	32.08
524.341	32.07
524.688	32.23
525.036	32.25
525.383	32.34
525.73	32.51
526.078	32.47
526.425	32.08
526.772	32.51
527.119	32.21
527.466	31.94
527.814	31.74
528.161	31.85
528.508	31.83
528.854	32
529.201	32.12
529.548	31.95
529.895	31.87
530.242	31.7
530.588	31.37
530.935	31.15
531.282	31.35
531.628	31.62
531.975	31.64
532.321	31.77
532.667	32.07
533.014	32.35
533.36	32.55
533.706	32.51
534.052	32.73
534.399	32.75
534.745	32.62
535.091	32.53
535.437	32.26
535.783	32.23
536.129	32.4
536.474	32.63
536.82	32.75
537.166	33.12
537.512	33.29
537.857	33.36
538.203	33.27
538.549	33.21
538.894	33
539.239	33.17
539.585	33.28
539.93	33.55
540.276	33.58
540.621	33.96
540.966	33.94
541.311	34.05
541.656	34.19
542.001	34.03
542.346	33.98
542.691	33.98
543.036	33.51
543.381	33.22
543.726	33
544.071	33.09
544.415	33.25
544.76	33.55
545.105	33.76
545.449	33.81
545.794	33.85
546.138	34.01
546.483	34.3
546.827	34.51
547.171	34.63
547.516	34.74
547.86	34.79
548.204	34.77
548.548	34.8
548.892	34.74
549.236	34.7
549.58	34.87
549.924	34.95
550.268	35.33
550.612	35.37
550.956	35.57
551.3	35.56
551.643	35.8
551.987	35.86
552.33	35.94
552.674	35.92
553.017	35.96
553.361	35.9
553.704	36.35
554.048	35.98
554.391	35.92
554.734	36.03
555.077	35.87
555.42	36.23
555.764	35.98
556.107	36.07
556.45	36.22
556.793	36.35
557.135	36.31
557.478	36.37
557.821	36.7
558.164	36.73
558.507	36.44
558.849	36.89
559.192	36.64
559.534	37.08
559.877	36.87
560.219	36.99
560.562	36.93
560.904	37.15
561.246	37.21
561.589	37.29
561.931	37.24
562.273	36.86
562.615	36.96
562.957	37.4
563.299	37.24
563.641	37.15
563.983	37.49
564.325	37.49
564.667	37.41
565.008	37.07
565.35	37.4
565.692	37.76
566.033	37.77
566.375	37.68
566.716	37.68
567.058	37.57
567.399	37.78
567.741	37.93
568.082	37.82
568.423	37.45
568.764	37.64
569.105	37.54
569.447	37.69
569.788	37.64
570.129	37.73
570.47	38.08
570.811	37.89
571.151	37.9
571.492	38.24
571.833	38.21
572.174	38.19
572.514	38.28
572.855	38.31
573.195	38.38
573.536	38.16
573.876	38.11
574.217	38.12
574.557	38.42
574.898	38.05
575.238	38.32
575.578	38.41
575.918	38.47
576.258	38.4
576.598	38.57
576.938	38.64
577.278	38.54
577.618	38.53
577.958	38.76
578.298	38.72
578.638	38.76
578.977	39.14
579.317	39.09
579.657	39.27
579.996	39.2
580.336	39.31
580.675	39.54
581.014	39.21
581.354	39.34
581.693	39.68
582.032	39.82
582.372	39.8
582.711	39.7
583.05	39.56
583.389	40.01
583.728	39.76
584.067	40
584.406	39.99
584.745	40.09
585.083	40.51
585.422	40.31
585.761	39.74
586.1	40.04
586.438	40.12
586.777	40.44
587.115	40.1
587.454	40.37
587.792	40.4
588.13	40.41
588.469	40.18
588.807	40.51
589.145	40.58
589.483	40.6
589.821	40.53
590.159	40.78
590.497	40.46
590.835	40.84
591.173	40.77
591.511	40.6
591.849	40.75
592.187	40.71
592.524	40.54
592.862	40.42
593.2	40.72
593.537	40.57
593.875	40.97
594.212	41.13
594.55	41.38
594.887	40.92
595.224	40.94
595.561	41.24
595.899	41.09
596.236	41.34
596.573	40.97
596.91	41.14
597.247	41.27
597.584	41.35
597.921	41.14
598.258	41.26
598.594	41.28
598.931	41.07
599.268	40.66
599.604	40.81
599.941	40.83
600.277	41.08
600.614	41.36
600.95	41.35
601.287	41.43
601.623	41.8
601.959	41.86
602.296	41.45
602.632	41.81
602.968	41.6
603.304	41.92
603.64	42.1
603.976	42.1
604.312	42.05
604.648	41.98
604.984	41.95
605.319	41.7
605.655	41.74
605.991	41.56
606.326	41.52
606.662	41.73
606.998	41.64
607.333	41.79
607.668	41.75
608.004	41.99
608.339	42.12
608.674	42
609.01	42.08
609.345	42.53
609.68	43.04
610.015	42.44
610.35	42.75
610.685	42.78
611.02	42.83
611.355	42.61
611.689	42.27
612.024	42.3
612.359	42.15
612.694	42.41
613.028	42.67
613.363	42.46
613.697	42.7
614.032	42.69
614.366	42.79
614.7	42.93
615.035	42.97
615.369	43.48
615.703	43.34
616.037	43.27
616.371	43.56
616.705	43.72
617.039	43.68
617.373	43.5
617.707	43.61
618.041	43.84
618.375	42.97
618.709	43.81
619.042	43.84
619.376	43.74
619.71	43.76
620.043	43.79
620.377	43.76
620.71	43.97
621.043	43.41
621.377	43.94
621.71	44.03
622.043	44.06
622.376	44.57
622.709	44.42
623.043	43.95
623.376	44.19
623.709	44.47
624.041	44.15
624.374	44.42
624.707	44.26
625.04	44.52
625.373	44.38
625.705	44.85
626.038	44.25
626.37	44.57
626.703	44.63
627.035	44.63
627.368	44.1
627.7	44.65
628.032	44.29
628.365	44.13
628.697	44.46
629.029	44.17
629.361	44.37
629.693	44.61
630.025	44.56
630.357	44.13
630.689	44.57
631.021	44.44
631.353	44.83
631.684	44.79
632.016	45.3
632.348	45.14
632.679	44.92
633.011	44.93
633.342	44.98
633.674	45.41
634.005	44.83
634.336	45.24
634.668	45.32
634.999	45.42
635.33	44.94
635.661	45.03
635.992	45.11
636.323	44.76
636.654	45.07
636.985	45.19
637.316	45.07
637.647	45.25
637.977	44.57
638.308	45.62
638.639	45.43
638.969	45.64
639.3	45.53
639.63	45.65
639.961	45.3
640.291	45.66
640.622	45.58
640.952	46.11
641.282	45.82
641.612	46.18
641.943	46
642.273	46.16
642.603	45.81
642.933	45.71
643.263	45.48
643.592	46.05
643.922	46.46
644.252	46.69
644.582	46.23
644.911	46.27
645.241	46.83
645.571	46.27
645.9	46.17
646.23	46.21
646.559	46.49
646.888	46.62
647.218	46.21
647.547	46.26
647.876	46.59
648.205	46.34
648.534	46.82
648.863	46.6
649.192	46.14
649.521	46.3
649.85	46.54
650.179	46.73
650.508	46.18
650.837	46.51
651.165	46.84
651.494	46.3
651.822	46.73
652.151	46.18
652.479	46.76
652.808	46.81
653.136	46.92
653.465	47.37
653.793	46.64
654.121	47.08
654.449	47.16
654.777	47.08
655.105	47.61
655.433	47.23
655.761	47.06
656.089	47.48
656.417	46.81
656.745	47.29
657.073	47.58
657.4	47.9
657.728	47.18
658.056	47.6
658.383	47.54
658.711	47.36
659.038	47.72
659.365	47.69
659.693	47.49
660.02	47.32
660.347	47.3
660.674	47.46
661.001	46.78
661.329	47.02
661.656	47.22
661.982	46.87
662.309	47.12
662.636	47.49
662.963	47.27
663.29	47.31
663.616	47.12
663.943	47.74
664.27	47.99
664.596	47.47
664.923	48.11
665.249	47.37
665.576	47.6
665.902	47.81
666.228	47.99
666.554	47.75
666.881	48.44
667.207	48.26
667.533	47.79
667.859	47.98
668.185	48.07
668.511	48.76
668.837	47.64
669.162	47.95
669.488	49.01
669.814	48.09
670.139	48
670.465	47.9
670.791	48.27
671.116	48.02
671.442	48.15
671.767	47.76
672.092	48.63
672.418	48.84
672.743	48.47
673.068	48.36
673.393	48.27
673.718	48.75
674.043	49.06
674.368	48.73
674.693	48.41
675.018	48.81
675.343	48.71
675.667	48.38
675.992	48.41
676.317	48.74
676.641	48.83
676.966	48.87
677.29	48.92
677.615	50
677.939	48.41
678.264	48.84
678.588	49.25
678.912	48.97
679.236	48.98
679.56	49.06
679.885	48.99
680.209	49.58
680.532	49.03
680.856	49.38
681.18	49.26
681.504	49.8
681.828	49.03
682.152	49.26
682.475	49.06
682.799	48.6
683.122	49.36
683.446	49.96
683.769	49.56
684.093	49.21
684.416	49.24
684.739	49.47
685.062	49.91
685.386	49.12
685.709	48.79
686.032	48.82
686.355	49.74
686.678	50.11
687.001	49.79
687.324	49.34
687.646	50.05
687.969	49.81
688.292	49.54
688.614	49.99
688.937	49.71
689.26	49.4
689.582	49.2
689.904	49.67
690.227	50.53
690.549	49.37
690.871	49.49
691.194	50.72
691.516	49.95
691.838	50.2
692.16	49.21
692.482	49.72
692.804	49.96
693.126	50.24
693.448	51.39
693.769	49.75
694.091	50.18
694.413	49.97
694.735	50.06
695.056	50.17
695.378	50.01
695.699	50.43
696.021	50.61
696.342	51.02
696.663	50.75
696.984	51.01
697.306	49.62
697.627	50.15
697.948	50.37
698.269	50.65
698.59	50.67
698.911	50.49
699.232	50.37
699.553	50.22
699.873	50.82
700.194	49.87
700.515	50.72
700.835	50.41
701.156	50.06
701.477	50.54
701.797	49.86
702.117	50.89
702.438	50.62
702.758	49.91
703.078	50.46
703.398	51.09
703.719	50.65
704.039	51.04
704.359	50.35
704.679	50.37
704.999	50.39
705.319	50.51
705.638	50.58
705.958	50.44
706.278	51.86
706.597	49.75
706.917	51.45
707.237	51.34
707.556	51.16
707.876	51.13
708.195	51.21
708.514	50.58
708.834	50.85
709.153	50.86
709.472	50.79
709.791	51.47
710.11	50.93
710.429	50.33
710.748	51.69
711.067	50.51
711.386	51.17
711.705	51.46
712.023	51.6
712.342	51.25
712.661	51.47
712.979	51.74
713.298	51.85
713.616	51.74
713.935	52.34
714.253	51.91
714.572	51.87
714.89	51.51
715.208	52.05
715.526	51.19
715.844	52.15
716.162	50.33
716.48	52.76
716.798	52.37
717.116	52.06
717.434	51.19
717.752	52.05
718.069	51.14
718.387	50.99
718.705	50.61
719.022	53.38
719.34	51.88
719.657	51.46
719.975	52.45
720.292	51.76
720.609	51.65
720.927	52.82
721.244	51.54
721.561	52.95
721.878	52.55
722.195	52.34
722.512	54.02
722.829	52.94
723.146	52.87
723.463	52.67
723.779	53.1
724.096	52.48
724.413	53.17
724.729	51.96
725.046	51.85
725.362	52.44
725.679	52.12
725.995	53.09
726.311	52.83
726.628	53.09
726.944	51.84
727.26	52.66
727.576	53.44
727.892	51.74
728.208	52.68
728.524	53.98
728.84	50.8
729.156	52.71
729.472	52.74
729.787	52.73
730.103	52.45
730.419	53.99
730.734	52.01
731.05	52.71
731.365	51.56
731.681	52.05
731.996	53.67
732.311	53.47
732.626	52.57
732.942	53.64
733.257	52.89
733.572	52.92
733.887	51.66
734.202	53.04
734.517	54.05
734.832	53.5
735.146	53.27
735.461	51.98
735.776	52.82
736.091	53.08
736.405	51.86
736.72	53.19
737.034	53.67
737.349	52.74
737.663	51.9
737.977	53.49
738.292	53.19
738.606	53.68
738.92	54.27
739.234	51.53
739.548	53.8
739.862	53.6
740.176	54.38
740.49	54.08
740.804	53.5
741.117	52.82
741.431	53.44
741.745	54.46
742.058	53.64
742.372	53.55
742.685	53.58
742.999	54.31
743.312	53.41
743.626	51.07
743.939	51.66
744.252	54.18
744.565	52.86
744.878	53.29
745.191	53.85
745.505	53.99
745.817	53.61
746.13	54.07
746.443	55.32
746.756	53.48
747.069	55.04
747.381	52.04
747.694	54.03
748.007	55.33
748.319	54.6
748.632	54.34
748.944	55.79
749.256	56.12
749.569	55.05
749.881	54.62
750.193	52.6
750.505	53.58
750.817	55.07
751.129	53.59
751.441	54.92
751.753	54.77
752.065	56.62
752.377	54.58
752.689	54.76
753	52.73
753.312	54.19
753.624	52.97
753.935	56.27
754.247	55.49
754.558	54.63
754.869	53.59
755.181	55.89
755.492	55.2
755.803	55.15
756.114	54.59
756.425	53.19
756.736	54.55
757.047	54.59
757.358	53.61
757.669	54.91
757.98	55.35
758.291	54.56
758.601	54.22
758.912	54.64
759.223	55.48
759.533	55.33
759.844	55.98
760.154	54.96
760.464	52.52
760.775	55.81
761.085	55.74
761.395	54.34
761.705	56.58
762.016	55.56
762.326	55.66
762.636	55.41
762.945	54.55
763.255	54.11
763.565	55.16
763.875	54.83
764.185	53.71
764.494	55.08
764.804	55.31
765.113	54.89
765.423	55.65
765.732	55.55
766.042	54.93
766.351	55.05
766.66	53.89
766.97	54.79
767.279	55.81
767.588	55.47
767.897	55.11
768.206	57.2
768.515	54.13
768.824	53.95
769.133	53.39
769.441	57.13
769.75	54.61
770.059	57.91
770.367	55.7
770.676	54.63
770.984	55.07
771.293	54.96
771.601	56.88
771.91	56.09
772.218	54.94
772.526	54.62
772.834	56.83
773.142	56.58
773.45	56.65
773.758	55.97
774.066	54.61
774.374	54.03
774.682	54.55
774.99	57.29
775.298	55.5
775.605	56.4
775.913	57.21
776.22	55.5
776.528	56.15
776.835	53.48
777.143	58.27
777.45	56.81
777.757	58.59
778.065	56.25
778.372	55.22
778.679	56.63
778.986	55.92
779.293	56.18
779.6	54.87
779.907	58.4
780.214	56.41
780.52	54.86
780.827	56.62
781.134	56.35
781.44	56.75
781.747	58.25
782.053	56.04
782.36	56.91
782.666	58.68
782.973	58.77
783.279	55.95
783.585	56.18
783.891	55.31
784.197	57.05
784.503	54.2
784.809	56.25
785.115	56.4
785.421	61.28
785.727	59.27
786.033	55.54
786.339	57.89
786.644	59.74
786.95	57.46
787.255	55.85
787.561	56.57
787.866	57.99
788.172	54.27
788.477	58.81
788.782	54.86
789.088	59.56
789.393	56.86
789.698	61.3
790.003	56.07
790.308	55.86
790.613	56.12
790.918	54.26
791.223	54.5
791.527	54.59
791.832	60.2
792.137	53.63
792.441	58.99
792.746	53.88
793.05	58.17
793.355	58.3
793.659	56.56
793.963	58.35
794.268	57.36
794.572	58.62
794.876	61.28
795.18	57.54
795.484	53.55
795.788	55.32
796.092	57.74
796.396	55.32
796.7	58.75
797.004	52.64
797.307	59.85
797.611	56.44
797.915	54.97
798.218	57.95
798.522	61.96
798.825	54.17
799.128	58.37
799.432	57.52
799.735	58.97
800.038	54.81
800.341	57.02
800.644	57.59
800.947	57.49
801.25	59.11
801.553	58
801.856	58.82
802.159	53.23
802.462	54.56
802.764	59.74
803.067	56.19
803.37	57.37
803.672	58.89
803.975	61.71
804.277	59.23
804.579	58.19
804.882	63.29
805.184	59.98
805.486	54.74
805.788	64.02
806.09	61.76
806.392	58.75
806.694	61.15
806.996	57.37
807.298	59.73
807.6	59.51
807.902	54.36
808.203	66.47
808.505	61.2
808.807	61.25
809.108	54.65
809.409	61.57
809.711	60.28
810.012	55.98
810.313	60.24
810.615	65.26
810.916	58.25
811.217	59.45
811.518	59.9
811.819	63.32
812.12	62.22
812.421	58.58
812.722	58.39
813.023	58.26
813.323	57.93
813.624	53.71
813.925	61.66
814.225	61.43
814.526	63.04
814.826	56.33
815.126	55.03
815.427	58.62
815.727	68.06
816.027	62.12
816.327	55.51
816.627	61.99
816.927	61.99
817.227	61.4
817.527	58.89
817.827	53.01
818.127	54.28
818.427	63.33
818.727	56.65
819.026	58.58
819.326	53.52
819.625	53.56
819.925	55.25
820.224	56.08
820.524	59.43
820.823	51.55
821.122	58.16
821.421	64.53
821.72	62.5
822.019	65.64
822.318	53.73
822.617	59.77
822.916	61.99
823.215	58.67
823.514	58.15
823.813	58.75
824.111	56.9
824.41	57.36
824.709	59.4
825.007	57.87
825.306	57.99
825.604	57.02
825.902	59.27
826.201	58.45
826.499	58.25
826.797	59.24
827.095	59.25
827.393	58.92
827.691	59.79
827.989	59.21
828.287	58.3
828.585	58.67
828.882	58.23
829.18	58.91
829.478	59.56
829.775	57.92
830.073	58.77
830.37	58.8
830.668	57.47
830.965	60.43
831.263	58.26
831.56	56.96
831.857	58.63
832.154	58.06
832.451	60.88
832.748	59.01
833.045	57.63
833.342	57.8
833.639	60.87
833.936	58.02
834.232	60.82
834.529	57.42
834.826	62.43
835.122	63.03
835.419	60.45
835.715	58.89
836.012	59.12
836.308	60.42
836.604	61.32
836.901	63.43
837.197	61.32
837.493	61.17
837.789	58.78
838.085	56.45
838.381	57.24
838.677	59.59
838.972	61.87
839.268	58.2
839.564	60.04
839.86	64.05
840.155	61.9
840.451	60.97
840.746	65.81
841.042	65.89
841.337	70.42
841.632	63.93
841.928	63.2
842.223	68.58
842.518	62.5
842.813	56.79
843.108	60.04
843.403	54.14
843.698	60.04
843.993	64.21
844.287	63.33
844.582	60.36
844.877	60.16
845.171	69.7
845.466	61.53
845.761	67.41
846.055	60.55
846.349	53.77
846.644	67.45
846.938	72.34
847.232	59.81
847.526	59.82
847.82	51.96
848.114	85.43
848.408	69.86
848.702	55.21
848.996	83.35
849.29	76.33
849.584	61.56
849.877	72.12
850.171	61.26
850.465	51.5
850.758	59.39
851.052	70.55
851.345	72.55
851.638	78.1
851.932	69.44
852.225	52.27
852.518	66.1
852.811	63.87
853.104	74.12
853.397	74.64
853.69	70.82
853.983	64.03
854.276	65.26
854.569	48.27
854.861	69.95
855.154	59.88
855.447	80.58
855.739	59.14
856.032	67.51
856.324	61.68
856.616	65.49
856.909	68.67
857.201	68.64
857.493	79.5
857.785	61.32
858.077	75.42
858.369	63.25
858.661	72.39
858.953	45.13
859.245	68.28
859.537	61.37
859.829	71.82
860.12	66.5
860.412	57.29
860.703	80.16
860.995	58.59
861.286	68.11
861.578	54.87
861.869	79.69
862.16	66.5
862.452	63.95
862.743	65.55
863.034	84.72
863.325	65.17
863.616	78.34
863.907	60.52
864.198	62.52
864.488	68.43
864.779	65.16
865.07	53.27
865.36	90.08
865.651	71.04
865.941	74.52
866.232	65.86
866.522	60.75
866.813	76.71
867.103	101.81
867.393	61.6
867.683	52.75
867.973	79.27
868.263	73.49
868.553	45.66
868.843	74.64
869.133	42.01
869.423	76.69
869.713	53.14
870.002	58.51
870.292	54.54
870.582	65.2
870.871	72.78
871.161	54.48
871.45	95.7
871.739	45.75
872.029	81.76
872.318	57.6
872.607	97.1
872.896	59.23
873.185	52.91
873.474	62.28
873.763	89.47
874.052	59.15
874.341	68.89
874.63	46.85
874.918	49.91
875.207	73.97
875.496	68.16
875.784	51.67
876.073	54.69
876.361	56.85
876.649	53
876.938	71.34
877.226	75.92
877.514	74.66
877.802	63.3
878.09	67.57
878.378	64.4
878.666	60.87
878.954	90.04
879.242	75.03
879.53	67.49
879.817	100.47
880.105	64.65
880.392	72.06
880.68	43.93
880.967	77.14
881.255	87.99
881.542	78.17
881.83	69.28
882.117	61.66
882.404	62.64
882.691	88.57
882.978	69.72
883.265	54.56
883.552	84.46
883.839	80.38
884.126	78.14
884.413	65.92
884.699	70.15
884.986	60.56
885.273	61.62
885.559	61.62
885.846	61.62
