Data from 0387_chest_Reflection__2__232.txt Node

Date: Fri Dec 15 18:28:17 CST 2023
User: ToomeyLab
Spectrometer: FLMS14357
Trigger mode: 0
Integration Time (sec): 1.000000E-2
Scans to average: 100
Electric dark correction enabled: true
Nonlinearity correction enabled: false
Boxcar width: 0
XAxis mode: Wavelengths
Number of Pixels in Spectrum: 2048
>>>>>Begin Spectral Data<<<<<
189.047	23.9
189.435	23.9
189.823	23.9
190.211	-14.09
190.599	-97.45
190.987	159.53
191.375	86.33
191.763	0.66
192.151	99.89
192.538	116.11
192.926	84.68
193.314	31.59
193.702	18.55
194.089	185.28
194.477	-99.79
194.864	689.39
195.252	86.3
195.639	124.14
196.027	950.68
196.414	311.07
196.801	24.3
197.189	100.05
197.576	263.32
197.963	-120.77
198.351	-169.69
198.738	-15.29
199.125	-8.94
199.512	-14.55
199.899	14.87
200.286	18.06
200.673	23.59
201.06	16.46
201.447	43.27
201.833	53.54
202.22	29.98
202.607	47.11
202.994	0.79
203.38	-21.13
203.767	17.45
204.154	49.73
204.54	27.08
204.927	-116.14
205.313	-532.8
205.699	63.75
206.086	17.65
206.472	45.52
206.858	-0.13
207.245	-36.69
207.631	9.19
208.017	-12.5
208.403	-1.29
208.789	36.85
209.175	54.25
209.561	-85.68
209.947	-19.16
210.333	-29.89
210.719	27.57
211.105	14.76
211.491	-54.4
211.876	10.92
212.262	-8.29
212.648	32.02
213.034	20.8
213.419	-27.86
213.805	11.53
214.19	7.33
214.576	-19.68
214.961	-2.98
215.346	-75.37
215.732	1.95
216.117	39.8
216.502	-49.97
216.888	19.95
217.273	43.57
217.658	-20.72
218.043	1.71
218.428	-44.57
218.813	16.62
219.198	-32.37
219.583	19.4
219.968	26.83
220.353	-14.28
220.738	3.98
221.122	-1.7
221.507	-54.37
221.892	-47.98
222.276	-22.85
222.661	2.62
223.046	3.37
223.43	16.1
223.815	10.74
224.199	-18.03
224.583	6.37
224.968	-0.71
225.352	13.46
225.736	4.9
226.121	-10.19
226.505	3.7
226.889	-0.5
227.273	0.21
227.657	11.32
228.041	1.88
228.425	1.54
228.809	3.5
229.193	1.99
229.577	-1.25
229.961	1.19
230.344	0.88
230.728	1.62
231.112	1.35
231.495	1.56
231.879	1.43
232.263	2.47
232.646	3.52
233.03	1.27
233.413	1.77
233.797	1.48
234.18	1.64
234.563	2.56
234.946	2.08
235.33	3.26
235.713	1.56
236.096	2.33
236.479	2.54
236.862	1.11
237.245	4.03
237.628	0.96
238.011	4.4
238.394	3.68
238.777	3.61
239.16	1.52
239.543	1.19
239.925	3.93
240.308	0.99
240.691	2.47
241.073	3.17
241.456	3.34
241.838	0.13
242.221	2.31
242.603	2.83
242.986	2.48
243.368	2.09
243.75	2.65
244.133	1.81
244.515	2.69
244.897	2.77
245.279	2.62
245.661	1.28
246.043	0.95
246.425	1.31
246.807	3.76
247.189	2.96
247.571	2.08
247.953	2.65
248.335	2.23
248.717	2.13
249.098	2.41
249.48	2.27
249.862	2.48
250.243	2.53
250.625	2.52
251.006	2.52
251.388	1.65
251.769	2.56
252.151	2.59
252.532	1.66
252.913	1.3
253.295	2.27
253.676	1.77
254.057	2.57
254.438	1.98
254.819	2.28
255.2	1.83
255.581	2.82
255.962	1.06
256.343	2.03
256.724	1.4
257.105	3.08
257.486	1.46
257.867	3.31
258.247	1.96
258.628	2.02
259.009	1.08
259.389	3.15
259.77	1.24
260.15	1.69
260.531	1.58
260.911	2.5
261.292	1.8
261.672	2.4
262.052	2.45
262.432	2.56
262.813	2.15
263.193	2.05
263.573	2.24
263.953	2.53
264.333	2.52
264.713	2.12
265.093	1.99
265.473	1.96
265.853	1.39
266.233	2.45
266.612	0.69
266.992	0.8
267.372	2.07
267.752	2.65
268.131	2.33
268.511	2.91
268.89	2.34
269.27	1.92
269.649	1.3
270.029	1.88
270.408	2.82
270.787	2.77
271.167	2.84
271.546	3.11
271.925	1.79
272.304	2.58
272.683	2.81
273.062	1.6
273.441	2.18
273.82	1.53
274.199	2.31
274.578	2.46
274.957	2.06
275.336	2.13
275.715	1.86
276.093	2.09
276.472	2.29
276.851	2.15
277.229	1.87
277.608	2.34
277.986	2.58
278.365	1.53
278.743	1.83
279.122	1.85
279.5	2.34
279.878	2.59
280.257	2.34
280.635	2.13
281.013	2.53
281.391	2.19
281.769	2.23
282.147	2.68
282.525	2.77
282.903	2.34
283.281	2.35
283.659	2.64
284.037	2.17
284.415	2.48
284.792	2.91
285.17	1.89
285.548	2.04
285.925	2.37
286.303	2.29
286.68	1.76
287.058	2.06
287.435	2.09
287.813	2.28
288.19	2.2
288.567	2.29
288.945	2.39
289.322	2.29
289.699	1.74
290.076	2.8
290.453	2.08
290.83	2.08
291.207	2.14
291.584	2.13
291.961	2.68
292.338	2.14
292.715	2.46
293.092	2.52
293.469	2.42
293.845	2.44
294.222	2.56
294.599	1.78
294.975	1.9
295.352	2.26
295.728	2.25
296.105	2.33
296.481	2.98
296.858	2.57
297.234	2.18
297.61	2.87
297.986	2.62
298.363	2.92
298.739	2.68
299.115	2.53
299.491	2.57
299.867	2.74
300.243	2.72
300.619	2.28
300.995	2.69
301.371	2.86
301.746	2.28
302.122	3.05
302.498	2.92
302.874	2.92
303.249	2.94
303.625	3.45
304	2.65
304.376	2.45
304.751	2.45
305.127	3.72
305.502	2.53
305.878	2.49
306.253	2.61
306.628	3.33
307.003	3.01
307.378	3.51
307.754	2.54
308.129	2.13
308.504	3.29
308.879	2.72
309.254	3.67
309.629	3.54
310.003	3.27
310.378	3.54
310.753	3.19
311.128	3.27
311.502	3.24
311.877	3.36
312.252	2.92
312.626	3.2
313.001	3.08
313.375	3.37
313.75	2.82
314.124	3.43
314.498	3.24
314.873	3.72
315.247	2.97
315.621	3.17
315.995	2.52
316.369	3.12
316.743	2.85
317.117	2.92
317.491	2.85
317.865	3.49
318.239	3.58
318.613	3.56
318.987	3.5
319.361	2.55
319.734	3.63
320.108	3.46
320.482	4.17
320.855	3.79
321.229	2.88
321.602	3.79
321.976	3.15
322.349	3.51
322.723	3.32
323.096	4.05
323.469	2.29
323.843	3.52
324.216	3.84
324.589	2.78
324.962	3.59
325.335	2.7
325.708	3.34
326.081	3.18
326.454	4.03
326.827	3.08
327.2	3.16
327.573	3.68
327.945	3.88
328.318	3.55
328.691	2.82
329.063	3.64
329.436	3.39
329.809	3.64
330.181	3.5
330.553	3.41
330.926	3.25
331.298	3.57
331.671	3.8
332.043	4.28
332.415	3.51
332.787	3.4
333.159	4.14
333.532	3.64
333.904	3.84
334.276	3.06
334.648	3.95
335.02	3.52
335.391	2.89
335.763	3.03
336.135	3.84
336.507	4.13
336.879	3.62
337.25	3.42
337.622	3.69
337.993	3.35
338.365	3.78
338.736	3.73
339.108	3.75
339.479	3.74
339.851	3.71
340.222	3.18
340.593	3.91
340.964	3.72
341.336	4.1
341.707	2.92
342.078	4.03
342.449	4.04
342.82	3.63
343.191	3.45
343.562	3.55
343.933	4.22
344.303	3.72
344.674	3.75
345.045	3.92
345.416	3.84
345.786	3.15
346.157	3.93
346.527	3.25
346.898	3.63
347.268	3.91
347.639	4.02
348.009	3.79
348.38	3.48
348.75	3.57
349.12	3.64
349.49	4.21
349.861	3.88
350.231	4.07
350.601	3.74
350.971	3.94
351.341	3.92
351.711	3.75
352.081	3.51
352.45	3.59
352.82	3.75
353.19	3.78
353.56	3.81
353.929	3.71
354.299	3.66
354.669	3.69
355.038	3.62
355.408	3.88
355.777	4.05
356.147	3.67
356.516	3.75
356.885	3.68
357.254	3.82
357.624	3.66
357.993	4.15
358.362	3.36
358.731	3.53
359.1	3.84
359.469	3.56
359.838	3.91
360.207	3.82
360.576	3.85
360.945	3.7
361.314	4.09
361.682	3.62
362.051	3.69
362.42	3.94
362.788	3.53
363.157	3.9
363.525	3.99
363.894	3.92
364.262	3.81
364.631	3.79
364.999	3.88
365.367	3.55
365.735	4.09
366.104	4.1
366.472	3.66
366.84	3.54
367.208	3.64
367.576	4.38
367.944	4.1
368.312	3.83
368.68	3.87
369.048	4.36
369.416	3.71
369.783	3.64
370.151	3.8
370.519	4.08
370.886	4.24
371.254	3.79
371.621	4.03
371.989	4.16
372.356	3.64
372.724	4.13
373.091	3.94
373.458	3.95
373.826	3.88
374.193	3.91
374.56	4
374.927	4.08
375.294	3.99
375.661	3.85
376.028	3.87
376.395	3.79
376.762	4
377.129	4.15
377.496	3.93
377.863	3.84
378.229	3.54
378.596	4.04
378.963	4.05
379.329	3.65
379.696	3.98
380.062	4.02
380.429	3.84
380.795	4.05
381.161	4.06
381.528	4.01
381.894	3.87
382.26	3.73
382.626	4.23
382.993	3.72
383.359	4.03
383.725	4.03
384.091	4.02
384.457	4.33
384.823	3.49
385.188	4.33
385.554	3.94
385.92	4.26
386.286	4.1
386.651	4.22
387.017	4.26
387.383	4.06
387.748	4.06
388.114	4.32
388.479	4.04
388.845	4.29
389.21	4.1
389.575	4.45
389.94	4.15
390.306	4.4
390.671	4.44
391.036	3.98
391.401	3.93
391.766	4.03
392.131	4.01
392.496	4.2
392.861	3.72
393.226	4.35
393.591	4.11
393.956	4.13
394.32	4.05
394.685	3.8
395.05	4
395.414	4.14
395.779	3.9
396.143	4.28
396.508	4.26
396.872	4.39
397.236	4.2
397.601	4.34
397.965	4.23
398.329	4.47
398.694	4.42
399.058	4.41
399.422	3.87
399.786	4.38
400.15	4.28
400.514	4.26
400.878	4.57
401.242	4.35
401.605	4.63
401.969	4.42
402.333	4.15
402.697	4.18
403.06	4.39
403.424	4.32
403.787	4.48
404.151	4.39
404.514	4.37
404.878	4.13
405.241	4.32
405.604	4.3
405.968	4.47
406.331	4.42
406.694	4.53
407.057	4.34
407.42	4.56
407.783	4.04
408.146	4.13
408.509	4.17
408.872	4.09
409.235	4.39
409.598	4.68
409.961	4.67
410.323	4.72
410.686	4.54
411.049	4.4
411.411	4.41
411.774	4.28
412.136	4.42
412.499	4.25
412.861	4.46
413.223	4.38
413.586	4.67
413.948	4.55
414.31	4.44
414.672	4.49
415.035	4.21
415.397	4.8
415.759	4.49
416.121	4.3
416.483	4.11
416.845	4.36
417.206	4.31
417.568	4.36
417.93	4.24
418.292	4.32
418.653	4.52
419.015	4.39
419.377	4.32
419.738	4.55
420.1	4.33
420.461	4.41
420.822	4.31
421.184	4.31
421.545	4.43
421.906	4.27
422.267	4.39
422.629	4.43
422.99	4.37
423.351	4.27
423.712	4.4
424.073	4.42
424.434	4.48
424.795	4.25
425.155	4.4
425.516	4.21
425.877	4.36
426.238	4.33
426.598	4.46
426.959	4.4
427.32	4.42
427.68	4.45
428.041	4.41
428.401	4.67
428.761	4.6
429.122	4.6
429.482	4.45
429.842	4.52
430.202	4.44
430.563	4.67
430.923	4.6
431.283	4.73
431.643	4.49
432.003	4.8
432.363	4.7
432.722	4.63
433.082	4.77
433.442	4.74
433.802	4.49
434.161	4.36
434.521	4.66
434.881	4.72
435.24	4.48
435.6	4.59
435.959	4.57
436.319	4.66
436.678	4.64
437.037	4.63
437.396	4.7
437.756	4.57
438.115	4.56
438.474	4.69
438.833	4.35
439.192	4.56
439.551	4.63
439.91	4.81
440.269	4.61
440.628	4.63
440.987	4.68
441.345	4.45
441.704	4.68
442.063	4.54
442.421	4.62
442.78	4.53
443.138	4.52
443.497	4.6
443.855	4.72
444.214	4.62
444.572	4.84
444.93	4.64
445.288	4.74
445.647	4.71
446.005	4.69
446.363	4.63
446.721	4.59
447.079	4.56
447.437	4.51
447.795	4.65
448.153	4.57
448.51	4.6
448.868	4.6
449.226	4.59
449.584	4.7
449.941	4.73
450.299	4.6
450.656	4.73
451.014	4.74
451.371	4.5
451.729	4.59
452.086	4.85
452.443	4.81
452.801	4.98
453.158	4.87
453.515	4.73
453.872	4.97
454.229	4.73
454.586	4.76
454.943	4.67
455.3	4.82
455.657	4.75
456.014	4.85
456.371	4.91
456.727	4.81
457.084	4.81
457.441	4.82
457.797	4.73
458.154	4.99
458.51	4.95
458.867	5.03
459.223	4.95
459.58	4.85
459.936	4.89
460.292	4.91
460.648	4.65
461.005	4.63
461.361	4.93
461.717	4.82
462.073	4.73
462.429	4.8
462.785	4.82
463.141	4.79
463.496	4.94
463.852	4.95
464.208	4.88
464.564	5.04
464.919	4.97
465.275	4.78
465.631	5.12
465.986	5.01
466.342	4.97
466.697	4.87
467.052	5
467.408	5.11
467.763	4.8
468.118	5.1
468.473	4.79
468.829	5
469.184	4.9
469.539	5.1
469.894	4.9
470.249	5.12
470.603	5.13
470.958	5.05
471.313	5.14
471.668	5.1
472.023	5.24
472.377	4.89
472.732	4.99
473.086	4.96
473.441	4.84
473.795	5.05
474.15	5.02
474.504	5.02
474.859	5.11
475.213	4.93
475.567	5.09
475.921	5.07
476.275	5.31
476.63	5.21
476.984	5.11
477.338	5.26
477.692	5.05
478.045	5.01
478.399	4.99
478.753	5.14
479.107	5.21
479.461	4.99
479.814	5.08
480.168	5.14
480.521	5.13
480.875	5.21
481.228	5.13
481.582	5.17
481.935	5.05
482.289	5.11
482.642	5.17
482.995	5.04
483.348	4.99
483.701	5.1
484.055	5.12
484.408	5.15
484.761	4.94
485.114	4.86
485.466	4.69
485.819	4.73
486.172	4.81
486.525	4.88
486.878	5
487.23	5
487.583	5.15
487.936	5.13
488.288	5.02
488.641	5.06
488.993	4.9
489.345	4.9
489.698	4.89
490.05	4.93
490.402	5.01
490.754	4.98
491.107	5.17
491.459	5.2
491.811	5.15
492.163	5.31
492.515	5.1
492.866	5.28
493.218	5.02
493.57	4.99
493.922	4.99
494.274	5.18
494.625	5.25
494.977	5.33
495.328	5.31
495.68	5.31
496.031	5.47
496.383	5.41
496.734	5.49
497.086	5.45
497.437	5.44
497.788	5.25
498.139	5.26
498.49	5.45
498.842	5.22
499.193	5.19
499.544	5.39
499.894	5.41
500.245	5.34
500.596	5.43
500.947	5.58
501.298	5.39
501.648	5.5
501.999	5.65
502.35	5.43
502.7	5.58
503.051	5.38
503.401	5.53
503.752	5.73
504.102	5.42
504.452	5.59
504.803	5.43
505.153	5.38
505.503	5.63
505.853	5.49
506.203	5.49
506.553	5.56
506.903	5.56
507.253	5.44
507.603	5.51
507.953	5.57
508.303	5.62
508.652	5.4
509.002	5.67
509.352	5.82
509.701	5.54
510.051	5.42
510.4	5.54
510.75	5.52
511.099	5.51
511.449	5.55
511.798	5.65
512.147	5.64
512.496	5.61
512.846	5.69
513.195	5.66
513.544	5.64
513.893	5.72
514.242	5.62
514.591	5.86
514.939	5.63
515.288	5.54
515.637	5.73
515.986	5.68
516.334	5.84
516.683	5.8
517.032	5.74
517.38	5.78
517.729	5.75
518.077	5.75
518.426	5.92
518.774	5.9
519.122	5.62
519.47	5.65
519.819	5.68
520.167	5.69
520.515	5.61
520.863	5.81
521.211	5.82
521.559	5.86
521.907	5.79
522.255	5.92
522.602	5.84
522.95	5.94
523.298	5.8
523.645	5.98
523.993	5.91
524.341	6.09
524.688	6.09
525.036	5.91
525.383	5.96
525.73	6.06
526.078	5.98
526.425	5.86
526.772	6.03
527.119	5.9
527.466	5.84
527.814	5.82
528.161	5.86
528.508	5.95
528.854	5.97
529.201	5.93
529.548	5.97
529.895	5.85
530.242	5.63
530.588	5.65
530.935	5.7
531.282	5.82
531.628	5.94
531.975	6.05
532.321	5.99
532.667	6.1
533.014	6.24
533.36	6.14
533.706	6.18
534.052	6.22
534.399	6
534.745	5.97
535.091	5.94
535.437	6
535.783	6.08
536.129	6.24
536.474	6.23
536.82	6.22
537.166	6.26
537.512	6.3
537.857	6.3
538.203	6.26
538.549	6.25
538.894	6.18
539.239	6.3
539.585	6.36
539.93	6.33
540.276	6.58
540.621	6.51
540.966	6.5
541.311	6.21
541.656	6.47
542.001	6.44
542.346	6.42
542.691	6.31
543.036	6.18
543.381	6.09
543.726	6.25
544.071	6.35
544.415	6.5
544.76	6.47
545.105	6.46
545.449	6.51
545.794	6.68
546.138	6.6
546.483	6.65
546.827	6.73
547.171	6.62
547.516	6.87
547.86	6.61
548.204	6.5
548.548	6.6
548.892	6.63
549.236	6.62
549.58	6.69
549.924	6.93
550.268	6.94
550.612	6.99
550.956	7.18
551.3	6.95
551.643	7.15
551.987	7.13
552.33	6.96
552.674	6.97
553.017	7
553.361	7.01
553.704	7.18
554.048	7
554.391	6.87
554.734	6.92
555.077	7.1
555.42	7.01
555.764	7.18
556.107	7.02
556.45	6.99
556.793	7.13
557.135	7.16
557.478	7.4
557.821	7.19
558.164	7.13
558.507	7.26
558.849	7.05
559.192	7.37
559.534	7.38
559.877	7.35
560.219	7.09
560.562	7.76
560.904	7.29
561.246	7.42
561.589	7.38
561.931	7.33
562.273	7.34
562.615	7.5
562.957	7.52
563.299	7.34
563.641	7.54
563.983	7.67
564.325	7.56
564.667	7.37
565.008	7.7
565.35	7.57
565.692	7.48
566.033	7.52
566.375	7.63
566.716	7.8
567.058	7.59
567.399	7.8
567.741	7.46
568.082	7.65
568.423	7.71
568.764	7.69
569.105	7.72
569.447	7.85
569.788	7.65
570.129	8.06
570.47	7.93
570.811	8.11
571.151	7.93
571.492	7.92
571.833	7.99
572.174	8.02
572.514	8.11
572.855	7.99
573.195	7.93
573.536	7.9
573.876	7.76
574.217	8.02
574.557	8.05
574.898	8.06
575.238	8.2
575.578	8.03
575.918	8.21
576.258	8.17
576.598	8.25
576.938	8.13
577.278	8.11
577.618	8.05
577.958	8.24
578.298	8.22
578.638	8.2
578.977	8.35
579.317	8.21
579.657	8.26
579.996	8.6
580.336	8.58
580.675	8.52
581.014	8.55
581.354	8.54
581.693	8.7
582.032	8.52
582.372	8.4
582.711	8.56
583.05	8.45
583.389	8.75
583.728	8.69
584.067	8.68
584.406	8.87
584.745	8.59
585.083	8.86
585.422	8.84
585.761	9.13
586.1	8.93
586.438	8.8
586.777	9.07
587.115	9.21
587.454	8.79
587.792	8.62
588.13	9.18
588.469	8.84
588.807	8.95
589.145	8.87
589.483	9.14
589.821	9.19
590.159	9.3
590.497	9.13
590.835	9.64
591.173	9.23
591.511	9.14
591.849	9.24
592.187	9.19
592.524	9.54
592.862	9.1
593.2	9.2
593.537	9.45
593.875	9.34
594.212	9.19
594.55	9.4
594.887	9.65
595.224	9.25
595.561	9.41
595.899	9.24
596.236	9.36
596.573	9.53
596.91	9.21
597.247	9.6
597.584	9.64
597.921	9.54
598.258	9.52
598.594	9.56
598.931	9.39
599.268	9.62
599.604	9.57
599.941	9.75
600.277	9.59
600.614	9.74
600.95	9.68
601.287	10.05
601.623	9.88
601.959	9.51
602.296	9.78
602.632	10.11
602.968	9.84
603.304	9.73
603.64	10.03
603.976	10.14
604.312	9.81
604.648	10.02
604.984	10.05
605.319	9.87
605.655	10.06
605.991	10.1
606.326	10.14
606.662	10.09
606.998	9.84
607.333	10.07
607.668	10.06
608.004	10.13
608.339	10.43
608.674	10.62
609.01	10.13
609.345	10.15
609.68	10.74
610.015	10.11
610.35	10.2
610.685	10.49
611.02	10.35
611.355	10.33
611.689	10.36
612.024	10.25
612.359	10.45
612.694	10.53
613.028	10.48
613.363	10.63
613.697	10.81
614.032	10.62
614.366	10.8
614.7	10.99
615.035	10.69
615.369	10.74
615.703	10.77
616.037	11.25
616.371	10.73
616.705	10.8
617.039	10.92
617.373	10.85
617.707	10.89
618.041	10.73
618.375	10.98
618.709	11
619.042	10.73
619.376	10.95
619.71	11.41
620.043	11.13
620.377	11.49
620.71	11.31
621.043	11.17
621.377	11.44
621.71	11.06
622.043	10.88
622.376	10.83
622.709	11.38
623.043	11.33
623.376	11.63
623.709	11.31
624.041	11.71
624.374	11.41
624.707	11.27
625.04	11.46
625.373	10.95
625.705	11.3
626.038	11.39
626.37	11.18
626.703	11.52
627.035	11.55
627.368	11.81
627.7	11.65
628.032	11.42
628.365	11.49
628.697	11.6
629.029	11.23
629.361	11.44
629.693	11.75
630.025	11.54
630.357	12.04
630.689	11.87
631.021	11.91
631.353	11.9
631.684	11.7
632.016	11.83
632.348	12.21
632.679	12.04
633.011	12.14
633.342	11.92
633.674	12.01
634.005	12.55
634.336	11.89
634.668	12.65
634.999	12.05
635.33	12.38
635.661	12.58
635.992	11.91
636.323	12.19
636.654	12.48
636.985	12.25
637.316	12.22
637.647	11.98
637.977	12.43
638.308	12.49
638.639	11.73
638.969	12.45
639.3	12.56
639.63	12.1
639.961	12.31
640.291	12.36
640.622	12.72
640.952	12.23
641.282	12.61
641.612	12.79
641.943	12.78
642.273	12.7
642.603	12.75
642.933	12.76
643.263	13.16
643.592	12.45
643.922	12.27
644.252	13
644.582	13.22
644.911	12.66
645.241	12.67
645.571	12.99
645.9	12.6
646.23	12.81
646.559	13.1
646.888	12.32
647.218	12.44
647.547	12.96
647.876	12.96
648.205	13.08
648.534	13.13
648.863	12.8
649.192	13.89
649.521	13.02
649.85	12.8
650.179	13.27
650.508	12.84
650.837	12.63
651.165	13.08
651.494	13.42
651.822	13.2
652.151	13.1
652.479	13.37
652.808	13.36
653.136	13.85
653.465	13.27
653.793	12.86
654.121	13.46
654.449	13.67
654.777	13.8
655.105	13.3
655.433	13.49
655.761	13.71
656.089	13.89
656.417	13.73
656.745	13.55
657.073	13.34
657.4	14.17
657.728	13.61
658.056	13.68
658.383	14.12
658.711	13.69
659.038	14.14
659.365	14.46
659.693	13.57
660.02	13.91
660.347	13.17
660.674	13.84
661.001	14.07
661.329	13.43
661.656	13.54
661.982	14.26
662.309	13.93
662.636	13.87
662.963	14.35
663.29	14.57
663.616	14.3
663.943	13.76
664.27	13.65
664.596	14.04
664.923	13.87
665.249	13.92
665.576	14.48
665.902	14.84
666.228	14.26
666.554	14.29
666.881	14.26
667.207	14.85
667.533	13.97
667.859	14.85
668.185	15.11
668.511	14.06
668.837	13.73
669.162	14.4
669.488	13.58
669.814	14.74
670.139	14.75
670.465	14.81
670.791	14.74
671.116	15.26
671.442	14
671.767	14.8
672.092	14.9
672.418	14.31
672.743	14.96
673.068	15.05
673.393	14.9
673.718	15.07
674.043	15.1
674.368	14.19
674.693	15.34
675.018	14.81
675.343	14.91
675.667	14.6
675.992	14.99
676.317	14.97
676.641	15.54
676.966	15.05
677.29	14.34
677.615	15.79
677.939	14.81
678.264	15.79
678.588	14.96
678.912	15.18
679.236	15.61
679.56	15.04
679.885	15.76
680.209	15.3
680.532	14.77
680.856	15.79
681.18	15.29
681.504	15.11
681.828	14.78
682.152	15.13
682.475	15.34
682.799	15.83
683.122	14.64
683.446	14.68
683.769	16.01
684.093	15.4
684.416	16.02
684.739	15.42
685.062	15.34
685.386	16.26
685.709	15.67
686.032	15.73
686.355	15.86
686.678	15.48
687.001	15.57
687.324	15.27
687.646	14.85
687.969	15.8
688.292	14.68
688.614	15.99
688.937	17.03
689.26	14.71
689.582	16.05
689.904	15.11
690.227	16.03
690.549	16.31
690.871	16.31
691.194	15.38
691.516	15.16
691.838	15.44
692.16	15.6
692.482	15.01
692.804	15.93
693.126	15.95
693.448	16.7
693.769	16.96
694.091	16.71
694.413	16.3
694.735	16.36
695.056	16.07
695.378	15.72
695.699	15.69
696.021	15.68
696.342	16.93
696.663	16.24
696.984	15.93
697.306	15.02
697.627	15.77
697.948	16.14
698.269	16.57
698.59	16.5
698.911	15.16
699.232	16.71
699.553	16.6
699.873	16.39
700.194	17.12
700.515	16.52
700.835	16.13
701.156	16.1
701.477	16.73
701.797	16.44
702.117	17.19
702.438	16.68
702.758	16.25
703.078	15.78
703.398	16.01
703.719	16.55
704.039	15.87
704.359	17.36
704.679	16.42
704.999	16.95
705.319	15.67
705.638	16.67
705.958	15.7
706.278	16.84
706.597	15.82
706.917	17.15
707.237	17.52
707.556	17.66
707.876	16.61
708.195	17.38
708.514	16.82
708.834	17.22
709.153	17.1
709.472	17.2
709.791	16.65
710.11	17.09
710.429	17.61
710.748	18.17
711.067	17.08
711.386	16.63
711.705	17.01
712.023	17.37
712.342	16.11
712.661	16.88
712.979	16.96
713.298	16.66
713.616	17.8
713.935	16.68
714.253	17.62
714.572	17.81
714.89	18.08
715.208	18
715.526	17.31
715.844	17.02
716.162	16.79
716.48	17.31
716.798	17.43
717.116	16.45
717.434	17.87
717.752	16.58
718.069	17.87
718.387	16.99
718.705	17.33
719.022	16.79
719.34	17.77
719.657	16.8
719.975	17.67
720.292	18.03
720.609	18.08
720.927	17.92
721.244	18.11
721.561	17.61
721.878	18.19
722.195	16.7
722.512	18.15
722.829	17.77
723.146	18.45
723.463	17.66
723.779	17.63
724.096	18.76
724.413	17.18
724.729	17.61
725.046	18.57
725.362	17.43
725.679	17.57
725.995	17.84
726.311	17.52
726.628	18.42
726.944	19.75
727.26	18.04
727.576	18.77
727.892	17.49
728.208	17.92
728.524	17.48
728.84	18.24
729.156	17.92
729.472	17.31
729.787	18.28
730.103	19.26
730.419	19.42
730.734	16.79
731.05	18.02
731.365	17.29
731.681	18.42
731.996	19.7
732.311	17.26
732.626	18.48
732.942	17.09
733.257	18.17
733.572	18.64
733.887	19.09
734.202	20.22
734.517	18.87
734.832	18.18
735.146	18.65
735.461	19.63
735.776	19
736.091	18.93
736.405	19.2
736.72	18.09
737.034	19.69
737.349	20.89
737.663	19.81
737.977	20.24
738.292	17.93
738.606	19.01
738.92	18.06
739.234	19.83
739.548	17.04
739.862	18.43
740.176	18.23
740.49	18.57
740.804	21.14
741.117	20.79
741.431	17.68
741.745	17.31
742.058	18.97
742.372	19.88
742.685	17.91
742.999	18.81
743.312	17.63
743.626	19.04
743.939	16.98
744.252	20.62
744.565	17.94
744.878	19.21
745.191	17.8
745.505	18.23
745.817	17.43
746.13	19.4
746.443	19.26
746.756	19.45
747.069	19.07
747.381	21.2
747.694	19.65
748.007	20.71
748.319	20.54
748.632	19.84
748.944	19.44
749.256	20.51
749.569	19.29
749.881	22.04
750.193	20.6
750.505	20
750.817	20.8
751.129	20.71
751.441	21.27
751.753	20.33
752.065	21.48
752.377	18.88
752.689	20.36
753	20.02
753.312	18.47
753.624	19.52
753.935	21.07
754.247	19.77
754.558	22.04
754.869	19.72
755.181	20.67
755.492	22.06
755.803	20.05
756.114	22.22
756.425	19.33
756.736	20.41
757.047	21.91
757.358	20.96
757.669	19.41
757.98	19.66
758.291	20.36
758.601	19.12
758.912	20.26
759.223	21.57
759.533	18.31
759.844	20.07
760.154	20.28
760.464	21.79
760.775	21.92
761.085	18.53
761.395	22.7
761.705	19.85
762.016	20.39
762.326	21.98
762.636	21.47
762.945	18.72
763.255	22.14
763.565	19.59
763.875	20.68
764.185	20.15
764.494	20.04
764.804	19.84
765.113	20.78
765.423	18.86
765.732	20.81
766.042	20.16
766.351	18.86
766.66	21.05
766.97	21.93
767.279	20.32
767.588	21.94
767.897	22.55
768.206	18.86
768.515	22
768.824	21.45
769.133	21.69
769.441	21.93
769.75	20.45
770.059	21.49
770.367	21.98
770.676	21.96
770.984	21.97
771.293	22.67
771.601	25.09
771.91	20.95
772.218	22.79
772.526	24.37
772.834	22.26
773.142	18.2
773.45	19.6
773.758	19.04
774.066	22.63
774.374	18.31
774.682	22.05
774.99	23.11
775.298	21.36
775.605	24.35
775.913	19.32
776.22	23.95
776.528	21.16
776.835	21.58
777.143	20.32
777.45	21.26
777.757	21.74
778.065	26.58
778.372	17.61
778.679	21.02
778.986	19.39
779.293	19.56
779.6	22.17
779.907	22.61
780.214	21.04
780.52	21.16
780.827	23.79
781.134	21.18
781.44	18
781.747	23.25
782.053	20.94
782.36	20.24
782.666	21.5
782.973	24.03
783.279	21.86
783.585	21.94
783.891	25.09
784.197	21.49
784.503	23.32
784.809	21.42
785.115	21.78
785.421	25.15
785.727	20.59
786.033	22.27
786.339	19.11
786.644	19.91
786.95	21.21
787.255	24.73
787.561	25.03
787.866	25.06
788.172	23.35
788.477	15.92
788.782	19
789.088	21.2
789.393	18.51
789.698	17.16
790.003	23.33
790.308	21.31
790.613	19.43
790.918	23.14
791.223	18.25
791.527	22.07
791.832	24.01
792.137	22.15
792.441	21.55
792.746	25.52
793.05	17.26
793.355	22.08
793.659	23.01
793.963	20.23
794.268	20.66
794.572	19.88
794.876	24.99
795.18	21.46
795.484	23.03
795.788	23.85
796.092	24.58
796.396	25.02
796.7	19.49
797.004	21.42
797.307	22.84
797.611	24.59
797.915	24.18
798.218	16.75
798.522	18.54
798.825	18.94
799.128	21.19
799.432	17.95
799.735	16.29
800.038	27.38
800.341	23.15
800.644	21.06
800.947	24.52
801.25	22.59
801.553	17.84
801.856	20.98
802.159	19.61
802.462	21.05
802.764	23.1
803.067	17.72
803.37	22.01
803.672	18.7
803.975	21.77
804.277	20.53
804.579	20.4
804.882	25.46
805.184	21.89
805.486	25.25
805.788	20.38
806.09	26.73
806.392	18.77
806.694	22.88
806.996	21.84
807.298	19.74
807.6	26.99
807.902	24.25
808.203	23.39
808.505	20.96
808.807	22.49
809.108	25.56
809.409	26.63
809.711	18.64
810.012	20.37
810.313	21.95
810.615	29.51
810.916	21.37
811.217	21.42
811.518	22.19
811.819	20.92
812.12	23.81
812.421	22.22
812.722	27.86
813.023	22.92
813.323	24.84
813.624	21.09
813.925	30.44
814.225	21.93
814.526	27.06
814.826	27.28
815.126	17.39
815.427	22.82
815.727	26.44
816.027	27.37
816.327	21.59
816.627	24.65
816.927	25.21
817.227	25.81
817.527	19.11
817.827	30.3
818.127	22.74
818.427	25.96
818.727	22.48
819.026	23.42
819.326	28.04
819.625	21.27
819.925	20.68
820.224	22.39
820.524	25.48
820.823	29.77
821.122	28.05
821.421	20.53
821.72	21.83
822.019	24.02
822.318	23.39
822.617	23.68
822.916	22.1
823.215	22.52
823.514	26.17
823.813	18.59
824.111	20.23
824.41	26.28
824.709	23.89
825.007	23.7
825.306	23.42
825.604	25.87
825.902	25.4
826.201	24.72
826.499	25.03
826.797	25.74
827.095	27.06
827.393	25.85
827.691	25.97
827.989	23.69
828.287	26.45
828.585	25.75
828.882	27.48
829.18	29.71
829.478	27.96
829.775	27.36
830.073	26.7
830.37	26.51
830.668	25.32
830.965	28.52
831.263	24.89
831.56	27.31
831.857	24.15
832.154	27.26
832.451	26.82
832.748	31.33
833.045	27.28
833.342	26.36
833.639	26.99
833.936	26.52
834.232	35.85
834.529	27.54
834.826	26.91
835.122	20.47
835.419	24.12
835.715	20.17
836.012	24.54
836.308	26.89
836.604	23.54
836.901	23.43
837.197	23.13
837.493	28.65
837.789	24.02
838.085	26.92
838.381	24.75
838.677	28.28
838.972	25.17
839.268	30.92
839.564	28.79
839.86	30.24
840.155	21.04
840.451	24.99
840.746	25.9
841.042	29.33
841.337	28.37
841.632	28.5
841.928	32.57
842.223	25.73
842.518	25.94
842.813	32.43
843.108	25.06
843.403	36.48
843.698	23.28
843.993	26.3
844.287	20.48
844.582	23.38
844.877	15.45
845.171	23.21
845.466	16.42
845.761	26.69
846.055	21.67
846.349	34.31
846.644	21.12
846.938	9.07
847.232	33.78
847.526	26.15
847.82	38.29
848.114	-5.11
848.408	12.82
848.702	11.67
848.996	16.55
849.29	20.12
849.584	10.84
849.877	0.05
850.171	35.56
850.465	17.75
850.758	16
851.052	33.73
851.345	23.65
851.638	26.12
851.932	17.2
852.225	18.41
852.518	32.21
852.811	3.1
853.104	-20.94
853.397	30.67
853.69	28.3
853.983	16.56
854.276	25.45
854.569	20.77
854.861	22.58
855.154	18.81
855.447	7.8
855.739	32.94
856.032	33.37
856.324	55.76
856.616	35.41
856.909	22.38
857.201	45.39
857.493	32.6
857.785	0.09
858.077	12.01
858.369	31.58
858.661	33.15
858.953	-1.86
859.245	29.59
859.537	46.27
859.829	23.41
860.12	16.01
860.412	18.76
860.703	28.74
860.995	27.59
861.286	16.22
861.578	28.6
861.869	42.43
862.16	7.28
862.452	32.64
862.743	40.57
863.034	21.83
863.325	45.74
863.616	14.2
863.907	15.06
864.198	35.5
864.488	41.21
864.779	33.78
865.07	0.32
865.36	4.3
865.651	40.87
865.941	20.67
866.232	7.13
866.522	-3.79
866.813	36.36
867.103	35.33
867.393	-22.18
867.683	17.74
867.973	47.13
868.263	24.93
868.553	33.12
868.843	24.72
869.133	1.94
869.423	11.22
869.713	37.16
870.002	64.53
870.292	23.84
870.582	49.33
870.871	-2.89
871.161	5.15
871.45	28.6
871.739	28
872.029	52.31
872.318	26.86
872.607	40.76
872.896	-2.75
873.185	-10.4
873.474	13.56
873.763	43.34
874.052	17.18
874.341	29.93
874.63	16.44
874.918	7.6
875.207	16.51
875.496	20.28
875.784	-84.88
876.073	-110.35
876.361	-15.3
876.649	22.17
876.938	31.83
877.226	7.54
877.514	28.38
877.802	25.74
878.09	24.8
878.378	38.56
878.666	6.9
878.954	8.04
879.242	48.65
879.53	29.83
879.817	27.77
880.105	-14.51
880.392	24.95
880.68	28.95
880.967	79.93
881.255	49.37
881.542	-12.39
881.83	-48.44
882.117	21.43
882.404	2.19
882.691	25.56
882.978	14.13
883.265	2.18
883.552	24.79
883.839	34.97
884.126	18.7
884.413	37.91
884.699	33.51
884.986	36.78
885.273	28.01
885.559	28.01
885.846	28.01
