Data from 0192_forehead_Reflection__3__389.txt Node

Date: Fri Dec 15 20:17:54 CST 2023
User: ToomeyLab
Spectrometer: FLMS14357
Trigger mode: 0
Integration Time (sec): 1.000000E-2
Scans to average: 100
Electric dark correction enabled: true
Nonlinearity correction enabled: false
Boxcar width: 0
XAxis mode: Wavelengths
Number of Pixels in Spectrum: 2048
>>>>>Begin Spectral Data<<<<<
189.047	107.62
189.435	107.62
189.823	107.62
190.211	149.14
190.599	76.22
190.987	41.95
191.375	361.85
191.763	-411
192.151	12.09
192.538	201.71
192.926	205.81
193.314	158.88
193.702	160.75
194.089	393.79
194.477	-130.25
194.864	446.22
195.252	66.28
195.639	111.71
196.027	-29.35
196.414	740.95
196.801	428.52
197.189	115.28
197.576	-2.97
197.963	-110.81
198.351	101.69
198.738	-11.86
199.125	21.42
199.512	71.75
199.899	-11.29
200.286	61.14
200.673	22.91
201.06	71.44
201.447	109.16
201.833	40.42
202.22	15.56
202.607	6.93
202.994	46.19
203.38	31.1
203.767	20.41
204.154	18.27
204.54	54.35
204.927	-33.33
205.313	-18.14
205.699	15.41
206.086	44.36
206.472	1.78
206.858	18.67
207.245	-32.5
207.631	37.02
208.017	50.43
208.403	-6.71
208.789	19.46
209.175	9.11
209.561	-20.59
209.947	-40.81
210.333	-11.87
210.719	39.51
211.105	5.66
211.491	-53.41
211.876	23.75
212.262	11.91
212.648	67.04
213.034	17.13
213.419	-24.59
213.805	0.02
214.19	28.49
214.576	12.43
214.961	-7.33
215.346	-49.34
215.732	15.62
216.117	-25.97
216.502	-33.33
216.888	2.41
217.273	8.64
217.658	-24.11
218.043	53.16
218.428	-34.74
218.813	-21.55
219.198	-29.2
219.583	24.74
219.968	33.11
220.353	-10.64
220.738	9.82
221.122	27.69
221.507	2.48
221.892	-32.28
222.276	-27.12
222.661	4.87
223.046	12.81
223.43	16.36
223.815	12.8
224.199	15.99
224.583	5.8
224.968	-2.98
225.352	17.09
225.736	-15.53
226.121	-7.97
226.505	-1.55
226.889	9.37
227.273	0.5
227.657	12.67
228.041	8.53
228.425	1.7
228.809	3.41
229.193	4.09
229.577	2.45
229.961	3.33
230.344	2.95
230.728	2.72
231.112	3.14
231.495	3.25
231.879	1.46
232.263	4.75
232.646	5.04
233.03	4.47
233.413	2.57
233.797	4.67
234.18	4.32
234.563	5.35
234.946	2.99
235.33	5.1
235.713	3.05
236.096	3.08
236.479	4.16
236.862	2.49
237.245	4.66
237.628	2.89
238.011	5.21
238.394	6.58
238.777	6.34
239.16	3.16
239.543	3.09
239.925	5.44
240.308	4.62
240.691	4.51
241.073	3.39
241.456	3.43
241.838	3.58
242.221	2.78
242.603	3.72
242.986	4.31
243.368	3.4
243.75	4.33
244.133	3.56
244.515	3.89
244.897	3.79
245.279	3.53
245.661	3.37
246.043	3.28
246.425	2.82
246.807	5.03
247.189	3.91
247.571	4.06
247.953	3.96
248.335	3.64
248.717	3.83
249.098	3.64
249.48	3.94
249.862	3.79
250.243	3.75
250.625	3.63
251.006	4.34
251.388	3.04
251.769	3.85
252.151	4.23
252.532	2.85
252.913	4.15
253.295	3.78
253.676	3.2
254.057	3.67
254.438	3.71
254.819	3.61
255.2	3.39
255.581	3.68
255.962	3
256.343	4.87
256.724	3.08
257.105	3.57
257.486	3.44
257.867	5.63
258.247	3.78
258.628	4.4
259.009	4.39
259.389	3.98
259.77	3.56
260.15	3.13
260.531	2.84
260.911	4.17
261.292	3.72
261.672	3.96
262.052	3.89
262.432	4.06
262.813	3.74
263.193	4.19
263.573	3.93
263.953	3.59
264.333	4.38
264.713	4.46
265.093	3.57
265.473	4.53
265.853	3.17
266.233	4.07
266.612	2.54
266.992	3.14
267.372	4.8
267.752	3.25
268.131	3.65
268.511	3.98
268.89	4.39
269.27	4.04
269.649	3.58
270.029	3.49
270.408	4.62
270.787	4.68
271.167	4.27
271.546	4.51
271.925	3.59
272.304	4.14
272.683	4.15
273.062	3.7
273.441	3.72
273.82	3.27
274.199	4.05
274.578	4.27
274.957	4.05
275.336	4.08
275.715	3.53
276.093	3.98
276.472	3.96
276.851	3.57
277.229	3.53
277.608	3.26
277.986	3.88
278.365	4.48
278.743	3.65
279.122	3.3
279.5	3.58
279.878	4.58
280.257	3.96
280.635	3.05
281.013	3.77
281.391	4.09
281.769	4.36
282.147	4.22
282.525	4.66
282.903	3.66
283.281	4.2
283.659	4.32
284.037	4.07
284.415	4.08
284.792	4.02
285.17	3.36
285.548	3.7
285.925	4.01
286.303	4.05
286.68	3.99
287.058	4.02
287.435	3.92
287.813	4.13
288.19	3.8
288.567	3.75
288.945	4.54
289.322	4.25
289.699	4
290.076	3.76
290.453	4.23
290.83	4.11
291.207	3.73
291.584	4.71
291.961	4.54
292.338	4.05
292.715	4.6
293.092	4.48
293.469	4.26
293.845	4.87
294.222	4.25
294.599	4.75
294.975	4.01
295.352	5.2
295.728	4.7
296.105	4.96
296.481	5.17
296.858	5.11
297.234	5.34
297.61	4.94
297.986	5.28
298.363	4.94
298.739	5
299.115	4.86
299.491	4.83
299.867	4.99
300.243	5.16
300.619	5.36
300.995	5.09
301.371	5.53
301.746	4.91
302.122	5.58
302.498	5.36
302.874	5.74
303.249	5.61
303.625	5.82
304	5.94
304.376	5.77
304.751	5.52
305.127	6.31
305.502	5.35
305.878	5.67
306.253	5.91
306.628	7.16
307.003	5.96
307.378	6.22
307.754	6.55
308.129	5.8
308.504	6.44
308.879	6.38
309.254	7.45
309.629	7.12
310.003	7.02
310.378	6.99
310.753	6.86
311.128	7.01
311.502	6.67
311.877	6.85
312.252	6.88
312.626	6.78
313.001	7.08
313.375	7.32
313.75	6.86
314.124	7.56
314.498	7.14
314.873	7.28
315.247	7.44
315.621	6.89
315.995	7.18
316.369	7.98
316.743	7.85
317.117	7.84
317.491	8.25
317.865	8.25
318.239	7.55
318.613	8.61
318.987	8.54
319.361	7.35
319.734	8.55
320.108	8.34
320.482	8.3
320.855	8.31
321.229	8.34
321.602	8.51
321.976	8.97
322.349	8.92
322.723	8.55
323.096	8.91
323.469	8.15
323.843	9.41
324.216	9.76
324.589	9.15
324.962	9.22
325.335	9.19
325.708	9.35
326.081	8.83
326.454	9.56
326.827	9.2
327.2	9.65
327.573	10.01
327.945	10.04
328.318	9.36
328.691	9.74
329.063	10.19
329.436	9.96
329.809	10.12
330.181	10.04
330.553	10.19
330.926	9.97
331.298	10.39
331.671	10.38
332.043	10.75
332.415	10.93
332.787	10.62
333.159	11.26
333.532	10.79
333.904	10.73
334.276	11.16
334.648	11.22
335.02	10.93
335.391	11.04
335.763	10.79
336.135	10.87
336.507	11.78
336.879	11.17
337.25	11.17
337.622	11.58
337.993	11.16
338.365	11.52
338.736	11.44
339.108	11.42
339.479	11.72
339.851	11.6
340.222	11.54
340.593	11.77
340.964	11.39
341.336	12.59
341.707	11.55
342.078	12.31
342.449	12.31
342.82	12.2
343.191	12
343.562	12.69
343.933	13.22
344.303	12.6
344.674	12.76
345.045	12.44
345.416	12.46
345.786	11.86
346.157	13.41
346.527	12.27
346.898	12.54
347.268	12.59
347.639	12.95
348.009	12.64
348.38	12.81
348.75	13.26
349.12	12.65
349.49	13.93
349.861	13.5
350.231	12.94
350.601	13.43
350.971	13.47
351.341	13.24
351.711	14.07
352.081	13.35
352.45	13.36
352.82	13.91
353.19	13.85
353.56	13.36
353.929	14.11
354.299	13.79
354.669	13.81
355.038	14.62
355.408	14.08
355.777	13.88
356.147	14.6
356.516	14.56
356.885	13.82
357.254	14.31
357.624	14.57
357.993	14.45
358.362	14.44
358.731	14.04
359.1	14.61
359.469	14.91
359.838	14.99
360.207	14.62
360.576	15.06
360.945	14.92
361.314	15.3
361.682	14.94
362.051	15.12
362.42	15.11
362.788	15.15
363.157	15.27
363.525	15.43
363.894	15.34
364.262	15.44
364.631	15.32
364.999	15.88
365.367	15.22
365.735	16.04
366.104	16.05
366.472	15.75
366.84	15.78
367.208	15.85
367.576	16.09
367.944	16.16
368.312	15.71
368.68	15.93
369.048	16.3
369.416	16.37
369.783	16.1
370.151	16.35
370.519	16.6
370.886	16.73
371.254	16.1
371.621	16.71
371.989	17.13
372.356	16.36
372.724	16.84
373.091	16.54
373.458	16.82
373.826	16.71
374.193	17.16
374.56	16.99
374.927	17.12
375.294	17.54
375.661	17.31
376.028	17.28
376.395	16.85
376.762	17.66
377.129	17.09
377.496	17.43
377.863	17.78
378.229	17.06
378.596	17.79
378.963	17.63
379.329	17.61
379.696	17.83
380.062	18.29
380.429	17.84
380.795	18.22
381.161	18.22
381.528	18.66
381.894	18.3
382.26	18.37
382.626	18.69
382.993	17.99
383.359	19.07
383.725	18.42
384.091	18.69
384.457	18.91
384.823	18.81
385.188	18.63
385.554	18.54
385.92	18.95
386.286	19.04
386.651	19.18
387.017	18.98
387.383	19.5
387.748	19.17
388.114	19.73
388.479	18.99
388.845	19.52
389.21	19.21
389.575	19.5
389.94	19.57
390.306	19.66
390.671	19.98
391.036	19.32
391.401	19.71
391.766	19.68
392.131	19.64
392.496	20.29
392.861	19.73
393.226	20.34
393.591	20.32
393.956	19.92
394.32	20.28
394.685	19.95
395.05	20.38
395.414	20.52
395.779	20.2
396.143	20.34
396.508	20.64
396.872	20.47
397.236	20.83
397.601	20.64
397.965	20.96
398.329	20.96
398.694	20.82
399.058	20.82
399.422	20.74
399.786	21.36
400.15	21.56
400.514	21.21
400.878	21.09
401.242	21.68
401.605	21.66
401.969	21.36
402.333	21.78
402.697	21.96
403.06	21.59
403.424	21.82
403.787	21.8
404.151	22
404.514	21.83
404.878	21.85
405.241	22.16
405.604	21.99
405.968	21.83
406.331	21.95
406.694	22.28
407.057	22.3
407.42	22.54
407.783	22.28
408.146	22.46
408.509	22.43
408.872	22.39
409.235	22.73
409.598	23.05
409.961	22.87
410.323	22.97
410.686	22.76
411.049	22.56
411.411	22.77
411.774	22.82
412.136	23.02
412.499	22.78
412.861	23.28
413.223	23.21
413.586	23.07
413.948	23.18
414.31	23.26
414.672	23.12
415.035	23.35
415.397	23.92
415.759	23.26
416.121	23.58
416.483	23.6
416.845	23.59
417.206	23.97
417.568	23.73
417.93	23.73
418.292	23.7
418.653	23.86
419.015	23.99
419.377	23.75
419.738	23.71
420.1	23.8
420.461	23.75
420.822	23.88
421.184	23.96
421.545	23.93
421.906	23.98
422.267	23.98
422.629	23.83
422.99	24.08
423.351	24.02
423.712	24.23
424.073	24.17
424.434	24.44
424.795	24.31
425.155	24.51
425.516	24.44
425.877	24.3
426.238	24.39
426.598	24.45
426.959	24.61
427.32	24.61
427.68	24.86
428.041	25
428.401	25.06
428.761	25.2
429.122	25.58
429.482	25.38
429.842	25.62
430.202	25.57
430.563	25.71
430.923	25.58
431.283	25.56
431.643	25.73
432.003	25.69
432.363	25.76
432.722	25.85
433.082	25.79
433.442	25.77
433.802	25.88
434.161	26.04
434.521	26.13
434.881	26.21
435.24	26.1
435.6	26.31
435.959	26.05
436.319	26.21
436.678	26.14
437.037	26.52
437.396	26.6
437.756	26.67
438.115	26.47
438.474	26.42
438.833	26.45
439.192	26.78
439.551	26.93
439.91	27.04
440.269	27.05
440.628	26.71
440.987	26.99
441.345	26.67
441.704	26.82
442.063	26.7
442.421	26.95
442.78	26.94
443.138	27.07
443.497	27.03
443.855	27.2
444.214	27.29
444.572	27.44
444.93	27.74
445.288	27.72
445.647	27.69
446.005	27.69
446.363	27.65
446.721	27.65
447.079	27.34
447.437	27.58
447.795	27.6
448.153	27.33
448.51	27.48
448.868	27.54
449.226	27.61
449.584	27.78
449.941	27.89
450.299	28.16
450.656	28.11
451.014	28.15
451.371	28.26
451.729	28.34
452.086	28.63
452.443	28.7
452.801	28.87
453.158	28.83
453.515	28.65
453.872	28.82
454.229	28.54
454.586	28.73
454.943	28.98
455.3	28.99
455.657	28.92
456.014	29.04
456.371	29.25
456.727	29.16
457.084	29.31
457.441	29.34
457.797	29.16
458.154	29.57
458.51	29.55
458.867	29.71
459.223	29.5
459.58	29.6
459.936	29.76
460.292	29.7
460.648	29.74
461.005	29.58
461.361	29.3
461.717	29.25
462.073	29.44
462.429	29.57
462.785	29.65
463.141	29.68
463.496	30.03
463.852	30.08
464.208	30.31
464.564	30.3
464.919	30.33
465.275	30.34
465.631	30.64
465.986	30.64
466.342	30.61
466.697	30.3
467.052	30.59
467.408	30.7
467.763	30.64
468.118	31
468.473	30.87
468.829	30.85
469.184	30.97
469.539	30.84
469.894	30.89
470.249	30.96
470.603	30.98
470.958	31.24
471.313	31.39
471.668	31.32
472.023	31.26
472.377	31.4
472.732	31.32
473.086	31.3
473.441	31.52
473.795	31.57
474.15	31.59
474.504	31.6
474.859	31.48
475.213	31.61
475.567	31.6
475.921	31.89
476.275	32.07
476.63	32.11
476.984	32.24
477.338	32.04
477.692	32.03
478.045	31.99
478.399	32.15
478.753	32.26
479.107	31.98
479.461	31.95
479.814	32.17
480.168	32.31
480.521	32.18
480.875	32.2
481.228	32.45
481.582	32.38
481.935	32.33
482.289	32.26
482.642	32.41
482.995	32.11
483.348	32.24
483.701	32.52
484.055	32.42
484.408	32.21
484.761	32.01
485.114	31.79
485.466	31.39
485.819	31.41
486.172	31.5
486.525	31.84
486.878	32
487.23	32.18
487.583	32.46
487.936	32.49
488.288	32.56
488.641	32.45
488.993	32.04
489.345	32.11
489.698	32.11
490.05	32.1
490.402	32.39
490.754	32.59
491.107	32.79
491.459	33.02
491.811	33.05
492.163	33.35
492.515	33.34
492.866	33.16
493.218	32.71
493.57	32.6
493.922	32.76
494.274	33.08
494.625	33.3
494.977	33.6
495.328	33.79
495.68	33.91
496.031	34.15
496.383	34.2
496.734	34.45
497.086	34.44
497.437	34.56
497.788	34.61
498.139	34.34
498.49	34.4
498.842	34.13
499.193	34.3
499.544	34.34
499.894	34.63
500.245	34.52
500.596	34.86
500.947	34.85
501.298	34.75
501.648	35.01
501.999	35.06
502.35	35.15
502.7	35.22
503.051	35.06
503.401	34.94
503.752	35.42
504.102	35.26
504.452	35.42
504.803	35.29
505.153	35.36
505.503	35.3
505.853	35.55
506.203	35.42
506.553	35.46
506.903	35.66
507.253	35.71
507.603	35.64
507.953	35.57
508.303	35.6
508.652	35.99
509.002	36.01
509.352	35.88
509.701	35.72
510.051	35.67
510.4	35.81
510.75	35.84
511.099	35.98
511.449	35.87
511.798	35.78
512.147	35.95
512.496	36.29
512.846	36.06
513.195	36.2
513.544	35.88
513.893	36.3
514.242	36.03
514.591	36.48
514.939	36.37
515.288	36.39
515.637	36.74
515.986	36.84
516.334	36.6
516.683	36.76
517.032	36.91
517.38	37.02
517.729	36.98
518.077	37.04
518.426	37
518.774	36.95
519.122	36.9
519.47	36.86
519.819	36.96
520.167	36.72
520.515	36.57
520.863	36.69
521.211	36.64
521.559	36.88
521.907	37.03
522.255	37.38
522.602	37.33
522.95	37.42
523.298	37.59
523.645	37.68
523.993	37.58
524.341	37.89
524.688	37.82
525.036	37.58
525.383	37.87
525.73	37.99
526.078	37.92
526.425	37.97
526.772	37.81
527.119	37.72
527.466	37.32
527.814	37.29
528.161	37.57
528.508	37.57
528.854	37.82
529.201	37.48
529.548	37.58
529.895	37.49
530.242	37.03
530.588	36.86
530.935	37.08
531.282	37.3
531.628	37.39
531.975	37.66
532.321	37.9
532.667	37.98
533.014	38.18
533.36	38.1
533.706	38.19
534.052	38.08
534.399	38.24
534.745	38.11
535.091	38.06
535.437	37.94
535.783	37.95
536.129	38.2
536.474	38.39
536.82	38.71
537.166	38.95
537.512	38.72
537.857	38.85
538.203	38.72
538.549	38.69
538.894	38.64
539.239	38.91
539.585	39.01
539.93	39.15
540.276	39.25
540.621	39.37
540.966	39.7
541.311	39.59
541.656	39.51
542.001	39.57
542.346	39.56
542.691	39
543.036	38.87
543.381	38.65
543.726	38.85
544.071	39.04
544.415	39.25
544.76	39.34
545.105	39.15
545.449	39.28
545.794	39.67
546.138	39.95
546.483	40.08
546.827	40.11
547.171	40.13
547.516	40.2
547.86	40.25
548.204	40.23
548.548	40.17
548.892	40.31
549.236	40.29
549.58	40.22
549.924	40.46
550.268	40.67
550.612	40.82
550.956	40.55
551.3	40.88
551.643	41.26
551.987	41.27
552.33	41.21
552.674	41.09
553.017	41.29
553.361	41.09
553.704	41.35
554.048	41.27
554.391	41.13
554.734	41.06
555.077	41.23
555.42	41.22
555.764	41.35
556.107	41.47
556.45	41.46
556.793	41.53
557.135	41.69
557.478	41.91
557.821	41.77
558.164	41.91
558.507	41.79
558.849	41.8
559.192	41.98
559.534	42.32
559.877	42.22
560.219	41.99
560.562	42.5
560.904	42.05
561.246	42.39
561.589	42.44
561.931	42.43
562.273	42.6
562.615	42.39
562.957	42.62
563.299	42.33
563.641	42.39
563.983	42.38
564.325	42.51
564.667	42.52
565.008	42.71
565.35	42.66
565.692	42.56
566.033	42.71
566.375	43.16
566.716	43.03
567.058	42.6
567.399	42.73
567.741	42.57
568.082	42.7
568.423	42.92
568.764	42.58
569.105	42.82
569.447	42.56
569.788	42.86
570.129	43.27
570.47	43.36
570.811	43.45
571.151	42.95
571.492	43.39
571.833	43.22
572.174	43.29
572.514	43.48
572.855	43.48
573.195	43.5
573.536	43.29
573.876	43.24
574.217	43.15
574.557	43.46
574.898	43.76
575.238	43.59
575.578	43.66
575.918	43.55
576.258	43.89
576.598	43.9
576.938	43.91
577.278	43.67
577.618	43.58
577.958	43.87
578.298	43.96
578.638	43.95
578.977	43.98
579.317	44.32
579.657	44.08
579.996	44.18
580.336	44.2
580.675	44.4
581.014	44.43
581.354	44.51
581.693	44.61
582.032	44.55
582.372	44.25
582.711	44.53
583.05	44.56
583.389	44.73
583.728	44.6
584.067	44.7
584.406	44.99
584.745	45.39
585.083	44.72
585.422	44.84
585.761	44.77
586.1	44.99
586.438	45
586.777	45.22
587.115	45.39
587.454	45.24
587.792	45.02
588.13	45.33
588.469	45.3
588.807	45.46
589.145	44.72
589.483	45.14
589.821	45.27
590.159	45.19
590.497	45.47
590.835	45.77
591.173	45.35
591.511	45.66
591.849	45.39
592.187	45.49
592.524	45.36
592.862	45.36
593.2	45.51
593.537	45.67
593.875	45.3
594.212	45.32
594.55	46.04
594.887	46.14
595.224	45.96
595.561	46.18
595.899	46.05
596.236	45.71
596.573	46.1
596.91	45.93
597.247	46.17
597.584	46.4
597.921	46.17
598.258	45.98
598.594	46.04
598.931	45.87
599.268	46.06
599.604	45.57
599.941	46.04
600.277	46.05
600.614	46.1
600.95	46
601.287	46.12
601.623	46.55
601.959	46.38
602.296	46.45
602.632	46.73
602.968	46.63
603.304	46.92
603.64	46.71
603.976	46.85
604.312	46.65
604.648	46.71
604.984	46.93
605.319	46.83
605.655	46.55
605.991	46.54
606.326	46.79
606.662	46.61
606.998	46.61
607.333	46.63
607.668	46.79
608.004	46.86
608.339	47.42
608.674	46.93
609.01	47.4
609.345	47.51
609.68	47.09
610.015	47.07
610.35	47.22
610.685	47.35
611.02	47.4
611.355	46.97
611.689	47.09
612.024	47.28
612.359	47.08
612.694	47.21
613.028	47.4
613.363	47.37
613.697	47.42
614.032	47.6
614.366	48.04
614.7	47.76
615.035	48
615.369	47.68
615.703	47.55
616.037	48
616.371	47.67
616.705	47.75
617.039	47.91
617.373	47.85
617.707	47.74
618.041	48.53
618.375	47.98
618.709	48.76
619.042	47.97
619.376	48.28
619.71	48.03
620.043	48.28
620.377	48.54
620.71	48.14
621.043	48.17
621.377	48.18
621.71	48.26
622.043	48.23
622.376	48.58
622.709	48.02
623.043	48.74
623.376	48.73
623.709	48.6
624.041	48.94
624.374	48.76
624.707	49.03
625.04	48.58
625.373	49.14
625.705	48.91
626.038	48.63
626.37	48.9
626.703	49.01
627.035	48.97
627.368	49.03
627.7	48.96
628.032	49.14
628.365	48.89
628.697	49.31
629.029	49.1
629.361	49.01
629.693	48.99
630.025	49.21
630.357	49.02
630.689	49.13
631.021	49.47
631.353	49.1
631.684	49.4
632.016	49.7
632.348	49.71
632.679	49.49
633.011	49.78
633.342	49.86
633.674	49.55
634.005	49.65
634.336	49.8
634.668	49.64
634.999	50.06
635.33	49.45
635.661	49.8
635.992	49.4
636.323	49.36
636.654	49.62
636.985	49.39
637.316	50.11
637.647	49.64
637.977	49.96
638.308	50.09
638.639	50.58
638.969	50.02
639.3	49.81
639.63	49.65
639.961	50.31
640.291	49.63
640.622	50.45
640.952	49.37
641.282	50.61
641.612	50.33
641.943	50.16
642.273	50.03
642.603	50.36
642.933	50.38
643.263	50.43
643.592	50.73
643.922	50.5
644.252	50.57
644.582	50.54
644.911	50.19
645.241	50.09
645.571	50.17
645.9	50.34
646.23	50.69
646.559	51
646.888	50.38
647.218	50.67
647.547	51.05
647.876	50.31
648.205	51.12
648.534	51.22
648.863	50.64
649.192	51.08
649.521	50.7
649.85	51.47
650.179	51.59
650.508	50.35
650.837	50.49
651.165	50.87
651.494	50.4
651.822	50.68
652.151	51.48
652.479	51.01
652.808	51.19
653.136	51.28
653.465	51.14
653.793	51.74
654.121	50.88
654.449	51.13
654.777	51.95
655.105	51.92
655.433	51.19
655.761	51.02
656.089	51.73
656.417	52.06
656.745	51.51
657.073	51.75
657.4	52.16
657.728	51.55
658.056	51.1
658.383	51.46
658.711	52.17
659.038	51.9
659.365	52.07
659.693	52.05
660.02	51.13
660.347	51.72
660.674	51.58
661.001	51.63
661.329	52.05
661.656	51.64
661.982	52.17
662.309	51.54
662.636	51.93
662.963	52.52
663.29	52.2
663.616	52.21
663.943	52.06
664.27	52.79
664.596	52.41
664.923	51.99
665.249	51.87
665.576	53.09
665.902	52.75
666.228	52.6
666.554	53.02
666.881	52.85
667.207	52.91
667.533	52.15
667.859	52.66
668.185	53.34
668.511	52.44
668.837	52.09
669.162	52.56
669.488	53
669.814	52.63
670.139	53.05
670.465	52.57
670.791	52.5
671.116	52.52
671.442	52.71
671.767	53.76
672.092	53.3
672.418	53.31
672.743	52.93
673.068	53.23
673.393	53.48
673.718	53.48
674.043	53.13
674.368	53.2
674.693	52.92
675.018	54.1
675.343	53.09
675.667	52.92
675.992	53.14
676.317	53.17
676.641	53.56
676.966	53.62
677.29	53.2
677.615	54.13
677.939	54.27
678.264	53.86
678.588	54
678.912	53.57
679.236	53.32
679.56	53.4
679.885	54.69
680.209	53.56
680.532	53.77
680.856	54
681.18	53.67
681.504	54.3
681.828	54.27
682.152	53.89
682.475	53.5
682.799	53.89
683.122	53.52
683.446	53.13
683.769	54.16
684.093	53.37
684.416	53.78
684.739	54.51
685.062	53.9
685.386	54.13
685.709	53.73
686.032	53.75
686.355	54.53
686.678	53.74
687.001	53.24
687.324	54.5
687.646	54.41
687.969	54.36
688.292	54.2
688.614	54.39
688.937	54.52
689.26	53.72
689.582	53.97
689.904	53.97
690.227	54.9
690.549	54.46
690.871	54.05
691.194	53.4
691.516	54.76
691.838	54
692.16	54.32
692.482	54.62
692.804	54.78
693.126	54.99
693.448	55.13
693.769	54.35
694.091	54.34
694.413	54.83
694.735	54.62
695.056	54.61
695.378	55.6
695.699	53.86
696.021	54.29
696.342	54.16
696.663	54.89
696.984	54.64
697.306	53.87
697.627	55.85
697.948	55.05
698.269	53.87
698.59	55.54
698.911	54.7
699.232	54.9
699.553	55.82
699.873	54.88
700.194	54.92
700.515	55.03
700.835	55.07
701.156	55.51
701.477	55.54
701.797	54.54
702.117	55.35
702.438	54.78
702.758	54.7
703.078	55.13
703.398	55.32
703.719	54.6
704.039	56.58
704.359	56.44
704.679	54.86
704.999	55.84
705.319	54.99
705.638	55.33
705.958	56.64
706.278	55.7
706.597	55.2
706.917	55.2
707.237	56.14
707.556	55.97
707.876	55.66
708.195	55.76
708.514	56.93
708.834	55.14
709.153	56.07
709.472	54.92
709.791	56.36
710.11	55.42
710.429	55.42
710.748	55.43
711.067	54.44
711.386	54.74
711.705	56.43
712.023	56.19
712.342	55.07
712.661	57.06
712.979	55.98
713.298	56.34
713.616	56.64
713.935	55.8
714.253	54.9
714.572	56.14
714.89	56.08
715.208	55.52
715.526	56.02
715.844	56.8
716.162	56.43
716.48	56.39
716.798	56.36
717.116	56.03
717.434	57.3
717.752	55.83
718.069	56.68
718.387	56.02
718.705	56.9
719.022	55.86
719.34	56.22
719.657	56.94
719.975	57.16
720.292	54.94
720.609	55.32
720.927	55.9
721.244	56.31
721.561	56.36
721.878	56.87
722.195	57.5
722.512	56.93
722.829	56.12
723.146	58.31
723.463	56.64
723.779	55.57
724.096	57.84
724.413	57.99
724.729	57.93
725.046	54.59
725.362	57.61
725.679	57.23
725.995	56.18
726.311	55.62
726.628	56.53
726.944	55.86
727.26	55.68
727.576	57.85
727.892	57.37
728.208	54.74
728.524	56.43
728.84	56.44
729.156	58.04
729.472	58.12
729.787	57.6
730.103	56.54
730.419	56.25
730.734	57.51
731.05	56.76
731.365	56.83
731.681	57.35
731.996	56.13
732.311	58.39
732.626	56.22
732.942	58.33
733.257	58
733.572	57.7
733.887	56.99
734.202	55.26
734.517	57.67
734.832	56.23
735.146	56.91
735.461	56.99
735.776	57.22
736.091	58
736.405	57.66
736.72	57.73
737.034	57.78
737.349	59.84
737.663	57.69
737.977	57.29
738.292	58.24
738.606	58.44
738.92	58.57
739.234	57.05
739.548	58.33
739.862	56.68
740.176	57.55
740.49	56.88
740.804	58.53
741.117	57.4
741.431	57.35
741.745	58.35
742.058	56.95
742.372	57.07
742.685	58.24
742.999	57.13
743.312	58.47
743.626	56.3
743.939	59.31
744.252	58.45
744.565	58.24
744.878	58.43
745.191	55.58
745.505	58.18
745.817	57.56
746.13	59.75
746.443	58.47
746.756	57.72
747.069	55.87
747.381	58.58
747.694	57.35
748.007	56.98
748.319	59.07
748.632	58.54
748.944	58.7
749.256	59.18
749.569	57.3
749.881	58.65
750.193	57.78
750.505	59.89
750.817	58.56
751.129	59.27
751.441	59.4
751.753	58.69
752.065	59.09
752.377	56.72
752.689	58.39
753	58.66
753.312	58.92
753.624	58.97
753.935	59.63
754.247	57.75
754.558	58.6
754.869	59.88
755.181	58.3
755.492	57.08
755.803	58.62
756.114	57.85
756.425	57.64
756.736	59.47
757.047	60.42
757.358	58.09
757.669	57.6
757.98	58.5
758.291	58.3
758.601	59.77
758.912	58.24
759.223	59.7
759.533	58.28
759.844	57.63
760.154	60.42
760.464	58.48
760.775	59.97
761.085	58.4
761.395	58.55
761.705	60.7
762.016	59.73
762.326	59.2
762.636	59.19
762.945	58.13
763.255	60.27
763.565	61.49
763.875	59.09
764.185	58.46
764.494	60.11
764.804	59.5
765.113	58.87
765.423	59.26
765.732	60.03
766.042	58.8
766.351	59.78
766.66	59.93
766.97	60.16
767.279	59.05
767.588	58.07
767.897	62.39
768.206	58.01
768.515	59.93
768.824	60.79
769.133	60.13
769.441	59.39
769.75	58.71
770.059	60.51
770.367	58.68
770.676	58.16
770.984	59.84
771.293	59.18
771.601	59.63
771.91	61.11
772.218	61.53
772.526	58.75
772.834	61.45
773.142	57.95
773.45	59.92
773.758	60
774.066	60.36
774.374	59.95
774.682	58.11
774.99	58.75
775.298	58.25
775.605	58.93
775.913	57.96
776.22	61.27
776.528	55.55
776.835	59.02
777.143	61.68
777.45	60.67
777.757	62.81
778.065	65.19
778.372	58.73
778.679	62.71
778.986	63.07
779.293	57.11
779.6	60.31
779.907	59.64
780.214	60.69
780.52	60.59
780.827	59.02
781.134	58.46
781.44	57.2
781.747	57.87
782.053	58.56
782.36	62.08
782.666	58.79
782.973	58.59
783.279	57.12
783.585	61.5
783.891	59.85
784.197	62.2
784.503	64.47
784.809	62.39
785.115	60.1
785.421	61.06
785.727	60.64
786.033	62.98
786.339	59.66
786.644	58.06
786.95	55.08
787.255	61.57
787.561	60.32
787.866	52.55
788.172	63.79
788.477	59.14
788.782	59.09
789.088	58.1
789.393	57.27
789.698	57.19
790.003	59.82
790.308	55.98
790.613	56.45
790.918	62.52
791.223	59.33
791.527	61.12
791.832	62.77
792.137	56.34
792.441	61.83
792.746	62.08
793.05	56.65
793.355	59.52
793.659	65.29
793.963	65.48
794.268	61.08
794.572	61.37
794.876	59.74
795.18	56.62
795.484	65.21
795.788	59.18
796.092	57.72
796.396	65.94
796.7	61.03
797.004	57.61
797.307	54.21
797.611	63.53
797.915	64.56
798.218	61.67
798.522	55.79
798.825	60.03
799.128	63.09
799.432	62.27
799.735	55.9
800.038	62.29
800.341	58.84
800.644	56.99
800.947	57.96
801.25	60.86
801.553	60.63
801.856	56.29
802.159	59.83
802.462	60.55
802.764	53.51
803.067	65.18
803.37	67.28
803.672	56.84
803.975	63.34
804.277	58.74
804.579	57.02
804.882	60.37
805.184	63.03
805.486	58.49
805.788	63.8
806.09	62.87
806.392	59.11
806.694	59.19
806.996	59.17
807.298	55.14
807.6	63.27
807.902	61.39
808.203	62.44
808.505	63.03
808.807	61.48
809.108	61.07
809.409	56.47
809.711	53.55
810.012	58.03
810.313	59.45
810.615	65.7
810.916	60.85
811.217	68.27
811.518	63.28
811.819	60.3
812.12	56.85
812.421	64.57
812.722	60.35
813.023	65.86
813.323	57.23
813.624	60.1
813.925	63.86
814.225	60.64
814.526	58.75
814.826	64.7
815.126	58.87
815.427	55.05
815.727	62.75
816.027	55.86
816.327	63.46
816.627	61.76
816.927	59.32
817.227	59.27
817.527	58.57
817.827	60.16
818.127	64.2
818.427	57.08
818.727	62.03
819.026	62.13
819.326	55.68
819.625	53.09
819.925	59.83
820.224	63.74
820.524	64.92
820.823	58.97
821.122	59.03
821.421	61.48
821.72	62.8
822.019	58.5
822.318	65.14
822.617	58.59
822.916	65.06
823.215	58.14
823.514	63.67
823.813	61.76
824.111	62.73
824.41	62.84
824.709	62.32
825.007	62.63
825.306	61.82
825.604	62.88
825.902	62.75
826.201	61.83
826.499	61.88
826.797	61.92
827.095	61.94
827.393	61.08
827.691	62.5
827.989	62.38
828.287	60.89
828.585	62.6
828.882	62.22
829.18	61.96
829.478	62.89
829.775	62.73
830.073	63.58
830.37	63.53
830.668	64.96
830.965	62.69
831.263	63.92
831.56	62.24
831.857	60.89
832.154	64.27
832.451	60.78
832.748	62.56
833.045	61.48
833.342	63.41
833.639	59.02
833.936	60.64
834.232	60.54
834.529	66.22
834.826	61.89
835.122	66.05
835.419	63.79
835.715	57.8
836.012	60.75
836.308	60.34
836.604	59.7
836.901	58.15
837.197	60.72
837.493	62.7
837.789	65.79
838.085	60.99
838.381	64.41
838.677	64.84
838.972	68.25
839.268	61.93
839.564	61.96
839.86	59.45
840.155	58.93
840.451	57.39
840.746	55.76
841.042	64.3
841.337	61.77
841.632	71.73
841.928	52.54
842.223	47.69
842.518	61.75
842.813	66.38
843.108	62.56
843.403	67.78
843.698	59.73
843.993	56.2
844.287	63.39
844.582	66.33
844.877	69.29
845.171	58.88
845.466	56.58
845.761	60.32
846.055	58.33
846.349	63.53
846.644	55.92
846.938	50.02
847.232	87.24
847.526	56
847.82	58.03
848.114	57.93
848.408	56.97
848.702	66.51
848.996	52.5
849.29	53.79
849.584	56.43
849.877	67.7
850.171	58.39
850.465	49.23
850.758	58
851.052	67.53
851.345	98.23
851.638	71.39
851.932	25.4
852.225	37.17
852.518	50.4
852.811	72.57
853.104	57.08
853.397	70.55
853.69	65.9
853.983	48.14
854.276	56.77
854.569	61.02
854.861	47.53
855.154	78.78
855.447	74.95
855.739	64.91
856.032	54.38
856.324	41.87
856.616	55.46
856.909	78
857.201	67.89
857.493	68.24
857.785	61.54
858.077	58.51
858.369	55.56
858.661	81.3
858.953	47.11
859.245	22.96
859.537	67.4
859.829	60.96
860.12	52.17
860.412	45.33
860.703	48.83
860.995	56.68
861.286	39.05
861.578	58.91
861.869	60.61
862.16	54.25
862.452	31.6
862.743	18.49
863.034	48.42
863.325	63.55
863.616	44.45
863.907	52.31
864.198	37.16
864.488	56.75
864.779	72.77
865.07	54.21
865.36	44.09
865.651	57.57
865.941	70.47
866.232	37.37
866.522	33.73
866.813	67.42
867.103	66.88
867.393	47.33
867.683	60.88
867.973	77.63
868.263	64.96
868.553	50.39
868.843	56.81
869.133	43.94
869.423	65.06
869.713	61.43
870.002	57.29
870.292	33.41
870.582	75.14
870.871	47.07
871.161	43.42
871.45	37.87
871.739	22.22
872.029	80.21
872.318	69.12
872.607	74.78
872.896	43.25
873.185	36.51
873.474	29.16
873.763	35.74
874.052	68.65
874.341	53.39
874.63	59.97
874.918	67.41
875.207	66.32
875.496	36.61
875.784	71.84
876.073	-5.07
876.361	26.17
876.649	51.22
876.938	114.63
877.226	55.02
877.514	73.88
877.802	67.4
878.09	32.58
878.378	58.04
878.666	61.16
878.954	47.84
879.242	32.86
879.53	44.36
879.817	74.63
880.105	61.65
880.392	54.59
880.68	43.32
880.967	68.34
881.255	36.44
881.542	66.63
881.83	5.34
882.117	79.23
882.404	4.35
882.691	48.28
882.978	74.23
883.265	78.42
883.552	62.76
883.839	40.37
884.126	45.57
884.413	59.51
884.699	69.23
884.986	64.86
885.273	63.01
885.559	63.01
885.846	63.01
