Data from 0192_forehead_Reflection__2__388.txt Node

Date: Fri Dec 15 20:17:45 CST 2023
User: ToomeyLab
Spectrometer: FLMS14357
Trigger mode: 0
Integration Time (sec): 1.000000E-2
Scans to average: 100
Electric dark correction enabled: true
Nonlinearity correction enabled: false
Boxcar width: 0
XAxis mode: Wavelengths
Number of Pixels in Spectrum: 2048
>>>>>Begin Spectral Data<<<<<
189.047	-22.17
189.435	-22.17
189.823	-22.17
190.211	197.06
190.599	62.37
190.987	7.48
191.375	112.13
191.763	-445.84
192.151	39.36
192.538	198.25
192.926	-4.41
193.314	140.16
193.702	-134.29
194.089	41.31
194.477	21.98
194.864	-31.35
195.252	61.08
195.639	123.21
196.027	45.37
196.414	-165.91
196.801	221.87
197.189	251.29
197.576	144.17
197.963	-121.29
198.351	-115.89
198.738	-34.81
199.125	8.24
199.512	207.42
199.899	15.71
200.286	45.28
200.673	-11.02
201.06	10.5
201.447	-3.03
201.833	51.14
202.22	56.22
202.607	47.44
202.994	68.88
203.38	45.66
203.767	65.22
204.154	64.93
204.54	24.5
204.927	3.05
205.313	-68
205.699	23.68
206.086	60.31
206.472	37.31
206.858	21.91
207.245	-95.27
207.631	47
208.017	57.97
208.403	21.35
208.789	30.38
209.175	24.99
209.561	12.4
209.947	30.01
210.333	-34.39
210.719	12.67
211.105	25.53
211.491	22.16
211.876	59.75
212.262	22.78
212.648	23.55
213.034	24.29
213.419	-0.09
213.805	-19.12
214.19	-26.04
214.576	-4.91
214.961	-7.87
215.346	-61.42
215.732	44.05
216.117	41.44
216.502	23.39
216.888	40.62
217.273	17.61
217.658	7.68
218.043	18.15
218.428	-6.86
218.813	-31.32
219.198	11.25
219.583	12.23
219.968	10.99
220.353	-21.36
220.738	24.72
221.122	11.84
221.507	-14.16
221.892	-24.78
222.276	8.33
222.661	10.34
223.046	35.37
223.43	12.36
223.815	14.25
224.199	-0.88
224.583	-5.82
224.968	8.85
225.352	14.93
225.736	17.56
226.121	-4.24
226.505	6.61
226.889	11.41
227.273	-2.98
227.657	5.27
228.041	0.13
228.425	5.92
228.809	4.85
229.193	8.32
229.577	3.9
229.961	4.86
230.344	2.66
230.728	2.63
231.112	3.52
231.495	3.1
231.879	3.52
232.263	4.1
232.646	3.26
233.03	3.93
233.413	3.42
233.797	3.63
234.18	4.04
234.563	2.64
234.946	1.58
235.33	6.84
235.713	2.65
236.096	2.72
236.479	5.86
236.862	2.24
237.245	3.47
237.628	3.08
238.011	3.53
238.394	5.71
238.777	4.45
239.16	2.15
239.543	2.06
239.925	5.06
240.308	2.53
240.691	4.86
241.073	4.79
241.456	1.52
241.838	2.28
242.221	3.01
242.603	3.1
242.986	2.89
243.368	3.59
243.75	3.28
244.133	3.44
244.515	3.87
244.897	3.88
245.279	3.59
245.661	3.46
246.043	2.99
246.425	3.33
246.807	4.72
247.189	4.91
247.571	3.69
247.953	3.77
248.335	3.23
248.717	3.59
249.098	3.4
249.48	3.6
249.862	3.73
250.243	3.76
250.625	3.27
251.006	3.75
251.388	2.39
251.769	3.39
252.151	3.92
252.532	2.84
252.913	4.45
253.295	3.43
253.676	3.37
254.057	3.49
254.438	3.51
254.819	2.74
255.2	2.63
255.581	2.9
255.962	2.98
256.343	3.28
256.724	3.96
257.105	5.09
257.486	4.02
257.867	3.59
258.247	3.82
258.628	3.94
259.009	2.99
259.389	4.25
259.77	4.1
260.15	3.74
260.531	2.98
260.911	3.85
261.292	3.73
261.672	3.6
262.052	3.9
262.432	4.09
262.813	3.94
263.193	3.85
263.573	3.51
263.953	3.74
264.333	4.26
264.713	4
265.093	3.56
265.473	4.05
265.853	3.12
266.233	4.24
266.612	1.43
266.992	2.67
267.372	4.01
267.752	3.39
268.131	3.9
268.511	4.54
268.89	4.18
269.27	3.94
269.649	2.92
270.029	3.27
270.408	3.61
270.787	3.97
271.167	4.36
271.546	3.92
271.925	3.56
272.304	3.52
272.683	3.75
273.062	3.33
273.441	3.82
273.82	3.23
274.199	3.71
274.578	3.71
274.957	3.7
275.336	3.74
275.715	3.56
276.093	3.41
276.472	3.47
276.851	3.25
277.229	3.65
277.608	3.01
277.986	3.95
278.365	3.94
278.743	4.13
279.122	4
279.5	3.34
279.878	4.08
280.257	3.37
280.635	3.1
281.013	3.67
281.391	4.15
281.769	4.65
282.147	3.94
282.525	4.42
282.903	4.13
283.281	3.99
283.659	4.24
284.037	4.21
284.415	3.9
284.792	3.85
285.17	3.24
285.548	3.71
285.925	4.07
286.303	3.94
286.68	3.62
287.058	4.11
287.435	3.53
287.813	3.7
288.19	3.88
288.567	3.86
288.945	4.08
289.322	4.33
289.699	4.07
290.076	3.66
290.453	3.73
290.83	4.07
291.207	3.85
291.584	4.83
291.961	4.66
292.338	4.23
292.715	4.74
293.092	4.16
293.469	4.39
293.845	4.77
294.222	4.17
294.599	4.87
294.975	4.37
295.352	4.5
295.728	4.5
296.105	4.2
296.481	5.35
296.858	5.37
297.234	4.74
297.61	4.32
297.986	4.78
298.363	5.41
298.739	5.03
299.115	4.49
299.491	5.05
299.867	4.81
300.243	4.93
300.619	4.86
300.995	5.08
301.371	5.47
301.746	5.05
302.122	5.54
302.498	5.45
302.874	5.32
303.249	5.25
303.625	5.48
304	5.9
304.376	5.42
304.751	4.52
305.127	6.57
305.502	5.6
305.878	5.1
306.253	5.66
306.628	6.29
307.003	6.16
307.378	6.08
307.754	6.79
308.129	5.53
308.504	6.45
308.879	5.98
309.254	7.21
309.629	7.47
310.003	6.2
310.378	7.11
310.753	6.79
311.128	6.77
311.502	6.72
311.877	6.91
312.252	6.64
312.626	6.7
313.001	6.73
313.375	7.33
313.75	6.43
314.124	7.12
314.498	6.74
314.873	7.2
315.247	7.31
315.621	7.4
315.995	7.02
316.369	7.62
316.743	7.31
317.117	8.02
317.491	7.44
317.865	8.37
318.239	7.67
318.613	7.94
318.987	8.32
319.361	7.37
319.734	9.05
320.108	8.39
320.482	8
320.855	8.33
321.229	7.92
321.602	8.46
321.976	8.47
322.349	8.72
322.723	9.27
323.096	8.92
323.469	8.4
323.843	8.91
324.216	9.64
324.589	8.9
324.962	9.4
325.335	9.04
325.708	9.52
326.081	9.41
326.454	9.66
326.827	9.07
327.2	9.63
327.573	9.64
327.945	9.45
328.318	9.51
328.691	9.6
329.063	9.76
329.436	9.99
329.809	10.16
330.181	9.95
330.553	9.57
330.926	10.56
331.298	10.19
331.671	9.86
332.043	10.57
332.415	10.25
332.787	10.45
333.159	10.99
333.532	10.32
333.904	10.52
334.276	10.78
334.648	10.27
335.02	10.34
335.391	10.57
335.763	10.11
336.135	11.07
336.507	10.86
336.879	11.34
337.25	10.75
337.622	11
337.993	10.51
338.365	11.23
338.736	11.35
339.108	11.32
339.479	10.74
339.851	11.36
340.222	11.11
340.593	11.55
340.964	11.33
341.336	12.44
341.707	11.1
342.078	12.17
342.449	11.49
342.82	12.31
343.191	11.73
343.562	11.88
343.933	12.11
344.303	12.33
344.674	12.09
345.045	12.1
345.416	12.61
345.786	12.25
346.157	12.49
346.527	11.96
346.898	11.83
347.268	12.67
347.639	12.79
348.009	12.79
348.38	12.62
348.75	12.87
349.12	12.74
349.49	13.57
349.861	12.87
350.231	12.71
350.601	12.76
350.971	13.46
351.341	13.09
351.711	13.45
352.081	13.35
352.45	13.52
352.82	13.63
353.19	13.06
353.56	13.52
353.929	13.53
354.299	13.27
354.669	13.4
355.038	14.18
355.408	13.57
355.777	13.55
356.147	13.58
356.516	13.68
356.885	14.42
357.254	14.19
357.624	14.4
357.993	13.82
358.362	14.2
358.731	14.06
359.1	14.29
359.469	14.43
359.838	14.3
360.207	14.23
360.576	14.66
360.945	13.88
361.314	14.85
361.682	14.47
362.051	14.6
362.42	14.62
362.788	14.54
363.157	14.89
363.525	14.81
363.894	15.01
364.262	15.02
364.631	15.26
364.999	15.28
365.367	14.95
365.735	15.88
366.104	15.22
366.472	15.65
366.84	15.47
367.208	15.57
367.576	15.86
367.944	15.73
368.312	15.27
368.68	15.62
369.048	15.78
369.416	15.82
369.783	16.2
370.151	16.09
370.519	16.51
370.886	16.14
371.254	16.16
371.621	16.24
371.989	16.72
372.356	15.74
372.724	16.72
373.091	16.37
373.458	16.34
373.826	16.69
374.193	16.38
374.56	16.58
374.927	16.92
375.294	17.05
375.661	17.02
376.028	17.06
376.395	16.92
376.762	17.21
377.129	16.96
377.496	16.89
377.863	17.34
378.229	17.11
378.596	17.38
378.963	17.24
379.329	17.42
379.696	17.61
380.062	17.9
380.429	17.4
380.795	17.76
381.161	17.76
381.528	18.26
381.894	17.59
382.26	18.14
382.626	18.14
382.993	17.74
383.359	18.15
383.725	18.17
384.091	18.29
384.457	18.76
384.823	18.4
385.188	18.45
385.554	18.15
385.92	18.75
386.286	18.94
386.651	18.93
387.017	18.96
387.383	18.95
387.748	18.41
388.114	19
388.479	18.79
388.845	19.37
389.21	19.08
389.575	19.35
389.94	19.35
390.306	19.28
390.671	19.75
391.036	19.35
391.401	19.15
391.766	19.71
392.131	19.44
392.496	19.09
392.861	19.58
393.226	19.66
393.591	19.73
393.956	19.67
394.32	20
394.685	20.04
395.05	20.02
395.414	20.01
395.779	19.87
396.143	20.14
396.508	20.18
396.872	20.45
397.236	20.52
397.601	20.14
397.965	20.4
398.329	20.57
398.694	20.71
399.058	20.44
399.422	20.68
399.786	20.95
400.15	20.8
400.514	20.68
400.878	20.89
401.242	21.15
401.605	21.19
401.969	21.29
402.333	21.16
402.697	21.24
403.06	21.41
403.424	21.41
403.787	21.44
404.151	21.43
404.514	21.62
404.878	21.27
405.241	21.52
405.604	21.74
405.968	21.71
406.331	21.58
406.694	21.89
407.057	22.03
407.42	21.99
407.783	21.63
408.146	22.16
408.509	22.05
408.872	21.95
409.235	22.4
409.598	22.21
409.961	22.51
410.323	22.47
410.686	22.86
411.049	22.39
411.411	22.41
411.774	22.72
412.136	22.69
412.499	22.52
412.861	22.97
413.223	22.86
413.586	23.03
413.948	22.99
414.31	23.27
414.672	23.12
415.035	23.15
415.397	23.39
415.759	23.06
416.121	23.42
416.483	23.15
416.845	23.22
417.206	23.25
417.568	23.39
417.93	23.38
418.292	23.48
418.653	23.68
419.015	23.59
419.377	23.58
419.738	23.76
420.1	23.64
420.461	23.64
420.822	23.63
421.184	23.69
421.545	23.64
421.906	23.71
422.267	23.59
422.629	23.74
422.99	23.77
423.351	23.78
423.712	23.94
424.073	23.81
424.434	24.14
424.795	23.92
425.155	24.02
425.516	24.21
425.877	24.13
426.238	24.27
426.598	24.2
426.959	24.35
427.32	24.22
427.68	24.5
428.041	24.73
428.401	24.82
428.761	24.73
429.122	25.13
429.482	24.94
429.842	25.11
430.202	25.29
430.563	25.31
430.923	25.4
431.283	25.27
431.643	25.37
432.003	25.53
432.363	25.56
432.722	25.33
433.082	25.64
433.442	25.54
433.802	25.53
434.161	25.82
434.521	25.97
434.881	25.79
435.24	25.64
435.6	25.87
435.959	25.86
436.319	26.09
436.678	26.04
437.037	26.2
437.396	26.16
437.756	26.43
438.115	26.43
438.474	26.27
438.833	26.18
439.192	26.39
439.551	26.6
439.91	26.68
440.269	26.53
440.628	26.65
440.987	26.87
441.345	26.45
441.704	26.65
442.063	26.5
442.421	26.69
442.78	26.73
443.138	26.85
443.497	26.76
443.855	26.8
444.214	27.12
444.572	27.22
444.93	27.3
445.288	27.26
445.647	27.6
446.005	27.26
446.363	27.95
446.721	27.4
447.079	27.35
447.437	27.3
447.795	27.46
448.153	27.21
448.51	27.19
448.868	27.55
449.226	27.53
449.584	27.67
449.941	27.64
450.299	27.69
450.656	27.57
451.014	27.87
451.371	27.96
451.729	27.94
452.086	28.22
452.443	28.38
452.801	28.46
453.158	28.43
453.515	28.5
453.872	28.78
454.229	28.57
454.586	28.45
454.943	28.72
455.3	29
455.657	29.12
456.014	28.99
456.371	28.82
456.727	29.31
457.084	29.36
457.441	29.22
457.797	29.6
458.154	29.38
458.51	29.4
458.867	29.6
459.223	29.55
459.58	29.28
459.936	29.61
460.292	29.58
460.648	29.46
461.005	29.39
461.361	29.31
461.717	29.2
462.073	29.3
462.429	29.37
462.785	29.6
463.141	29.74
463.496	29.61
463.852	30.02
464.208	30.23
464.564	30.1
464.919	30.42
465.275	30.26
465.631	30.4
465.986	30.33
466.342	30.4
466.697	30.52
467.052	30.58
467.408	30.72
467.763	30.78
468.118	30.73
468.473	30.57
468.829	30.85
469.184	30.78
469.539	30.91
469.894	30.84
470.249	31.15
470.603	30.98
470.958	31.18
471.313	31.31
471.668	31.45
472.023	31.12
472.377	31.07
472.732	31.42
473.086	31.36
473.441	31.45
473.795	31.47
474.15	31.55
474.504	31.72
474.859	31.63
475.213	31.68
475.567	31.74
475.921	31.95
476.275	32.16
476.63	31.91
476.984	32.04
477.338	32.04
477.692	31.88
478.045	31.9
478.399	32.41
478.753	32.34
479.107	32.17
479.461	32.17
479.814	32.32
480.168	32.22
480.521	32.25
480.875	32.29
481.228	32.47
481.582	32.32
481.935	32.7
482.289	32.45
482.642	32.68
482.995	32.45
483.348	32.5
483.701	32.58
484.055	32.37
484.408	32.39
484.761	32.1
485.114	31.84
485.466	31.54
485.819	31.58
486.172	31.62
486.525	31.81
486.878	31.97
487.23	32.07
487.583	32.33
487.936	32.52
488.288	32.59
488.641	32.56
488.993	32.22
489.345	32.21
489.698	32.28
490.05	32.33
490.402	32.45
490.754	32.66
491.107	32.84
491.459	32.98
491.811	33.18
492.163	33.18
492.515	33.28
492.866	33.32
493.218	33.04
493.57	32.83
493.922	32.88
494.274	33.29
494.625	33.46
494.977	33.63
495.328	33.72
495.68	34.1
496.031	34.19
496.383	34.45
496.734	34.43
497.086	34.6
497.437	34.63
497.788	34.62
498.139	34.55
498.49	34.54
498.842	34.45
499.193	34.54
499.544	34.82
499.894	34.62
500.245	35.02
500.596	34.99
500.947	34.95
501.298	35.07
501.648	35
501.999	35.24
502.35	35.21
502.7	35.27
503.051	35.34
503.401	35.48
503.752	35.5
504.102	35.71
504.452	35.82
504.803	35.82
505.153	35.52
505.503	35.72
505.853	35.85
506.203	35.83
506.553	35.75
506.903	35.92
507.253	35.93
507.603	36.14
507.953	36.1
508.303	36.21
508.652	36.19
509.002	36.42
509.352	36.16
509.701	36.35
510.051	36.38
510.4	36.12
510.75	36.29
511.099	36.38
511.449	36.31
511.798	36.3
512.147	36.57
512.496	36.56
512.846	36.52
513.195	36.45
513.544	36.76
513.893	36.93
514.242	36.77
514.591	36.72
514.939	36.84
515.288	36.84
515.637	36.89
515.986	37.04
516.334	37.01
516.683	37.23
517.032	37.13
517.38	37.4
517.729	37.46
518.077	37.36
518.426	37.39
518.774	37.36
519.122	37.25
519.47	37.41
519.819	37.31
520.167	37.35
520.515	37.11
520.863	37.18
521.211	37.33
521.559	37.2
521.907	37.65
522.255	37.72
522.602	37.72
522.95	37.91
523.298	37.94
523.645	38.02
523.993	38.18
524.341	38.09
524.688	38.32
525.036	38.17
525.383	38.21
525.73	38.58
526.078	38.38
526.425	38.32
526.772	38.32
527.119	38.21
527.466	38.04
527.814	38.04
528.161	37.95
528.508	38.17
528.854	38.27
529.201	37.99
529.548	37.99
529.895	37.8
530.242	37.49
530.588	37.55
530.935	37.66
531.282	37.9
531.628	37.92
531.975	38
532.321	38.36
532.667	38.5
533.014	38.65
533.36	38.77
533.706	38.77
534.052	38.7
534.399	38.92
534.745	38.71
535.091	38.57
535.437	38.62
535.783	38.65
536.129	38.83
536.474	38.94
536.82	39.16
537.166	39.51
537.512	39.37
537.857	39.55
538.203	39.32
538.549	39.21
538.894	39.34
539.239	39.51
539.585	39.63
539.93	39.73
540.276	39.95
540.621	40.01
540.966	40.27
541.311	39.99
541.656	40.22
542.001	40.13
542.346	40.1
542.691	39.8
543.036	39.51
543.381	39.31
543.726	39.51
544.071	39.71
544.415	39.8
544.76	40
545.105	40.02
545.449	40.15
545.794	40.39
546.138	40.43
546.483	40.6
546.827	40.85
547.171	40.73
547.516	40.9
547.86	41.01
548.204	41.11
548.548	40.93
548.892	41.04
549.236	40.87
549.58	41.03
549.924	41.45
550.268	41.55
550.612	41.34
550.956	41.6
551.3	41.52
551.643	42.07
551.987	41.92
552.33	42.08
552.674	42.17
553.017	42.07
553.361	42.04
553.704	42.26
554.048	41.87
554.391	41.98
554.734	42.06
555.077	42.27
555.42	42.2
555.764	42.2
556.107	42.42
556.45	42.25
556.793	42.48
557.135	42.66
557.478	42.68
557.821	42.88
558.164	42.69
558.507	42.68
558.849	42.75
559.192	42.89
559.534	43.18
559.877	43.11
560.219	42.91
560.562	43.23
560.904	42.98
561.246	43.29
561.589	43.54
561.931	43.14
562.273	43.13
562.615	43.49
562.957	43.31
563.299	42.93
563.641	43.43
563.983	43.36
564.325	43.4
564.667	43.65
565.008	43.55
565.35	43.59
565.692	43.64
566.033	44
566.375	44.22
566.716	44.24
567.058	43.57
567.399	43.49
567.741	43.81
568.082	43.77
568.423	43.91
568.764	43.86
569.105	44.04
569.447	43.96
569.788	44.09
570.129	43.77
570.47	44.27
570.811	44.48
571.151	44.05
571.492	44.02
571.833	44.02
572.174	44.2
572.514	44.39
572.855	44.54
573.195	44.28
573.536	44.28
573.876	44.32
574.217	44.35
574.557	44.45
574.898	44.55
575.238	44.53
575.578	44.67
575.918	44.74
576.258	45.2
576.598	45.01
576.938	45.23
577.278	44.86
577.618	44.76
577.958	44.93
578.298	44.72
578.638	44.93
578.977	45.05
579.317	45.31
579.657	45.33
579.996	45.26
580.336	45.46
580.675	45.53
581.014	45.73
581.354	45.41
581.693	45.99
582.032	45.68
582.372	45.65
582.711	45.9
583.05	45.53
583.389	45.92
583.728	46.25
584.067	46.25
584.406	46.4
584.745	46.44
585.083	45.99
585.422	46.47
585.761	46.1
586.1	46.4
586.438	46.08
586.777	46.29
587.115	46.22
587.454	46.2
587.792	46.38
588.13	46.65
588.469	46.7
588.807	46.89
589.145	46.57
589.483	46.74
589.821	46.58
590.159	46.75
590.497	46.99
590.835	46.76
591.173	46.65
591.511	46.99
591.849	46.92
592.187	46.87
592.524	47.03
592.862	46.7
593.2	47.05
593.537	46.78
593.875	47.03
594.212	46.91
594.55	47.04
594.887	47.41
595.224	47.23
595.561	47.23
595.899	47
596.236	47.19
596.573	47.35
596.91	47.49
597.247	47.41
597.584	47.51
597.921	47.77
598.258	47.12
598.594	47.37
598.931	47.35
599.268	47.44
599.604	47.41
599.941	47.71
600.277	47.7
600.614	47.5
600.95	47.4
601.287	47.81
601.623	47.63
601.959	47.8
602.296	47.98
602.632	48.08
602.968	48.19
603.304	47.97
603.64	48.12
603.976	48.38
604.312	48.45
604.648	48.21
604.984	48.64
605.319	48.02
605.655	48.02
605.991	48.39
606.326	48.13
606.662	48.3
606.998	47.84
607.333	48.24
607.668	48.3
608.004	48.26
608.339	48.77
608.674	48.49
609.01	48.64
609.345	48.81
609.68	48.67
610.015	49.13
610.35	48.67
610.685	49.05
611.02	48.74
611.355	48.53
611.689	48.87
612.024	48.66
612.359	48.72
612.694	49.07
613.028	48.83
613.363	48.47
613.697	49.08
614.032	49.3
614.366	49.31
614.7	49.67
615.035	49.34
615.369	49.32
615.703	49.65
616.037	49.24
616.371	49.32
616.705	49.45
617.039	49.42
617.373	49.92
617.707	49.13
618.041	50.15
618.375	49.36
618.709	50.47
619.042	49.65
619.376	50.24
619.71	49.96
620.043	50.02
620.377	50.46
620.71	50.15
621.043	49.47
621.377	49.77
621.71	50.54
622.043	50.01
622.376	49.8
622.709	50.07
623.043	50.07
623.376	50.06
623.709	50.33
624.041	50.48
624.374	50.51
624.707	50.54
625.04	50.45
625.373	50.25
625.705	49.94
626.038	50.07
626.37	50.85
626.703	50.57
627.035	50.69
627.368	50.89
627.7	50.64
628.032	50.71
628.365	50.82
628.697	50.89
629.029	50.57
629.361	50.69
629.693	50.76
630.025	50.66
630.357	50.64
630.689	50.91
631.021	50.89
631.353	51.05
631.684	50.88
632.016	51.17
632.348	51.08
632.679	51.55
633.011	51.18
633.342	51.96
633.674	51.26
634.005	51.31
634.336	51.43
634.668	51.47
634.999	51.36
635.33	51.4
635.661	51.65
635.992	51.13
636.323	51.38
636.654	51.9
636.985	51.75
637.316	51.76
637.647	51.41
637.977	51.53
638.308	51.29
638.639	51.95
638.969	51.92
639.3	51.85
639.63	51.01
639.961	52.09
640.291	51.99
640.622	52.34
640.952	51.48
641.282	51.78
641.612	52.34
641.943	52.25
642.273	52.22
642.603	52.19
642.933	51.45
643.263	52.16
643.592	52.93
643.922	52.45
644.252	51.96
644.582	52.16
644.911	51.96
645.241	52.84
645.571	52.52
645.9	52.54
646.23	52.65
646.559	52.89
646.888	52.45
647.218	53.11
647.547	52.92
647.876	52.77
648.205	52.8
648.534	52.83
648.863	52.44
649.192	52.81
649.521	53.01
649.85	52.66
650.179	53.43
650.508	52.87
650.837	52.99
651.165	53.03
651.494	52.6
651.822	53.31
652.151	53.41
652.479	52.87
652.808	53.08
653.136	53.56
653.465	52.94
653.793	53.14
654.121	53.57
654.449	53.68
654.777	53.53
655.105	53.18
655.433	53.26
655.761	52.74
656.089	53.67
656.417	53.7
656.745	53.15
657.073	53.29
657.4	53.92
657.728	53.44
658.056	53.66
658.383	53.45
658.711	54.01
659.038	53.85
659.365	53.53
659.693	53.75
660.02	53.72
660.347	53.36
660.674	54.15
661.001	53.06
661.329	53.87
661.656	54.14
661.982	53.92
662.309	54.09
662.636	54.19
662.963	54.02
663.29	54.01
663.616	54.49
663.943	54.31
664.27	53.8
664.596	54.53
664.923	54.2
665.249	55.02
665.576	54.65
665.902	55.09
666.228	54.49
666.554	54.79
666.881	54.86
667.207	55.12
667.533	55.01
667.859	54.66
668.185	54.8
668.511	54.72
668.837	54.23
669.162	54.51
669.488	54.77
669.814	54.66
670.139	55.29
670.465	54.8
670.791	55.21
671.116	55.06
671.442	54.57
671.767	55.17
672.092	54.93
672.418	54.96
672.743	54.75
673.068	55.29
673.393	54.93
673.718	55.52
674.043	54.71
674.368	54.85
674.693	55.56
675.018	55.69
675.343	55.92
675.667	55.31
675.992	56.49
676.317	55.95
676.641	55.45
676.966	55.63
677.29	56.18
677.615	55.89
677.939	55.6
678.264	55.32
678.588	56.01
678.912	55.57
679.236	55.8
679.56	55.25
679.885	56
680.209	55.8
680.532	55.41
680.856	55.65
681.18	55.83
681.504	56.02
681.828	56.4
682.152	56.31
682.475	56.09
682.799	56.07
683.122	55.99
683.446	55.47
683.769	56.45
684.093	56.71
684.416	56.68
684.739	57.06
685.062	56.6
685.386	56.7
685.709	56.47
686.032	55.78
686.355	56.18
686.678	55.7
687.001	55.65
687.324	56.07
687.646	56.42
687.969	56.75
688.292	56.05
688.614	56.21
688.937	56.21
689.26	56.09
689.582	56.74
689.904	56.4
690.227	56.96
690.549	56.39
690.871	56.93
691.194	56.25
691.516	56.11
691.838	57.08
692.16	56.48
692.482	57.35
692.804	56.75
693.126	57.4
693.448	57.23
693.769	57.4
694.091	56.1
694.413	57.54
694.735	57.08
695.056	57.17
695.378	57.17
695.699	55.57
696.021	56.24
696.342	57.55
696.663	57.52
696.984	56.76
697.306	56.32
697.627	58.5
697.948	57.12
698.269	57.34
698.59	56.81
698.911	57.4
699.232	56.82
699.553	57.28
699.873	57.53
700.194	57.25
700.515	56.32
700.835	57.29
701.156	57.43
701.477	57.66
701.797	57.1
702.117	58.08
702.438	57.11
702.758	57.61
703.078	57.25
703.398	57.04
703.719	57.01
704.039	57.6
704.359	57.76
704.679	58.56
704.999	57.72
705.319	57.32
705.638	57.25
705.958	58.63
706.278	57.43
706.597	57.19
706.917	57.52
707.237	57.76
707.556	58.36
707.876	57.94
708.195	57.37
708.514	58.58
708.834	58.7
709.153	59.35
709.472	58.2
709.791	59.07
710.11	57.86
710.429	58.64
710.748	57.96
711.067	58.11
711.386	58.55
711.705	57.6
712.023	58.39
712.342	58.12
712.661	58.61
712.979	58.37
713.298	59.16
713.616	57.96
713.935	59.05
714.253	58.25
714.572	59.08
714.89	59.05
715.208	58.65
715.526	58.23
715.844	59.13
716.162	58.3
716.48	59.34
716.798	58.67
717.116	57.25
717.434	59.26
717.752	57.22
718.069	59.07
718.387	57.33
718.705	59.78
719.022	58.68
719.34	58.64
719.657	59.64
719.975	59.63
720.292	59.4
720.609	58.87
720.927	58.29
721.244	58.76
721.561	59.16
721.878	60.1
722.195	57.98
722.512	59.89
722.829	61.04
723.146	60.2
723.463	59.09
723.779	59.53
724.096	59.54
724.413	59.18
724.729	61.67
725.046	58.58
725.362	59.02
725.679	57.87
725.995	60
726.311	58.98
726.628	60.02
726.944	60.46
727.26	59.31
727.576	59.89
727.892	58.76
728.208	58.27
728.524	58.19
728.84	59.23
729.156	60.54
729.472	59.83
729.787	59.07
730.103	58.44
730.419	59.45
730.734	59.98
731.05	60.37
731.365	59.69
731.681	60.34
731.996	59.87
732.311	60.04
732.626	59.67
732.942	59.31
733.257	59.83
733.572	60.69
733.887	60.21
734.202	59.68
734.517	58.74
734.832	60.39
735.146	59.7
735.461	58.25
735.776	60.51
736.091	59.92
736.405	61.21
736.72	59.86
737.034	60.36
737.349	61.38
737.663	60.19
737.977	58.37
738.292	60.57
738.606	60.7
738.92	61.42
739.234	59.62
739.548	60.12
739.862	58.46
740.176	60.84
740.49	59.78
740.804	61.73
741.117	61.48
741.431	60.44
741.745	60.74
742.058	58.23
742.372	61.64
742.685	62.2
742.999	58.18
743.312	59.54
743.626	61.4
743.939	60.15
744.252	60.86
744.565	56.74
744.878	62.59
745.191	59.86
745.505	60.88
745.817	62.28
746.13	61.58
746.443	59.49
746.756	61.84
747.069	59.89
747.381	61.72
747.694	61.58
748.007	60.18
748.319	60.69
748.632	59.01
748.944	60.37
749.256	60.88
749.569	62.62
749.881	60.46
750.193	60.22
750.505	61.2
750.817	60.65
751.129	60.69
751.441	61.03
751.753	60.8
752.065	60.97
752.377	62.31
752.689	62.56
753	60.21
753.312	61
753.624	62.6
753.935	62.64
754.247	62.18
754.558	60.51
754.869	61.57
755.181	58.81
755.492	61.47
755.803	60.96
756.114	60.89
756.425	60.26
756.736	63.36
757.047	63.55
757.358	62.39
757.669	60.93
757.98	61.99
758.291	60.74
758.601	61.9
758.912	60.62
759.223	61.51
759.533	61.5
759.844	60.99
760.154	62.53
760.464	63.49
760.775	63.27
761.085	59.34
761.395	61.48
761.705	61.81
762.016	61.31
762.326	61.43
762.636	62.03
762.945	60.58
763.255	60.82
763.565	61.09
763.875	61.68
764.185	60.6
764.494	61.25
764.804	60.6
765.113	62.1
765.423	61.57
765.732	61.65
766.042	63.99
766.351	62.33
766.66	61.7
766.97	60.96
767.279	62.47
767.588	60.83
767.897	64.55
768.206	62.94
768.515	61.76
768.824	61.64
769.133	62.86
769.441	62.18
769.75	61.33
770.059	64.61
770.367	62.15
770.676	63.24
770.984	63.57
771.293	60.36
771.601	63.86
771.91	64.1
772.218	62.54
772.526	64.27
772.834	64.54
773.142	61.87
773.45	61.85
773.758	59.23
774.066	61.43
774.374	61.94
774.682	59.79
774.99	61.32
775.298	60.35
775.605	61.36
775.913	61.72
776.22	66.73
776.528	58.54
776.835	61.84
777.143	64.39
777.45	59.39
777.757	65.47
778.065	67.12
778.372	57.4
778.679	61.67
778.986	64.53
779.293	65.9
779.6	64.51
779.907	61.38
780.214	62.62
780.52	64.9
780.827	63.97
781.134	61.9
781.44	63.86
781.747	61.52
782.053	61.01
782.36	62.79
782.666	63.9
782.973	63.83
783.279	60.27
783.585	62.91
783.891	66.11
784.197	62.65
784.503	63.97
784.809	61.9
785.115	62.32
785.421	61.75
785.727	60.49
786.033	64.96
786.339	59.11
786.644	61
786.95	62.88
787.255	59.81
787.561	68.25
787.866	62.23
788.172	66.04
788.477	65.01
788.782	63.34
789.088	59.99
789.393	60.51
789.698	63.98
790.003	63.44
790.308	62.05
790.613	57.59
790.918	63.38
791.223	63.07
791.527	64.23
791.832	65.85
792.137	60.05
792.441	66.64
792.746	62.75
793.05	60.83
793.355	65.42
793.659	67.23
793.963	65.97
794.268	63.45
794.572	66.46
794.876	62.81
795.18	59.48
795.484	65.8
795.788	62.77
796.092	65.6
796.396	65.68
796.7	59.3
797.004	61.22
797.307	59.61
797.611	67.57
797.915	68.3
798.218	65.19
798.522	63.56
798.825	63.43
799.128	64.27
799.432	67.38
799.735	59.62
800.038	61.27
800.341	64.79
800.644	63.98
800.947	58.67
801.25	67.21
801.553	62.59
801.856	63.33
802.159	62.05
802.462	62.05
802.764	59.54
803.067	63.41
803.37	62.01
803.672	62.21
803.975	64.36
804.277	64
804.579	58.72
804.882	65.98
805.184	66.25
805.486	60.66
805.788	65.02
806.09	63.7
806.392	66.54
806.694	67.87
806.996	62.09
807.298	64.49
807.6	68.42
807.902	63.27
808.203	61.11
808.505	65.23
808.807	64.48
809.108	64.63
809.409	66.58
809.711	59.37
810.012	65.48
810.313	65.27
810.615	61.8
810.916	59.95
811.217	67.22
811.518	58.76
811.819	62.42
812.12	61.3
812.421	62.31
812.722	65.58
813.023	69.63
813.323	67.17
813.624	62.99
813.925	73.26
814.225	67.64
814.526	60.84
814.826	67.83
815.126	62.4
815.427	56.02
815.727	63.38
816.027	56.61
816.327	59.35
816.627	61.61
816.927	60.55
817.227	69.29
817.527	68.05
817.827	69.83
818.127	62.85
818.427	61.26
818.727	62.19
819.026	61.48
819.326	64.6
819.625	59.96
819.925	60.93
820.224	73.92
820.524	71.11
820.823	65.37
821.122	63.96
821.421	59.41
821.72	64.75
822.019	66.15
822.318	64.14
822.617	63.84
822.916	66.73
823.215	62.31
823.514	67.45
823.813	67.44
824.111	66.07
824.41	65.63
824.709	65.16
825.007	66.12
825.306	64.6
825.604	64.56
825.902	64.63
826.201	65.86
826.499	65.51
826.797	65.9
827.095	64.75
827.393	66.03
827.691	66.21
827.989	65.54
828.287	64.86
828.585	66.16
828.882	66.95
829.18	68.47
829.478	65.51
829.775	66.55
830.073	63.78
830.37	66
830.668	67.73
830.965	70.62
831.263	65.58
831.56	67.5
831.857	62.53
832.154	65.79
832.451	66.87
832.748	65.82
833.045	69.55
833.342	69.24
833.639	61.99
833.936	55.67
834.232	69.15
834.529	63.61
834.826	65.07
835.122	65.49
835.419	67.03
835.715	63.3
836.012	65.17
836.308	66.03
836.604	63.35
836.901	62.79
837.197	61.02
837.493	64.93
837.789	64.49
838.085	62.83
838.381	67.07
838.677	62.03
838.972	66.92
839.268	59.81
839.564	60.47
839.86	66.27
840.155	60.5
840.451	55.96
840.746	62.2
841.042	65.34
841.337	59.09
841.632	82.31
841.928	74.97
842.223	51.32
842.518	74.73
842.813	70.42
843.108	59.2
843.403	77.82
843.698	51.34
843.993	62.35
844.287	60.06
844.582	65.48
844.877	65.16
845.171	62.55
845.466	62.03
845.761	65.74
846.055	63.03
846.349	67.51
846.644	62.77
846.938	67.16
847.232	80.33
847.526	80.28
847.82	80.71
848.114	84.31
848.408	53.97
848.702	65.67
848.996	75.46
849.29	78.1
849.584	50.32
849.877	57.21
850.171	70.74
850.465	71.33
850.758	53.72
851.052	47.43
851.345	47.31
851.638	71.67
851.932	55.34
852.225	48.6
852.518	54.26
852.811	68.8
853.104	49.91
853.397	70.38
853.69	37.47
853.983	45.31
854.276	87.54
854.569	79.22
854.861	46.18
855.154	113.82
855.447	48.22
855.739	63.81
856.032	73.66
856.324	64.47
856.616	68.58
856.909	65.54
857.201	71.08
857.493	66.44
857.785	68.39
858.077	74.46
858.369	55.94
858.661	64.56
858.953	100.11
859.245	52.81
859.537	76.75
859.829	55.15
860.12	78.39
860.412	68.78
860.703	59.98
860.995	71.98
861.286	61.76
861.578	71.13
861.869	64.73
862.16	77.14
862.452	45.5
862.743	40.18
863.034	74.06
863.325	46.16
863.616	43.84
863.907	66.91
864.198	53.03
864.488	65.54
864.779	42.55
865.07	38.65
865.36	57.16
865.651	107.77
865.941	61.05
866.232	47.11
866.522	90.14
866.813	70.88
867.103	64.27
867.393	48.24
867.683	72.92
867.973	60.13
868.263	51.43
868.553	71.44
868.843	63.29
869.133	29.94
869.423	66.11
869.713	84.36
870.002	75.7
870.292	86.65
870.582	74.03
870.871	45.79
871.161	77.14
871.45	34.83
871.739	48.61
872.029	60.69
872.318	53.47
872.607	98.1
872.896	55.84
873.185	47.93
873.474	26.96
873.763	41.37
874.052	68
874.341	52.18
874.63	52.68
874.918	71.8
875.207	44.67
875.496	49.38
875.784	116.57
876.073	-5.69
876.361	65.95
876.649	32.24
876.938	83.89
877.226	58.25
877.514	75.24
877.802	83.58
878.09	100.49
878.378	77.49
878.666	54.41
878.954	58.89
879.242	41.29
879.53	108.14
879.817	62.06
880.105	47.82
880.392	89.98
880.68	35.25
880.967	53.84
881.255	69.58
881.542	68.65
881.83	77.78
882.117	35.85
882.404	36.29
882.691	77.78
882.978	67.66
883.265	65.47
883.552	61.68
883.839	60.47
884.126	63.6
884.413	74.22
884.699	88.16
884.986	68.46
885.273	70.24
885.559	70.24
885.846	70.24
