Data from 1890-1_forehead_Reflection__2__133.txt Node

Date: Fri Sep 30 18:50:06 CDT 2022
User: ToomeyLab
Spectrometer: FLMS14357
Trigger mode: 0
Integration Time (sec): 1.000000E-2
Scans to average: 100
Electric dark correction enabled: true
Nonlinearity correction enabled: false
Boxcar width: 0
XAxis mode: Wavelengths
Number of Pixels in Spectrum: 2048
>>>>>Begin Spectral Data<<<<<
189.047	-220.69
189.435	-220.69
189.823	-220.69
190.211	-7.87
190.599	140.8
190.987	39.88
191.375	-43.45
191.763	-9.82
192.151	-2299.4
192.538	197.13
192.926	734.81
193.314	4.86
193.702	128.75
194.089	13.57
194.477	-170.91
194.864	-101.21
195.252	-31.44
195.639	-157.57
196.027	13.43
196.414	462.56
196.801	75.98
197.189	114.09
197.576	-27.95
197.963	-1211.5
198.351	18.1
198.738	-18.72
199.125	47.15
199.512	11.47
199.899	29.57
200.286	27.97
200.673	44.17
201.06	31.64
201.447	48.8
201.833	71.27
202.22	89.09
202.607	41.93
202.994	61.07
203.38	2.5
203.767	-10.24
204.154	34.76
204.54	27.7
204.927	51.53
205.313	10.52
205.699	15.53
206.086	5.78
206.472	17.73
206.858	40.3
207.245	3.46
207.631	26.19
208.017	16.47
208.403	53.91
208.789	51.04
209.175	48.83
209.561	20.99
209.947	25.42
210.333	-3.07
210.719	8.73
211.105	-12.07
211.491	13.11
211.876	33.92
212.262	34.23
212.648	11.48
213.034	33.35
213.419	33.67
213.805	3
214.19	15.27
214.576	16.22
214.961	8.36
215.346	-0.16
215.732	35.61
216.117	23.77
216.502	28.84
216.888	34.9
217.273	19.76
217.658	25.54
218.043	7.72
218.428	-6.39
218.813	19.71
219.198	21.64
219.583	3.86
219.968	26.67
220.353	1.71
220.738	21.14
221.122	7.11
221.507	21.37
221.892	13.51
222.276	2.03
222.661	12.63
223.046	-2.84
223.43	12.95
223.815	9.81
224.199	14.76
224.583	4.4
224.968	12.35
225.352	7.39
225.736	6.18
226.121	6.09
226.505	8.09
226.889	5.3
227.273	-1.23
227.657	7.09
228.041	4.26
228.425	4.58
228.809	2.87
229.193	6.89
229.577	-1.27
229.961	4.04
230.344	2.99
230.728	2.33
231.112	2.39
231.495	2.34
231.879	4.26
232.263	3.58
232.646	1.17
233.03	3.55
233.413	3.4
233.797	1.28
234.18	1.95
234.563	5.01
234.946	4.6
235.33	2.78
235.713	4.73
236.096	3.27
236.479	5.03
236.862	2.82
237.245	4.04
237.628	2.12
238.011	5.87
238.394	2.98
238.777	2.85
239.16	4.33
239.543	3.25
239.925	2.17
240.308	3.72
240.691	3.65
241.073	3.48
241.456	3.03
241.838	3.06
242.221	3.67
242.603	3.08
242.986	3.28
243.368	2.3
243.75	2.6
244.133	2.72
244.515	3.04
244.897	2.82
245.279	3.58
245.661	3.52
246.043	2.78
246.425	3.09
246.807	3.16
247.189	3.51
247.571	3.01
247.953	3.02
248.335	2.63
248.717	2.88
249.098	3.12
249.48	2.63
249.862	3.21
250.243	2.72
250.625	3.09
251.006	3.51
251.388	2.29
251.769	4.37
252.151	3.62
252.532	3.36
252.913	2.78
253.295	2.89
253.676	2.7
254.057	3.4
254.438	3.15
254.819	3.43
255.2	3.46
255.581	3.52
255.962	2.77
256.343	2.76
256.724	4.21
257.105	4.01
257.486	3.71
257.867	3.88
258.247	2.93
258.628	3.4
259.009	4.39
259.389	2.93
259.77	3.08
260.15	3.3
260.531	3.51
260.911	2.79
261.292	2.8
261.672	2.7
262.052	2.83
262.432	2.83
262.813	3.26
263.193	3.06
263.573	3.11
263.953	2.93
264.333	3.29
264.713	2.6
265.093	2.6
265.473	3.3
265.853	3.14
266.233	2.97
266.612	3.1
266.992	2.68
267.372	2.69
267.752	2.75
268.131	3.23
268.511	2.79
268.89	2.52
269.27	3.04
269.649	2.27
270.029	3.08
270.408	2.76
270.787	3.07
271.167	3.31
271.546	3.46
271.925	2.99
272.304	2.98
272.683	3.21
273.062	2.91
273.441	2.8
273.82	2.13
274.199	2.79
274.578	2.73
274.957	2.73
275.336	2.96
275.715	2.77
276.093	2.64
276.472	3.03
276.851	2.8
277.229	2.96
277.608	2.49
277.986	2.88
278.365	3.09
278.743	2.56
279.122	3.03
279.5	3.33
279.878	2.99
280.257	2.82
280.635	3.41
281.013	3.29
281.391	2.67
281.769	2.85
282.147	2.35
282.525	2.87
282.903	2.61
283.281	2.73
283.659	2.5
284.037	2.81
284.415	2.84
284.792	3.18
285.17	2.53
285.548	3.06
285.925	3.35
286.303	2.78
286.68	2.49
287.058	2.68
287.435	2.92
287.813	3.06
288.19	2.88
288.567	3
288.945	2.68
289.322	2.75
289.699	3.04
290.076	2.85
290.453	3.1
290.83	3.23
291.207	2.87
291.584	2.91
291.961	3.12
292.338	3.2
292.715	3.21
293.092	2.56
293.469	3.18
293.845	3.75
294.222	3.36
294.599	3.48
294.975	3.6
295.352	4.09
295.728	3.9
296.105	3.48
296.481	3.8
296.858	3.62
297.234	4.32
297.61	3.36
297.986	3.14
298.363	3.57
298.739	3.13
299.115	3.54
299.491	3.59
299.867	3.73
300.243	3.41
300.619	3.55
300.995	4.33
301.371	3.53
301.746	4.15
302.122	4.1
302.498	3.93
302.874	4.15
303.249	4.16
303.625	4.29
304	4.19
304.376	4.03
304.751	4.54
305.127	4.4
305.502	4.31
305.878	4.4
306.253	4.02
306.628	4.18
307.003	4.33
307.378	4.58
307.754	4.85
308.129	4.89
308.504	4.79
308.879	4.99
309.254	4.65
309.629	4.94
310.003	4.75
310.378	4.47
310.753	4.82
311.128	4.78
311.502	5.17
311.877	4.92
312.252	5.41
312.626	5.32
313.001	4.79
313.375	4.85
313.75	5.58
314.124	5.05
314.498	5.34
314.873	5.76
315.247	5.32
315.621	5.81
315.995	5.77
316.369	4.9
316.743	5.63
317.117	6.21
317.491	6.69
317.865	6.71
318.239	6.32
318.613	5.83
318.987	6.25
319.361	6.08
319.734	5.8
320.108	6.1
320.482	5.72
320.855	6.45
321.229	6.95
321.602	6.23
321.976	6.34
322.349	6.58
322.723	6.05
323.096	6.78
323.469	6.73
323.843	6.82
324.216	6.37
324.589	7.39
324.962	6.76
325.335	6.72
325.708	6.97
326.081	6.87
326.454	7.06
326.827	6.99
327.2	7.43
327.573	6.55
327.945	6.89
328.318	7.11
328.691	7.19
329.063	7.25
329.436	7.17
329.809	7.82
330.181	7.76
330.553	7.38
330.926	6.96
331.298	7.67
331.671	7.67
332.043	7.8
332.415	7.29
332.787	7.45
333.159	7.37
333.532	7.56
333.904	7.54
334.276	8.08
334.648	7.62
335.02	7.64
335.391	8.22
335.763	7.85
336.135	7.63
336.507	8.12
336.879	8.21
337.25	8.01
337.622	8.16
337.993	7.64
338.365	7.67
338.736	8.03
339.108	8.42
339.479	8.24
339.851	7.76
340.222	8.19
340.593	7.88
340.964	8.15
341.336	8.43
341.707	8.09
342.078	8.6
342.449	8.58
342.82	8.3
343.191	8.13
343.562	8.59
343.933	8.02
344.303	8.5
344.674	8.52
345.045	8.42
345.416	8.77
345.786	8.52
346.157	9.14
346.527	9.07
346.898	9.11
347.268	8.53
347.639	8.7
348.009	8.76
348.38	9.06
348.75	9.4
349.12	8.74
349.49	9.08
349.861	8.97
350.231	9.23
350.601	9.15
350.971	9.16
351.341	9.39
351.711	9.49
352.081	9.39
352.45	9.42
352.82	9.34
353.19	9.37
353.56	9.19
353.929	9.38
354.299	9.4
354.669	9.13
355.038	9.76
355.408	9.52
355.777	9.12
356.147	9.61
356.516	9.85
356.885	9.54
357.254	9.91
357.624	9.81
357.993	9.38
358.362	9.66
358.731	9.79
359.1	9.64
359.469	9.79
359.838	10.13
360.207	9.69
360.576	9.98
360.945	10.02
361.314	9.72
361.682	9.85
362.051	10.19
362.42	9.98
362.788	10.15
363.157	10.03
363.525	9.78
363.894	10.07
364.262	10.2
364.631	10.51
364.999	10.84
365.367	10.6
365.735	10.04
366.104	10.44
366.472	10.54
366.84	10.75
367.208	10.82
367.576	11.18
367.944	10.42
368.312	10.5
368.68	10.43
369.048	10.2
369.416	10.78
369.783	10.65
370.151	10.82
370.519	10.75
370.886	10.66
371.254	10.55
371.621	11.08
371.989	11.04
372.356	11.24
372.724	11.02
373.091	10.61
373.458	10.9
373.826	11.36
374.193	11.29
374.56	11.15
374.927	11.87
375.294	11.55
375.661	11.09
376.028	11.11
376.395	11.4
376.762	11.56
377.129	11.73
377.496	11.49
377.863	11.21
378.229	11.6
378.596	11.57
378.963	11.61
379.329	11.37
379.696	11.63
380.062	11.87
380.429	11.63
380.795	11.6
381.161	11.77
381.528	11.72
381.894	11.66
382.26	11.61
382.626	11.62
382.993	12.22
383.359	11.79
383.725	11.86
384.091	11.81
384.457	12.26
384.823	12.2
385.188	12.22
385.554	12.39
385.92	12.45
386.286	12.47
386.651	12.24
387.017	12.04
387.383	12.28
387.748	11.92
388.114	12.52
388.479	12.3
388.845	12.06
389.21	12.43
389.575	12.37
389.94	12.72
390.306	12.55
390.671	12.36
391.036	12.79
391.401	12.68
391.766	12.92
392.131	12.65
392.496	12.97
392.861	12.86
393.226	12.68
393.591	12.69
393.956	12.86
394.32	13.05
394.685	12.85
395.05	12.73
395.414	12.87
395.779	12.77
396.143	13.27
396.508	13.18
396.872	13.21
397.236	13.08
397.601	13.24
397.965	13.4
398.329	13.11
398.694	13.36
399.058	13.45
399.422	13.4
399.786	13.17
400.15	13.5
400.514	13.42
400.878	13.59
401.242	13.52
401.605	13.33
401.969	13.54
402.333	13.63
402.697	13.47
403.06	13.37
403.424	13.69
403.787	13.98
404.151	14.06
404.514	13.84
404.878	13.6
405.241	13.98
405.604	14.03
405.968	13.85
406.331	13.81
406.694	13.7
407.057	14.04
407.42	14.24
407.783	13.92
408.146	14.1
408.509	13.99
408.872	14.3
409.235	14.24
409.598	14.44
409.961	14.23
410.323	14.33
410.686	14.36
411.049	14.22
411.411	14.33
411.774	14.3
412.136	14.53
412.499	14.37
412.861	14.34
413.223	14.36
413.586	14.52
413.948	14.78
414.31	14.56
414.672	14.47
415.035	14.52
415.397	14.92
415.759	14.65
416.121	14.95
416.483	14.72
416.845	14.76
417.206	14.61
417.568	14.64
417.93	14.66
418.292	14.66
418.653	14.83
419.015	14.91
419.377	14.69
419.738	14.77
420.1	14.84
420.461	14.79
420.822	14.86
421.184	14.89
421.545	14.98
421.906	14.68
422.267	14.66
422.629	14.75
422.99	14.66
423.351	14.87
423.712	14.91
424.073	14.85
424.434	15.14
424.795	15.07
425.155	15.04
425.516	14.86
425.877	14.97
426.238	15.06
426.598	15.17
426.959	15.14
427.32	15.34
427.68	15.47
428.041	15.51
428.401	15.47
428.761	15.69
429.122	15.62
429.482	15.76
429.842	15.58
430.202	15.67
430.563	15.81
430.923	15.79
431.283	15.77
431.643	15.85
432.003	16.06
432.363	15.93
432.722	15.86
433.082	16.01
433.442	16.05
433.802	15.95
434.161	15.77
434.521	15.88
434.881	15.88
435.24	15.93
435.6	16.09
435.959	16.13
436.319	16.23
436.678	16.13
437.037	16.27
437.396	16.37
437.756	16.3
438.115	16.22
438.474	16.36
438.833	16.37
439.192	16.4
439.551	16.33
439.91	16.39
440.269	16.14
440.628	16.37
440.987	16.51
441.345	16.46
441.704	16.47
442.063	16.5
442.421	16.25
442.78	16.41
443.138	16.47
443.497	16.5
443.855	16.76
444.214	16.84
444.572	16.93
444.93	16.75
445.288	16.75
445.647	16.83
446.005	16.78
446.363	17.03
446.721	16.77
447.079	16.84
447.437	16.72
447.795	16.58
448.153	16.8
448.51	16.75
448.868	16.78
449.226	16.87
449.584	17.1
449.941	17.03
450.299	17.08
450.656	17.24
451.014	17.5
451.371	17.54
451.729	17.53
452.086	17.57
452.443	17.42
452.801	17.45
453.158	17.31
453.515	17.43
453.872	17.61
454.229	17.54
454.586	17.78
454.943	17.61
455.3	17.66
455.657	17.7
456.014	17.74
456.371	17.76
456.727	17.99
457.084	17.69
457.441	17.94
457.797	17.87
458.154	17.94
458.51	17.88
458.867	18.11
459.223	17.88
459.58	18.03
459.936	18.14
460.292	17.97
460.648	17.89
461.005	17.82
461.361	17.69
461.717	17.72
462.073	17.75
462.429	18.06
462.785	18.09
463.141	18.14
463.496	18.18
463.852	18.43
464.208	18.5
464.564	18.53
464.919	18.51
465.275	18.49
465.631	18.68
465.986	18.52
466.342	18.54
466.697	18.49
467.052	18.66
467.408	18.63
467.763	18.72
468.118	18.82
468.473	18.72
468.829	18.68
469.184	18.75
469.539	18.75
469.894	19.03
470.249	18.7
470.603	18.88
470.958	18.94
471.313	19.06
471.668	18.95
472.023	19.01
472.377	19.18
472.732	19.09
473.086	19.1
473.441	19.44
473.795	19.22
474.15	19.15
474.504	19.2
474.859	19.33
475.213	19.35
475.567	19.44
475.921	19.44
476.275	19.32
476.63	19.36
476.984	19.4
477.338	19.34
477.692	19.59
478.045	19.57
478.399	19.55
478.753	19.58
479.107	19.47
479.461	19.58
479.814	19.49
480.168	19.6
480.521	19.53
480.875	19.81
481.228	19.68
481.582	19.7
481.935	19.65
482.289	19.65
482.642	19.48
482.995	19.64
483.348	19.6
483.701	19.44
484.055	19.36
484.408	19.16
484.761	19.03
485.114	18.62
485.466	18.57
485.819	18.69
486.172	19.05
486.525	19.35
486.878	19.41
487.23	19.51
487.583	19.61
487.936	19.56
488.288	19.42
488.641	19.25
488.993	19.06
489.345	19.11
489.698	19.27
490.05	19.36
490.402	19.65
490.754	19.81
491.107	20.05
491.459	20.05
491.811	20.09
492.163	20.03
492.515	20.05
492.866	19.59
493.218	19.44
493.57	19.55
493.922	19.9
494.274	20.06
494.625	20.35
494.977	20.49
495.328	20.57
495.68	20.65
496.031	20.78
496.383	20.73
496.734	20.78
497.086	20.72
497.437	20.77
497.788	20.82
498.139	20.68
498.49	20.61
498.842	20.55
499.193	20.77
499.544	20.86
499.894	20.93
500.245	20.92
500.596	20.95
500.947	21.03
501.298	21.21
501.648	21.23
501.999	21.28
502.35	21.18
502.7	21.33
503.051	21.32
503.401	21.42
503.752	21.47
504.102	21.54
504.452	21.56
504.803	21.39
505.153	21.64
505.503	21.33
505.853	21.4
506.203	21.35
506.553	21.5
506.903	21.62
507.253	21.77
507.603	21.82
507.953	21.8
508.303	21.85
508.652	21.78
509.002	21.67
509.352	21.85
509.701	21.82
510.051	21.69
510.4	21.79
510.75	21.57
511.099	21.63
511.449	21.74
511.798	21.73
512.147	21.9
512.496	21.92
512.846	21.94
513.195	21.86
513.544	21.91
513.893	21.93
514.242	21.96
514.591	21.94
514.939	22.26
515.288	22.33
515.637	22.14
515.986	22.32
516.334	22.39
516.683	22.19
517.032	22.21
517.38	22.35
517.729	22.48
518.077	22.38
518.426	22.34
518.774	22.47
519.122	22.22
519.47	22.17
519.819	21.92
520.167	22.11
520.515	22.1
520.863	22.21
521.211	22.28
521.559	22.4
521.907	22.61
522.255	22.62
522.602	22.7
522.95	22.83
523.298	22.69
523.645	22.7
523.993	22.95
524.341	22.8
524.688	22.91
525.036	22.88
525.383	22.84
525.73	22.8
526.078	22.84
526.425	22.73
526.772	22.61
527.119	22.45
527.466	22.49
527.814	22.55
528.161	22.67
528.508	22.74
528.854	22.69
529.201	22.66
529.548	22.41
529.895	21.99
530.242	22
530.588	22.16
530.935	22.38
531.282	22.58
531.628	22.82
531.975	22.9
532.321	22.93
532.667	23.07
533.014	23.2
533.36	23.19
533.706	23.23
534.052	23.1
534.399	22.92
534.745	22.63
535.091	22.72
535.437	22.86
535.783	23.11
536.129	23.27
536.474	23.45
536.82	23.54
537.166	23.65
537.512	23.59
537.857	23.51
538.203	23.15
538.549	23.28
538.894	23.46
539.239	23.66
539.585	23.8
539.93	23.95
540.276	24.01
540.621	24.19
540.966	24.04
541.311	23.98
541.656	23.99
542.001	23.84
542.346	23.62
542.691	23.24
543.036	23.13
543.381	23.3
543.726	23.45
544.071	23.73
544.415	23.78
544.76	23.81
545.105	23.78
545.449	23.96
545.794	24.21
546.138	24.23
546.483	24.46
546.827	24.31
547.171	24.36
547.516	24.29
547.86	24.28
548.204	24.32
548.548	24.23
548.892	24.34
549.236	24.44
549.58	24.88
549.924	24.93
550.268	24.93
550.612	25.14
550.956	25.26
551.3	25.1
551.643	25.23
551.987	24.95
552.33	25.23
552.674	25.13
553.017	25.26
553.361	25.02
553.704	25.32
554.048	24.98
554.391	25.08
554.734	25.08
555.077	25.2
555.42	25.28
555.764	25.33
556.107	25.34
556.45	25.37
556.793	25.61
557.135	25.57
557.478	25.58
557.821	25.55
558.164	25.73
558.507	25.95
558.849	25.72
559.192	25.66
559.534	25.84
559.877	25.9
560.219	25.78
560.562	26.06
560.904	25.57
561.246	26.12
561.589	25.94
561.931	25.86
562.273	26.06
562.615	26.11
562.957	25.96
563.299	26.08
563.641	25.93
563.983	26.01
564.325	26.26
564.667	26.32
565.008	26.03
565.35	26.01
565.692	26.27
566.033	26.14
566.375	26.09
566.716	26.31
567.058	26.27
567.399	26.11
567.741	26.07
568.082	26.07
568.423	26.25
568.764	26.16
569.105	26.25
569.447	26.51
569.788	26.47
570.129	26.61
570.47	26.44
570.811	26.32
571.151	26.51
571.492	26.65
571.833	26.43
572.174	26.57
572.514	26.74
572.855	26.5
573.195	26.53
573.536	26.46
573.876	26.55
574.217	26.43
574.557	26.76
574.898	26.69
575.238	26.94
575.578	26.87
575.918	26.85
576.258	26.98
576.598	26.93
576.938	26.81
577.278	26.9
577.618	27.06
577.958	27.08
578.298	27.18
578.638	27.25
578.977	27.17
579.317	27.02
579.657	27.34
579.996	27.18
580.336	27.35
580.675	27.55
581.014	27.36
581.354	27.47
581.693	27.52
582.032	27.7
582.372	27.58
582.711	27.75
583.05	27.61
583.389	27.76
583.728	27.58
584.067	28.06
584.406	27.67
584.745	27.85
585.083	27.57
585.422	27.81
585.761	27.78
586.1	28.09
586.438	28.15
586.777	28.2
587.115	27.9
587.454	28.17
587.792	27.77
588.13	28.02
588.469	28.05
588.807	28.32
589.145	28.14
589.483	28.37
589.821	28.36
590.159	28.17
590.497	28.37
590.835	28.2
591.173	28.18
591.511	28.27
591.849	28.41
592.187	28.21
592.524	28.51
592.862	28.71
593.2	28.47
593.537	28.48
593.875	28.64
594.212	28.55
594.55	28.43
594.887	28.79
595.224	28.47
595.561	28.53
595.899	28.4
596.236	28.6
596.573	28.55
596.91	28.64
597.247	28.5
597.584	28.33
597.921	28.46
598.258	28.04
598.594	28.28
598.931	28.35
599.268	28.33
599.604	28.67
599.941	28.6
600.277	28.85
600.614	28.75
600.95	29.17
601.287	29.12
601.623	29.2
601.959	28.94
602.296	29.12
602.632	29.04
602.968	29.23
603.304	28.94
603.64	28.93
603.976	28.98
604.312	28.78
604.648	29.06
604.984	29.23
605.319	28.87
605.655	28.96
605.991	28.83
606.326	28.87
606.662	28.75
606.998	28.8
607.333	29.12
607.668	28.98
608.004	29.52
608.339	29.44
608.674	29.55
609.01	29.3
609.345	29.48
609.68	29.34
610.015	29.6
610.35	29.39
610.685	29.12
611.02	28.87
611.355	29.33
611.689	29.13
612.024	29.39
612.359	29.45
612.694	29.8
613.028	29.69
613.363	29.81
613.697	29.93
614.032	30.14
614.366	29.82
614.7	29.59
615.035	30.04
615.369	29.73
615.703	29.86
616.037	29.89
616.371	29.95
616.705	30.19
617.039	30.01
617.373	30.32
617.707	30.07
618.041	30.35
618.375	30.03
618.709	30.16
619.042	30.04
619.376	30.37
619.71	30.31
620.043	30.45
620.377	30.35
620.71	30.06
621.043	30.17
621.377	30.32
621.71	30.28
622.043	30.33
622.376	30.51
622.709	30.34
623.043	31.07
623.376	30.21
623.709	30.34
624.041	30.42
624.374	30.47
624.707	30.35
625.04	30.54
625.373	30.54
625.705	30.37
626.038	30.59
626.37	30.8
626.703	30.58
627.035	30.51
627.368	30.44
627.7	30.37
628.032	30.3
628.365	30.46
628.697	30.95
629.029	30.47
629.361	30.76
629.693	30.79
630.025	30.65
630.357	30.71
630.689	31
631.021	30.8
631.353	30.71
631.684	31.02
632.016	31.48
632.348	31.1
632.679	31.21
633.011	31.24
633.342	31.03
633.674	30.77
634.005	31.17
634.336	30.99
634.668	31.23
634.999	31.45
635.33	31.05
635.661	31.18
635.992	31.1
636.323	31.2
636.654	31.31
636.985	31.13
637.316	31.78
637.647	31.13
637.977	31.94
638.308	31.4
638.639	30.94
638.969	31.41
639.3	31.61
639.63	30.95
639.961	31.28
640.291	31.62
640.622	31.41
640.952	31.62
641.282	31.89
641.612	32
641.943	31.51
642.273	31.28
642.603	31.46
642.933	31.44
643.263	32.13
643.592	31.92
643.922	31.67
644.252	32.47
644.582	32.44
644.911	32.02
645.241	32.18
645.571	31.47
645.9	31.72
646.23	32.25
646.559	31.77
646.888	31.83
647.218	31.95
647.547	31.8
647.876	32.18
648.205	32.12
648.534	31.96
648.863	32.34
649.192	32.02
649.521	32.31
649.85	31.96
650.179	32.43
650.508	32.35
650.837	32.33
651.165	32.23
651.494	32.29
651.822	32.18
652.151	32.33
652.479	32.79
652.808	32.65
653.136	32.52
653.465	32.43
653.793	32
654.121	32.3
654.449	32.41
654.777	32.4
655.105	33.08
655.433	32.35
655.761	32.93
656.089	32.7
656.417	32.66
656.745	32.48
657.073	32.45
657.4	32.8
657.728	33.09
658.056	32.73
658.383	32.78
658.711	32.38
659.038	32.4
659.365	32.92
659.693	32.47
660.02	32.81
660.347	32.31
660.674	32.57
661.001	32.58
661.329	32.47
661.656	32.85
661.982	33.1
662.309	32.98
662.636	32.85
662.963	33.01
663.29	32.53
663.616	32.67
663.943	32.75
664.27	33.19
664.596	32.9
664.923	32.81
665.249	33.44
665.576	33.33
665.902	33.15
666.228	33.15
666.554	33.44
666.881	33.12
667.207	32.66
667.533	33.2
667.859	33.52
668.185	33.98
668.511	33.2
668.837	33.33
669.162	33.61
669.488	33.05
669.814	33.11
670.139	33.19
670.465	33.45
670.791	33.15
671.116	32.79
671.442	33.37
671.767	33.73
672.092	33.04
672.418	33.43
672.743	33.2
673.068	34.19
673.393	33.63
673.718	33.05
674.043	34.23
674.368	34.78
674.693	33.7
675.018	33.68
675.343	33.4
675.667	33.66
675.992	33.08
676.317	33.69
676.641	33.78
676.966	33.86
677.29	33.12
677.615	33.69
677.939	34.15
678.264	33.86
678.588	33.38
678.912	33.89
679.236	33.34
679.56	33.66
679.885	33.99
680.209	33.76
680.532	33.73
680.856	33.82
681.18	34.35
681.504	34.38
681.828	33.35
682.152	33.4
682.475	33.4
682.799	33.5
683.122	34.37
683.446	33.99
683.769	34.37
684.093	34.35
684.416	34.34
684.739	34.11
685.062	34.29
685.386	33.93
685.709	34.06
686.032	34.48
686.355	34.59
686.678	33.65
687.001	34.81
687.324	34.46
687.646	34.7
687.969	34.09
688.292	34.51
688.614	33.94
688.937	34.43
689.26	34.16
689.582	34.31
689.904	35.08
690.227	34.59
690.549	34.4
690.871	34.97
691.194	34.38
691.516	35.19
691.838	34.54
692.16	33.94
692.482	34.7
692.804	34.73
693.126	34.44
693.448	34.58
693.769	34.87
694.091	34.25
694.413	34.52
694.735	34.95
695.056	34.53
695.378	34.32
695.699	35
696.021	34.13
696.342	33.4
696.663	34.45
696.984	34.69
697.306	35.99
697.627	34.92
697.948	35.2
698.269	34.91
698.59	33.94
698.911	33.71
699.232	35.26
699.553	34.45
699.873	34.93
700.194	34.9
700.515	34.36
700.835	34.14
701.156	34.79
701.477	34.54
701.797	35.11
702.117	35.06
702.438	35.66
702.758	35.31
703.078	35
703.398	34.53
703.719	34.5
704.039	34.92
704.359	35.06
704.679	35.24
704.999	34.8
705.319	34.32
705.638	35.13
705.958	34.78
706.278	35.01
706.597	35.34
706.917	35.25
707.237	35.09
707.556	34.19
707.876	35.27
708.195	35.87
708.514	34.54
708.834	35.52
709.153	34.95
709.472	36.04
709.791	34.58
710.11	35.4
710.429	34.8
710.748	35
711.067	35.78
711.386	35.95
711.705	35.9
712.023	35.71
712.342	35.56
712.661	35.85
712.979	36.29
713.298	34.53
713.616	35.16
713.935	35.8
714.253	35.54
714.572	35.51
714.89	35.86
715.208	34.97
715.526	36.32
715.844	36.03
716.162	36.01
716.48	35.14
716.798	34.91
717.116	35.49
717.434	35.88
717.752	35.19
718.069	35.13
718.387	35.11
718.705	34.96
719.022	36.36
719.34	36.35
719.657	35.69
719.975	35.25
720.292	36.2
720.609	36.28
720.927	35.42
721.244	36.58
721.561	36.53
721.878	37.2
722.195	36.51
722.512	36.62
722.829	36
723.146	35.12
723.463	36.9
723.779	35.18
724.096	36.15
724.413	36.3
724.729	35.77
725.046	36.07
725.362	36.31
725.679	35.96
725.995	36.68
726.311	36.06
726.628	36.07
726.944	36.21
727.26	36.44
727.576	36
727.892	36.26
728.208	35.09
728.524	36.41
728.84	36.96
729.156	37.02
729.472	36.86
729.787	36.5
730.103	37.15
730.419	34.9
730.734	36.95
731.05	37.33
731.365	37.18
731.681	36.32
731.996	36.45
732.311	36.66
732.626	36.62
732.942	36.84
733.257	36.57
733.572	37.03
733.887	36.95
734.202	37.93
734.517	35.74
734.832	37.13
735.146	37.27
735.461	36.1
735.776	36.36
736.091	36.89
736.405	35.85
736.72	35.87
737.034	37.34
737.349	36.37
737.663	37.07
737.977	36.74
738.292	36.91
738.606	37.22
738.92	37.39
739.234	34.76
739.548	37.12
739.862	36.91
740.176	35.58
740.49	36.24
740.804	37.96
741.117	36.18
741.431	37.54
741.745	35.95
742.058	38.69
742.372	38.19
742.685	35.18
742.999	39.29
743.312	38.14
743.626	36.99
743.939	37.6
744.252	37.61
744.565	38.4
744.878	37.69
745.191	36.25
745.505	36.8
745.817	35.28
746.13	35.99
746.443	38.42
746.756	37.72
747.069	39.14
747.381	35.9
747.694	36.6
748.007	37.39
748.319	37.38
748.632	38.91
748.944	39.74
749.256	37.97
749.569	37.14
749.881	37.05
750.193	38.36
750.505	39.12
750.817	38.25
751.129	37.33
751.441	38.86
751.753	38.88
752.065	36
752.377	37.39
752.689	38.32
753	36.66
753.312	37.88
753.624	37.58
753.935	37.78
754.247	37.15
754.558	37.35
754.869	37.95
755.181	39.14
755.492	38.74
755.803	36.05
756.114	36.61
756.425	37.73
756.736	37.62
757.047	37.15
757.358	38.94
757.669	37.71
757.98	36.82
758.291	38.32
758.601	38.15
758.912	38.11
759.223	38.5
759.533	37.07
759.844	39.67
760.154	36.82
760.464	37.07
760.775	38.15
761.085	37.81
761.395	39.61
761.705	37.49
762.016	38.6
762.326	37.92
762.636	38.49
762.945	38.46
763.255	37.55
763.565	38.25
763.875	37.76
764.185	37.87
764.494	37.8
764.804	38.79
765.113	39.21
765.423	38.01
765.732	37.48
766.042	38.28
766.351	38.67
766.66	37.81
766.97	39.18
767.279	39.47
767.588	38.39
767.897	37.99
768.206	38.59
768.515	38.9
768.824	36.93
769.133	37.94
769.441	39.19
769.75	36.67
770.059	39.37
770.367	37.77
770.676	37.2
770.984	39.86
771.293	37.35
771.601	38.17
771.91	38.67
772.218	38.46
772.526	38.18
772.834	40.9
773.142	38.41
773.45	39.4
773.758	36.84
774.066	38.62
774.374	38.85
774.682	38.27
774.99	39.17
775.298	39.57
775.605	37.31
775.913	42.61
776.22	41.6
776.528	38.94
776.835	38.04
777.143	38.28
777.45	40.94
777.757	39.36
778.065	38.5
778.372	34.85
778.679	40.48
778.986	37.1
779.293	41.23
779.6	38.75
779.907	38.22
780.214	37.37
780.52	39.87
780.827	37.22
781.134	35.19
781.44	42.24
781.747	37.65
782.053	39.7
782.36	40.72
782.666	39.35
782.973	40.19
783.279	36.63
783.585	36.17
783.891	39.19
784.197	40.84
784.503	40.48
784.809	41.06
785.115	40.29
785.421	37.71
785.727	41.05
786.033	39.25
786.339	36.82
786.644	42.47
786.95	40.08
787.255	40.49
787.561	37.44
787.866	40.99
788.172	37.55
788.477	40.45
788.782	41.54
789.088	40.96
789.393	36.32
789.698	39.33
790.003	38.15
790.308	35.89
790.613	37.83
790.918	37.04
791.223	38.28
791.527	41.87
791.832	39.62
792.137	39.89
792.441	39.46
792.746	39.28
793.05	39.3
793.355	39.75
793.659	35.3
793.963	42.79
794.268	40.05
794.572	36.03
794.876	40.09
795.18	40.22
795.484	39.04
795.788	41.88
796.092	37.62
796.396	41.96
796.7	40.23
797.004	43.32
797.307	42.45
797.611	43.7
797.915	39.44
798.218	39.73
798.522	39.08
798.825	37.99
799.128	41.16
799.432	39.62
799.735	40.18
800.038	37.81
800.341	39.33
800.644	38.43
800.947	37.99
801.25	39.78
801.553	39.6
801.856	38.1
802.159	39.09
802.462	40.83
802.764	41.59
803.067	40.1
803.37	41.22
803.672	44.34
803.975	38.25
804.277	35.73
804.579	37.67
804.882	42.99
805.184	38.2
805.486	42.56
805.788	38.56
806.09	37.87
806.392	40.15
806.694	43.34
806.996	44.55
807.298	42.2
807.6	39.8
807.902	38.7
808.203	38.25
808.505	42.57
808.807	44.64
809.108	39.15
809.409	44.65
809.711	36.03
810.012	41.09
810.313	33.42
810.615	42.84
810.916	40.62
811.217	46.67
811.518	44.28
811.819	39.48
812.12	40.8
812.421	40.52
812.722	39.69
813.023	38.85
813.323	44.93
813.624	42.82
813.925	43.6
814.225	39.09
814.526	38.28
814.826	36.89
815.126	43.94
815.427	44.16
815.727	42.21
816.027	41.34
816.327	40.16
816.627	41.61
816.927	40.45
817.227	39.03
817.527	40.44
817.827	45.79
818.127	41.92
818.427	38.68
818.727	39.15
819.026	38.84
819.326	42.16
819.625	41.36
819.925	42.58
820.224	43.05
820.524	45.45
820.823	40.43
821.122	43.97
821.421	43.56
821.72	40.48
822.019	40.16
822.318	41.69
822.617	42.81
822.916	37.19
823.215	42.49
823.514	40.94
823.813	38.97
824.111	40.52
824.41	39.29
824.709	39.85
825.007	40.77
825.306	40.58
825.604	40.56
825.902	42.41
826.201	41.39
826.499	41.39
826.797	41.12
827.095	42.38
827.393	42.17
827.691	42.72
827.989	42.05
828.287	40.26
828.585	41.95
828.882	44.68
829.18	41.05
829.478	39.71
829.775	41.7
830.073	41.94
830.37	42.04
830.668	42.01
830.965	41.85
831.263	40.98
831.56	39.14
831.857	43.63
832.154	44.46
832.451	44.2
832.748	42.87
833.045	40.98
833.342	41.62
833.639	40.58
833.936	42.83
834.232	37.74
834.529	40.42
834.826	37.85
835.122	44.62
835.419	44.84
835.715	42.35
836.012	43.92
836.308	40.98
836.604	43.9
836.901	40.66
837.197	42.44
837.493	40.39
837.789	41.13
838.085	38.71
838.381	38.71
838.677	44.32
838.972	40.38
839.268	42.93
839.564	43.11
839.86	40.5
840.155	39.8
840.451	45.89
840.746	43.47
841.042	43.43
841.337	39.98
841.632	43.57
841.928	48.96
842.223	43.78
842.518	42.29
842.813	45.5
843.108	43.15
843.403	39.89
843.698	42.04
843.993	38.98
844.287	37.94
844.582	33.42
844.877	40.39
845.171	45.59
845.466	35.45
845.761	49.02
846.055	47.38
846.349	41.22
846.644	39.12
846.938	38.25
847.232	50.81
847.526	48.13
847.82	46.76
848.114	38.51
848.408	53.74
848.702	52.1
848.996	45.23
849.29	38.21
849.584	39.1
849.877	38.71
850.171	40.82
850.465	58.76
850.758	41.92
851.052	45.07
851.345	42.62
851.638	36.2
851.932	44.09
852.225	48.88
852.518	33.28
852.811	36.46
853.104	25.41
853.397	48.59
853.69	57.59
853.983	48.73
854.276	27.76
854.569	41.76
854.861	40.03
855.154	39.79
855.447	47.12
855.739	48.03
856.032	34.18
856.324	49.61
856.616	60.07
856.909	53.74
857.201	43.16
857.493	48.2
857.785	31.21
858.077	54.14
858.369	16.9
858.661	41.79
858.953	49.76
859.245	47.22
859.537	58.14
859.829	13.51
860.12	43.61
860.412	44.82
860.703	47.57
860.995	43.1
861.286	31.45
861.578	42.74
861.869	43.59
862.16	59.94
862.452	29.17
862.743	22.52
863.034	40.66
863.325	32.09
863.616	55.93
863.907	34.39
864.198	24.05
864.488	35.7
864.779	32.94
865.07	50.28
865.36	37.6
865.651	34.26
865.941	31.6
866.232	53.68
866.522	51.9
866.813	53.58
867.103	57.85
867.393	36.52
867.683	43.95
867.973	43.04
868.263	35.24
868.553	43.82
868.843	43.29
869.133	45.6
869.423	38.44
869.713	17.06
870.002	52.54
870.292	53.85
870.582	42.48
870.871	8.22
871.161	62.25
871.45	56.24
871.739	15.83
872.029	56.79
872.318	49.61
872.607	51.49
872.896	70.28
873.185	30.34
873.474	77.57
873.763	40.17
874.052	45.65
874.341	54.56
874.63	41.84
874.918	48.17
875.207	33.92
875.496	20.05
875.784	57.36
876.073	28.81
876.361	19.72
876.649	47.9
876.938	51.62
877.226	40.98
877.514	18.57
877.802	27.63
878.09	50.73
878.378	44.7
878.666	41.02
878.954	37.58
879.242	57.24
879.53	51.34
879.817	28.88
880.105	39.18
880.392	53.48
880.68	23.23
880.967	38.88
881.255	59.02
881.542	28.79
881.83	32.19
882.117	51.99
882.404	48.28
882.691	44.26
882.978	43.86
883.265	43.09
883.552	36.09
883.839	52.45
884.126	46.08
884.413	44.73
884.699	48.75
884.986	42.99
885.273	48.96
885.559	48.96
885.846	48.96
