Data from 1890-1_forehead_Reflection__3__134.txt Node

Date: Fri Sep 30 18:50:17 CDT 2022
User: ToomeyLab
Spectrometer: FLMS14357
Trigger mode: 0
Integration Time (sec): 1.000000E-2
Scans to average: 100
Electric dark correction enabled: true
Nonlinearity correction enabled: false
Boxcar width: 0
XAxis mode: Wavelengths
Number of Pixels in Spectrum: 2048
>>>>>Begin Spectral Data<<<<<
189.047	-106.35
189.435	-106.35
189.823	-106.35
190.211	27.17
190.599	-56.54
190.987	106.89
191.375	103.31
191.763	53.14
192.151	2341.32
192.538	-534.29
192.926	-765.93
193.314	18.03
193.702	13.64
194.089	40
194.477	-60.49
194.864	-0.32
195.252	152.84
195.639	-137.25
196.027	-46.69
196.414	363.03
196.801	89.16
197.189	176.73
197.576	70.26
197.963	-646.01
198.351	49.48
198.738	-28.5
199.125	68.01
199.512	20.88
199.899	39.48
200.286	34.6
200.673	54.55
201.06	45.89
201.447	26.95
201.833	52.84
202.22	47.34
202.607	68.9
202.994	33.94
203.38	6.83
203.767	11.54
204.154	55.11
204.54	40.53
204.927	49.5
205.313	18.27
205.699	21.06
206.086	6.16
206.472	16.63
206.858	38.34
207.245	20.89
207.631	13.81
208.017	26.48
208.403	37.82
208.789	17.02
209.175	42.62
209.561	-8.84
209.947	36.44
210.333	23.9
210.719	15.06
211.105	-24
211.491	-1.71
211.876	37.07
212.262	55.34
212.648	6.87
213.034	9.46
213.419	42.14
213.805	3.78
214.19	10.88
214.576	25.33
214.961	24.41
215.346	11.61
215.732	28.69
216.117	18.92
216.502	20.13
216.888	26.58
217.273	-8.23
217.658	50.68
218.043	20.97
218.428	5.58
218.813	35.29
219.198	38.29
219.583	28.07
219.968	7.04
220.353	11.96
220.738	-3.74
221.122	31.38
221.507	19.26
221.892	9.68
222.276	-5.4
222.661	19.97
223.046	8.39
223.43	7.13
223.815	17.66
224.199	11.56
224.583	6.13
224.968	9.27
225.352	11.7
225.736	13.91
226.121	13.06
226.505	3.75
226.889	0.49
227.273	7.02
227.657	9.88
228.041	6.64
228.425	9.2
228.809	7.03
229.193	5.7
229.577	3.82
229.961	6.32
230.344	4.09
230.728	4.17
231.112	4.22
231.495	4.86
231.879	6.56
232.263	4.8
232.646	3.81
233.03	5.5
233.413	5.28
233.797	6.08
234.18	5.31
234.563	7.2
234.946	5.35
235.33	4.26
235.713	5.96
236.096	5.92
236.479	4.4
236.862	5.83
237.245	7.44
237.628	4.47
238.011	7.24
238.394	5.33
238.777	3.86
239.16	4.87
239.543	5.66
239.925	3.96
240.308	3.43
240.691	4.82
241.073	6.25
241.456	4.65
241.838	5.87
242.221	4.48
242.603	4.98
242.986	4.86
243.368	4.43
243.75	4.89
244.133	4.95
244.515	4.57
244.897	5.05
245.279	5.02
245.661	4.53
246.043	5.21
246.425	4.64
246.807	5.35
247.189	5.01
247.571	4.84
247.953	5
248.335	4.63
248.717	4.6
249.098	4.7
249.48	4.38
249.862	4.4
250.243	4.29
250.625	4.93
251.006	4.29
251.388	4.18
251.769	5.9
252.151	5.49
252.532	5.49
252.913	4.99
253.295	4.97
253.676	4.53
254.057	5.04
254.438	4.22
254.819	5.16
255.2	4.96
255.581	4.87
255.962	5.21
256.343	4.96
256.724	5.67
257.105	5.78
257.486	4.99
257.867	4.8
258.247	4.2
258.628	5.74
259.009	6.1
259.389	4.67
259.77	5.71
260.15	5.12
260.531	4.96
260.911	4.74
261.292	4.44
261.672	4.58
262.052	4.51
262.432	4.33
262.813	5.17
263.193	4.97
263.573	4.71
263.953	4.4
264.333	5.35
264.713	4.68
265.093	4.72
265.473	5.62
265.853	4.75
266.233	4.51
266.612	4.67
266.992	4.69
267.372	4.49
267.752	4.79
268.131	4.8
268.511	4.35
268.89	4.62
269.27	4.86
269.649	4.48
270.029	5.04
270.408	4.36
270.787	4.82
271.167	4.2
271.546	4.77
271.925	4.85
272.304	4.87
272.683	4.88
273.062	4.46
273.441	4.51
273.82	4.25
274.199	4.78
274.578	4.71
274.957	4.43
275.336	4.26
275.715	4.4
276.093	4.56
276.472	4.7
276.851	4.98
277.229	5.02
277.608	4.98
277.986	4.44
278.365	4.83
278.743	4.31
279.122	4.33
279.5	4.55
279.878	4.61
280.257	4.23
280.635	4.72
281.013	4.93
281.391	4.45
281.769	4.61
282.147	4.29
282.525	4.77
282.903	4.4
283.281	4.43
283.659	4.44
284.037	4.5
284.415	4.63
284.792	4.72
285.17	4.09
285.548	4.63
285.925	4.92
286.303	4.48
286.68	3.88
287.058	4.29
287.435	4.67
287.813	4.4
288.19	4.56
288.567	4.32
288.945	3.8
289.322	4.67
289.699	4.37
290.076	4.45
290.453	4.62
290.83	4.52
291.207	4.52
291.584	4.65
291.961	4.47
292.338	4.82
292.715	5.34
293.092	4.67
293.469	4.91
293.845	5.35
294.222	5.18
294.599	5.85
294.975	5.25
295.352	5.21
295.728	5.73
296.105	5.28
296.481	5.38
296.858	5.61
297.234	5.63
297.61	5.57
297.986	5.1
298.363	5.25
298.739	5.04
299.115	5.35
299.491	5.53
299.867	5.47
300.243	5.54
300.619	5.44
300.995	6.04
301.371	5.52
301.746	5.26
302.122	6.13
302.498	5.66
302.874	6.14
303.249	6.18
303.625	6.48
304	6.06
304.376	6.08
304.751	6.18
305.127	6.05
305.502	5.86
305.878	6.51
306.253	6
306.628	6.07
307.003	6.23
307.378	6.47
307.754	6.41
308.129	6.67
308.504	6.46
308.879	6.69
309.254	6.74
309.629	6.81
310.003	6.64
310.378	6.85
310.753	7.1
311.128	6.89
311.502	7.18
311.877	7.39
312.252	7.28
312.626	7.32
313.001	6.91
313.375	7.11
313.75	7.54
314.124	7.59
314.498	6.93
314.873	7.61
315.247	7.44
315.621	7.39
315.995	8.19
316.369	7.18
316.743	7.63
317.117	8.34
317.491	9.3
317.865	8.37
318.239	8.58
318.613	8.25
318.987	8.03
319.361	8.45
319.734	8.37
320.108	8.43
320.482	8.4
320.855	8.92
321.229	9.01
321.602	8.53
321.976	9.13
322.349	9.21
322.723	8.08
323.096	9.2
323.469	9.18
323.843	8.45
324.216	8.77
324.589	9.73
324.962	9.09
325.335	9.34
325.708	9.52
326.081	9.5
326.454	9.26
326.827	9.31
327.2	9.06
327.573	9.65
327.945	9.47
328.318	9.57
328.691	10.18
329.063	9.59
329.436	9.79
329.809	10.13
330.181	10.28
330.553	9.94
330.926	10.5
331.298	9.95
331.671	10.03
332.043	10.07
332.415	9.92
332.787	9.84
333.159	10.18
333.532	10.99
333.904	10.69
334.276	10.69
334.648	10.05
335.02	10.59
335.391	10.54
335.763	10.43
336.135	10.68
336.507	10.83
336.879	11.09
337.25	10.54
337.622	11.13
337.993	10.59
338.365	11.17
338.736	11.11
339.108	10.96
339.479	11.32
339.851	10.85
340.222	11.64
340.593	11.08
340.964	10.99
341.336	11.59
341.707	11.53
342.078	11.34
342.449	11.52
342.82	11.34
343.191	11.42
343.562	11.6
343.933	11.87
344.303	11.72
344.674	11.68
345.045	11.55
345.416	11.94
345.786	12.35
346.157	12.02
346.527	11.78
346.898	11.99
347.268	11.68
347.639	11.83
348.009	12.03
348.38	12.51
348.75	12.76
349.12	12.92
349.49	12.94
349.861	12.47
350.231	12.29
350.601	12.62
350.971	12.26
351.341	12.48
351.711	12.56
352.081	12.78
352.45	12.68
352.82	12.61
353.19	13.57
353.56	12.89
353.929	12.84
354.299	13.2
354.669	13.06
355.038	12.91
355.408	13.33
355.777	12.75
356.147	13.12
356.516	13.6
356.885	13.05
357.254	13.7
357.624	13.55
357.993	12.83
358.362	13.37
358.731	13.41
359.1	13.6
359.469	13.15
359.838	13.37
360.207	13.44
360.576	13.8
360.945	14.14
361.314	13.62
361.682	13.55
362.051	13.85
362.42	13.72
362.788	14.02
363.157	14.12
363.525	14
363.894	13.91
364.262	14.08
364.631	14.15
364.999	13.91
365.367	14.25
365.735	14.13
366.104	14.44
366.472	14.5
366.84	14.47
367.208	14.26
367.576	15.02
367.944	14.57
368.312	14.42
368.68	14.66
369.048	14.29
369.416	14.96
369.783	14.82
370.151	14.73
370.519	14.95
370.886	14.67
371.254	14.42
371.621	15.26
371.989	15.25
372.356	14.9
372.724	15.28
373.091	14.97
373.458	15.06
373.826	15.48
374.193	15.25
374.56	15.5
374.927	15.79
375.294	15.86
375.661	15.51
376.028	15.34
376.395	15.22
376.762	15.4
377.129	15.65
377.496	15.76
377.863	15.67
378.229	15.92
378.596	15.78
378.963	16.11
379.329	15.56
379.696	15.99
380.062	16.08
380.429	15.85
380.795	15.81
381.161	15.88
381.528	16.18
381.894	16.04
382.26	16.23
382.626	16.21
382.993	16.25
383.359	16.09
383.725	16.12
384.091	16.12
384.457	16.54
384.823	16.48
385.188	16.55
385.554	16.31
385.92	16.52
386.286	16.56
386.651	16.54
387.017	16.68
387.383	16.65
387.748	16.53
388.114	16.82
388.479	16.81
388.845	16.78
389.21	16.87
389.575	16.78
389.94	17.04
390.306	17.36
390.671	17.21
391.036	17.05
391.401	17.01
391.766	17.4
392.131	17.25
392.496	17.4
392.861	17.49
393.226	17.48
393.591	17.4
393.956	17.61
394.32	17.47
394.685	17.35
395.05	17.43
395.414	17.63
395.779	17.54
396.143	17.76
396.508	17.49
396.872	17.6
397.236	17.68
397.601	18.01
397.965	17.71
398.329	17.71
398.694	18.03
399.058	18.23
399.422	18.21
399.786	18.08
400.15	18.2
400.514	18.22
400.878	18.57
401.242	18.3
401.605	18.38
401.969	18.31
402.333	18.53
402.697	18.4
403.06	18.14
403.424	18.52
403.787	18.6
404.151	18.85
404.514	18.76
404.878	18.75
405.241	18.64
405.604	18.68
405.968	18.77
406.331	18.61
406.694	18.74
407.057	18.68
407.42	18.93
407.783	18.88
408.146	19.01
408.509	18.89
408.872	19.08
409.235	19.19
409.598	19.06
409.961	19.27
410.323	19.33
410.686	19.41
411.049	18.81
411.411	19.34
411.774	19.21
412.136	19.49
412.499	19.47
412.861	19.32
413.223	19.37
413.586	19.43
413.948	19.76
414.31	19.49
414.672	19.51
415.035	19.82
415.397	19.95
415.759	19.79
416.121	19.85
416.483	20.04
416.845	19.86
417.206	20.02
417.568	20.05
417.93	19.88
418.292	19.8
418.653	19.88
419.015	20.13
419.377	19.8
419.738	20.01
420.1	20.17
420.461	20.1
420.822	19.88
421.184	20.11
421.545	19.85
421.906	19.87
422.267	19.92
422.629	20.08
422.99	19.85
423.351	19.91
423.712	19.84
424.073	20.1
424.434	20.27
424.795	20.12
425.155	20.19
425.516	20.3
425.877	20.18
426.238	20.27
426.598	20.27
426.959	20.29
427.32	20.65
427.68	20.52
428.041	20.61
428.401	20.66
428.761	20.91
429.122	21
429.482	21.06
429.842	21.1
430.202	21.06
430.563	21.16
430.923	21.05
431.283	21.22
431.643	21.41
432.003	21.2
432.363	21.2
432.722	21.38
433.082	21.47
433.442	21.56
433.802	21.46
434.161	21.37
434.521	21.43
434.881	21.37
435.24	21.48
435.6	21.56
435.959	21.53
436.319	21.59
436.678	21.6
437.037	21.82
437.396	21.81
437.756	21.52
438.115	21.83
438.474	21.98
438.833	21.83
439.192	22
439.551	21.96
439.91	21.89
440.269	21.85
440.628	22.04
440.987	22.02
441.345	22.1
441.704	22.16
442.063	22.07
442.421	21.93
442.78	21.86
443.138	21.96
443.497	22.03
443.855	22.22
444.214	22.28
444.572	22.33
444.93	22.3
445.288	22.28
445.647	22.52
446.005	22.61
446.363	22.73
446.721	22.42
447.079	22.44
447.437	22.44
447.795	22.26
448.153	22.38
448.51	22.33
448.868	22.33
449.226	22.4
449.584	22.54
449.941	22.66
450.299	22.77
450.656	22.87
451.014	22.93
451.371	23.09
451.729	23.03
452.086	23.07
452.443	23.06
452.801	23.31
453.158	23.1
453.515	23.17
453.872	23.33
454.229	23.31
454.586	23.28
454.943	23.32
455.3	23.41
455.657	23.59
456.014	23.41
456.371	23.42
456.727	23.63
457.084	23.4
457.441	23.58
457.797	23.64
458.154	23.57
458.51	23.7
458.867	23.79
459.223	23.84
459.58	23.79
459.936	23.97
460.292	23.98
460.648	23.73
461.005	23.89
461.361	23.75
461.717	23.7
462.073	23.45
462.429	23.64
462.785	23.74
463.141	23.91
463.496	23.93
463.852	24.16
464.208	24.39
464.564	24.2
464.919	24.26
465.275	24.61
465.631	24.44
465.986	24.63
466.342	24.47
466.697	24.62
467.052	24.73
467.408	24.7
467.763	24.53
468.118	24.77
468.473	24.55
468.829	24.5
469.184	24.71
469.539	24.65
469.894	24.68
470.249	24.76
470.603	24.97
470.958	24.93
471.313	25.02
471.668	24.91
472.023	25.04
472.377	25.08
472.732	25.02
473.086	25.28
473.441	25.28
473.795	25.11
474.15	25.15
474.504	25.62
474.859	25.26
475.213	25.24
475.567	25.42
475.921	25.39
476.275	25.34
476.63	25.46
476.984	25.63
477.338	25.45
477.692	25.59
478.045	25.55
478.399	25.54
478.753	25.64
479.107	25.67
479.461	25.5
479.814	25.55
480.168	25.7
480.521	25.59
480.875	25.72
481.228	25.67
481.582	25.71
481.935	25.68
482.289	25.85
482.642	25.66
482.995	25.83
483.348	25.61
483.701	25.82
484.055	25.61
484.408	25.55
484.761	25.46
485.114	25.26
485.466	25.15
485.819	25.11
486.172	24.99
486.525	25.05
486.878	25.18
487.23	25.37
487.583	25.46
487.936	25.76
488.288	25.72
488.641	25.59
488.993	25.6
489.345	25.53
489.698	25.47
490.05	25.52
490.402	25.68
490.754	25.65
491.107	25.83
491.459	25.97
491.811	26.13
492.163	26.39
492.515	26.36
492.866	26.17
493.218	25.92
493.57	25.91
493.922	25.95
494.274	25.95
494.625	26.1
494.977	26.32
495.328	26.68
495.68	26.78
496.031	26.9
496.383	26.99
496.734	27.18
497.086	27.14
497.437	27.04
497.788	27.17
498.139	27.03
498.49	26.98
498.842	27.07
499.193	27.1
499.544	27.05
499.894	27.09
500.245	27.14
500.596	27.41
500.947	27.28
501.298	27.57
501.648	27.34
501.999	27.59
502.35	27.52
502.7	27.6
503.051	27.58
503.401	27.77
503.752	27.57
504.102	27.99
504.452	27.91
504.803	27.9
505.153	28.01
505.503	27.83
505.853	27.92
506.203	27.76
506.553	27.87
506.903	28.1
507.253	28.07
507.603	28.08
507.953	28.17
508.303	28.26
508.652	28.29
509.002	28.39
509.352	28.23
509.701	28.28
510.051	28.26
510.4	28.13
510.75	28.19
511.099	28.09
511.449	28.16
511.798	28.16
512.147	28.32
512.496	28.35
512.846	28.2
513.195	28.35
513.544	28.38
513.893	28.47
514.242	28.43
514.591	28.59
514.939	28.59
515.288	28.84
515.637	28.66
515.986	28.55
516.334	28.78
516.683	28.55
517.032	28.97
517.38	28.96
517.729	29.02
518.077	28.92
518.426	28.93
518.774	29.08
519.122	28.91
519.47	28.84
519.819	28.67
520.167	28.86
520.515	28.62
520.863	28.7
521.211	28.78
521.559	28.79
521.907	28.73
522.255	28.95
522.602	29.17
522.95	29.35
523.298	29.25
523.645	29.23
523.993	29.59
524.341	29.45
524.688	29.55
525.036	29.3
525.383	29.43
525.73	29.52
526.078	29.58
526.425	29.49
526.772	29.32
527.119	29.17
527.466	29.14
527.814	29.08
528.161	29.14
528.508	29.23
528.854	29.31
529.201	29.31
529.548	29.19
529.895	29.05
530.242	29.08
530.588	29.07
530.935	28.9
531.282	28.93
531.628	29.07
531.975	29.24
532.321	29.26
532.667	29.46
533.014	29.6
533.36	29.72
533.706	29.92
534.052	29.84
534.399	29.68
534.745	29.57
535.091	29.6
535.437	29.61
535.783	29.66
536.129	29.7
536.474	29.81
536.82	30.04
537.166	30.23
537.512	30.17
537.857	30.22
538.203	30.08
538.549	30.09
538.894	30.2
539.239	30.26
539.585	30.45
539.93	30.63
540.276	30.62
540.621	30.8
540.966	31.07
541.311	30.79
541.656	31.02
542.001	30.68
542.346	30.62
542.691	30.27
543.036	30.16
543.381	30.21
543.726	30.26
544.071	30.35
544.415	30.36
544.76	30.45
545.105	30.66
545.449	30.69
545.794	30.97
546.138	30.76
546.483	31.09
546.827	31.1
547.171	31.12
547.516	31.11
547.86	31.12
548.204	31.36
548.548	31.1
548.892	31.12
549.236	31.24
549.58	31.51
549.924	31.52
550.268	31.63
550.612	31.67
550.956	31.85
551.3	31.67
551.643	31.95
551.987	31.75
552.33	31.96
552.674	31.84
553.017	32.04
553.361	32.1
553.704	31.97
554.048	31.87
554.391	32.03
554.734	32.08
555.077	32.33
555.42	32.21
555.764	31.92
556.107	32.39
556.45	32.31
556.793	32.24
557.135	32.15
557.478	32.54
557.821	32.49
558.164	32.79
558.507	32.64
558.849	32.74
559.192	32.44
559.534	32.64
559.877	32.72
560.219	32.67
560.562	32.88
560.904	32.87
561.246	32.82
561.589	32.89
561.931	32.93
562.273	33.02
562.615	32.96
562.957	32.8
563.299	33.14
563.641	32.75
563.983	32.84
564.325	32.91
564.667	33.15
565.008	33.01
565.35	33.2
565.692	33.27
566.033	33.02
566.375	33.03
566.716	33.27
567.058	33.31
567.399	33.33
567.741	33.3
568.082	33.37
568.423	33.32
568.764	33.31
569.105	33.12
569.447	33.39
569.788	33.34
570.129	33.55
570.47	33.32
570.811	33.51
571.151	33.65
571.492	33.71
571.833	33.66
572.174	33.72
572.514	33.84
572.855	33.77
573.195	33.7
573.536	33.62
573.876	33.62
574.217	33.57
574.557	33.65
574.898	33.65
575.238	33.85
575.578	34.02
575.918	33.68
576.258	33.93
576.598	33.99
576.938	33.87
577.278	33.89
577.618	34.25
577.958	33.99
578.298	34.25
578.638	33.96
578.977	34.39
579.317	34.02
579.657	34.24
579.996	34.24
580.336	34.46
580.675	34.53
581.014	34.4
581.354	34.91
581.693	34.6
582.032	34.68
582.372	34.83
582.711	34.7
583.05	34.87
583.389	34.69
583.728	34.83
584.067	34.83
584.406	34.9
584.745	34.66
585.083	34.87
585.422	34.94
585.761	34.8
586.1	34.85
586.438	35.19
586.777	35.6
587.115	35.05
587.454	35.25
587.792	35.02
588.13	35.14
588.469	35
588.807	35.32
589.145	35.16
589.483	35.31
589.821	35.42
590.159	35.15
590.497	35.28
590.835	35.34
591.173	35.32
591.511	35.51
591.849	35.46
592.187	35.54
592.524	35.41
592.862	35.85
593.2	35.54
593.537	35.39
593.875	35.81
594.212	35.88
594.55	35.7
594.887	35.62
595.224	35.6
595.561	35.7
595.899	35.65
596.236	35.95
596.573	35.76
596.91	35.74
597.247	35.8
597.584	35.69
597.921	35.83
598.258	35.53
598.594	35.76
598.931	35.76
599.268	35.82
599.604	35.71
599.941	35.61
600.277	35.9
600.614	35.81
600.95	36.36
601.287	35.72
601.623	36.43
601.959	36.17
602.296	36.16
602.632	36.31
602.968	36.44
603.304	36.67
603.64	36.14
603.976	36.18
604.312	36.09
604.648	36.36
604.984	36.41
605.319	36.25
605.655	36.21
605.991	36.02
606.326	36.24
606.662	36.3
606.998	36.15
607.333	36.2
607.668	36.26
608.004	36.3
608.339	36.42
608.674	36.62
609.01	36.51
609.345	36.59
609.68	36.59
610.015	37.02
610.35	36.81
610.685	36.38
611.02	36.61
611.355	36.59
611.689	36.28
612.024	36.79
612.359	36.51
612.694	36.93
613.028	36.74
613.363	36.92
613.697	36.97
614.032	37.27
614.366	36.93
614.7	36.8
615.035	37.04
615.369	37.27
615.703	37.17
616.037	37.11
616.371	37.44
616.705	36.96
617.039	37.43
617.373	37.7
617.707	37.31
618.041	37.58
618.375	37.53
618.709	37.25
619.042	37.48
619.376	37.6
619.71	37.77
620.043	37.67
620.377	37.68
620.71	37.76
621.043	37.76
621.377	37.67
621.71	37.56
622.043	37.33
622.376	38.01
622.709	37.49
623.043	38.18
623.376	37.79
623.709	37.93
624.041	37.86
624.374	37.81
624.707	37.8
625.04	37.89
625.373	37.89
625.705	37.75
626.038	38.31
626.37	37.97
626.703	38.09
627.035	37.68
627.368	37.85
627.7	38
628.032	37.96
628.365	37.7
628.697	38.19
629.029	38.06
629.361	38.3
629.693	38.23
630.025	37.92
630.357	37.9
630.689	38.12
631.021	38.56
631.353	38.24
631.684	38.39
632.016	38.5
632.348	38.49
632.679	38.31
633.011	38.84
633.342	38
633.674	38.29
634.005	38.32
634.336	38.49
634.668	38.31
634.999	38.74
635.33	38.63
635.661	38.64
635.992	38.78
636.323	38.63
636.654	38.5
636.985	38.89
637.316	38.92
637.647	38.44
637.977	38.84
638.308	38.91
638.639	38.53
638.969	38.48
639.3	39.12
639.63	38.49
639.961	38.94
640.291	38.81
640.622	39.2
640.952	39.38
641.282	39.1
641.612	38.79
641.943	39.2
642.273	38.79
642.603	39.25
642.933	38.64
643.263	39.11
643.592	39.42
643.922	38.59
644.252	39.3
644.582	39.11
644.911	39.49
645.241	39.16
645.571	39.59
645.9	39.26
646.23	39.12
646.559	39.04
646.888	39.33
647.218	39.26
647.547	39.5
647.876	39.46
648.205	38.99
648.534	39.06
648.863	39.11
649.192	39.53
649.521	39.74
649.85	40.14
650.179	39.49
650.508	39.79
650.837	39.81
651.165	39.88
651.494	40
651.822	39.59
652.151	39.59
652.479	39.97
652.808	40.29
653.136	39.93
653.465	39.51
653.793	39.46
654.121	40.08
654.449	39.99
654.777	39.8
655.105	39.92
655.433	39.74
655.761	40.55
656.089	40.34
656.417	39.65
656.745	39.86
657.073	40.11
657.4	40.38
657.728	40.41
658.056	39.84
658.383	40.06
658.711	39.76
659.038	40.24
659.365	39.96
659.693	39.91
660.02	40.27
660.347	39.79
660.674	40.11
661.001	40.33
661.329	40.36
661.656	40.63
661.982	40.64
662.309	40.43
662.636	40.39
662.963	40.08
663.29	40.13
663.616	40.58
663.943	40.21
664.27	40.06
664.596	40.2
664.923	40.29
665.249	40.56
665.576	40.57
665.902	40.52
666.228	40.88
666.554	40.48
666.881	40.26
667.207	40.46
667.533	40.51
667.859	40.52
668.185	40.59
668.511	41.05
668.837	41
669.162	40.77
669.488	40.34
669.814	40.25
670.139	40.2
670.465	41.56
670.791	40.7
671.116	40.85
671.442	40.92
671.767	41.18
672.092	41.37
672.418	40.36
672.743	40.13
673.068	41.35
673.393	40.89
673.718	40.54
674.043	41.37
674.368	41.66
674.693	39.98
675.018	40.73
675.343	41.48
675.667	41.66
675.992	41.31
676.317	41.73
676.641	40.72
676.966	41.18
677.29	40.95
677.615	41.47
677.939	40.99
678.264	40.9
678.588	41.15
678.912	40.7
679.236	41.52
679.56	41.38
679.885	41.65
680.209	40.74
680.532	41.44
680.856	41.31
681.18	41.47
681.504	41.65
681.828	41.4
682.152	41.02
682.475	41.09
682.799	41.3
683.122	41.22
683.446	41.91
683.769	41.57
684.093	41.76
684.416	41.51
684.739	41.81
685.062	41.28
685.386	41.82
685.709	41.41
686.032	42.01
686.355	41.62
686.678	40.99
687.001	41.71
687.324	41.62
687.646	42.16
687.969	41.79
688.292	42.15
688.614	41.46
688.937	41.91
689.26	41.57
689.582	41.41
689.904	41.73
690.227	41.72
690.549	41.95
690.871	41.94
691.194	41.51
691.516	41.84
691.838	41.18
692.16	42.46
692.482	42.02
692.804	42.38
693.126	41.58
693.448	41.48
693.769	41.62
694.091	41.43
694.413	41.59
694.735	42.46
695.056	41.98
695.378	41.66
695.699	42.7
696.021	41.31
696.342	42.13
696.663	42.68
696.984	42.49
697.306	42.52
697.627	41.69
697.948	42.19
698.269	42.23
698.59	41.67
698.911	41.95
699.232	42.38
699.553	42.68
699.873	42.33
700.194	42.67
700.515	42.2
700.835	41.89
701.156	41.92
701.477	42.31
701.797	41.95
702.117	42.51
702.438	42.76
702.758	42.44
703.078	42.85
703.398	42.03
703.719	43.17
704.039	43.16
704.359	41.97
704.679	42.92
704.999	42.41
705.319	43.23
705.638	42.24
705.958	42.06
706.278	42.38
706.597	43.17
706.917	42.98
707.237	43.46
707.556	41.92
707.876	42.88
708.195	42.62
708.514	41.63
708.834	42.85
709.153	43.05
709.472	42.69
709.791	41.77
710.11	42.77
710.429	42.15
710.748	43.01
711.067	43.76
711.386	42.62
711.705	43.55
712.023	42.88
712.342	43.47
712.661	43.79
712.979	43.18
713.298	42.34
713.616	43.72
713.935	43.09
714.253	44.09
714.572	42.96
714.89	43.2
715.208	41.91
715.526	43.26
715.844	43.12
716.162	43.84
716.48	42.45
716.798	42.6
717.116	43.73
717.434	44.67
717.752	43.38
718.069	42.86
718.387	42.76
718.705	43.56
719.022	43.47
719.34	44.26
719.657	43.86
719.975	43.97
720.292	43.55
720.609	43.5
720.927	43.24
721.244	44.34
721.561	44.1
721.878	43.72
722.195	44.44
722.512	43.3
722.829	43.24
723.146	42.55
723.463	44.24
723.779	43.36
724.096	44.14
724.413	43.83
724.729	43.04
725.046	43
725.362	43.95
725.679	42.88
725.995	43.02
726.311	44.34
726.628	43.69
726.944	44.27
727.26	43.96
727.576	43.98
727.892	44.6
728.208	43.29
728.524	43.94
728.84	45.64
729.156	44
729.472	44.55
729.787	44.51
730.103	43.45
730.419	43.71
730.734	43.48
731.05	44.7
731.365	44.18
731.681	43.94
731.996	43.43
732.311	44.93
732.626	44.07
732.942	44.29
733.257	44.43
733.572	44.59
733.887	44.43
734.202	44.38
734.517	43.01
734.832	45.47
735.146	44.47
735.461	43.68
735.776	44.05
736.091	44.59
736.405	44.21
736.72	43.59
737.034	45.07
737.349	44.53
737.663	45.1
737.977	44.63
738.292	43.33
738.606	44.35
738.92	45.05
739.234	43.25
739.548	43.6
739.862	44.66
740.176	44.4
740.49	43.73
740.804	44.39
741.117	43.29
741.431	44.52
741.745	45.35
742.058	46.46
742.372	44.74
742.685	43.33
742.999	45.93
743.312	44.82
743.626	43.71
743.939	45.8
744.252	44.83
744.565	46.59
744.878	44.84
745.191	44.69
745.505	44.18
745.817	45.84
746.13	44.27
746.443	43.98
746.756	43.99
747.069	42.8
747.381	41.49
747.694	43.11
748.007	44.06
748.319	43.53
748.632	44.33
748.944	45.46
749.256	46.61
749.569	44.78
749.881	43.77
750.193	45.27
750.505	45.14
750.817	43.2
751.129	45.15
751.441	47.05
751.753	46.54
752.065	44.53
752.377	44.27
752.689	45.62
753	44.4
753.312	47.22
753.624	46.71
753.935	45.24
754.247	44.98
754.558	46.91
754.869	46.42
755.181	44.93
755.492	45.82
755.803	45.53
756.114	44.24
756.425	45.94
756.736	44.28
757.047	44.25
757.358	44.93
757.669	45.67
757.98	46.71
758.291	46.54
758.601	44.43
758.912	44.64
759.223	45.1
759.533	44.38
759.844	46.59
760.154	46.08
760.464	44.47
760.775	46.21
761.085	45.3
761.395	45.52
761.705	45.2
762.016	46.11
762.326	46.16
762.636	46.4
762.945	47.66
763.255	44.91
763.565	46.27
763.875	47.27
764.185	44.69
764.494	44.26
764.804	45.49
765.113	45.81
765.423	46.2
765.732	44.65
766.042	46.42
766.351	47.24
766.66	46.05
766.97	46.93
767.279	45.18
767.588	45.31
767.897	44.92
768.206	45.04
768.515	46.25
768.824	45.28
769.133	44.6
769.441	48.38
769.75	44.43
770.059	45.76
770.367	46.09
770.676	46.53
770.984	44.92
771.293	45.79
771.601	45.21
771.91	44.59
772.218	48.04
772.526	45.12
772.834	45.13
773.142	45.93
773.45	44.37
773.758	44.08
774.066	46.78
774.374	45.55
774.682	45.64
774.99	44.35
775.298	44.88
775.605	43.05
775.913	46.54
776.22	46.2
776.528	44.72
776.835	47.58
777.143	44.13
777.45	45
777.757	47.81
778.065	45.64
778.372	43.62
778.679	50.16
778.986	45.47
779.293	45.12
779.6	44.3
779.907	47.33
780.214	46.04
780.52	44.66
780.827	45.67
781.134	44.7
781.44	46.12
781.747	45.76
782.053	48.06
782.36	46.47
782.666	44.71
782.973	45.6
783.279	46.32
783.585	44.21
783.891	48.21
784.197	50.49
784.503	46.9
784.809	49.19
785.115	44.74
785.421	46.1
785.727	45.21
786.033	42.22
786.339	45.68
786.644	45.5
786.95	48.54
787.255	48.63
787.561	43.1
787.866	43.79
788.172	44.96
788.477	46.51
788.782	51.18
789.088	50.05
789.393	44.93
789.698	45.76
790.003	43.84
790.308	43.29
790.613	43.37
790.918	46.21
791.223	46.65
791.527	50.02
791.832	49.22
792.137	47.94
792.441	46.05
792.746	39.7
793.05	44.11
793.355	42.62
793.659	46.64
793.963	46.17
794.268	47.25
794.572	45.45
794.876	45.44
795.18	46.22
795.484	45.32
795.788	45.07
796.092	49.11
796.396	47.24
796.7	43.04
797.004	44.17
797.307	51.37
797.611	48.44
797.915	49.5
798.218	49.49
798.522	46.48
798.825	45.12
799.128	47.92
799.432	47.88
799.735	50.5
800.038	45.29
800.341	46.01
800.644	45.44
800.947	46.72
801.25	47.14
801.553	46.21
801.856	45.86
802.159	49.49
802.462	44
802.764	46.31
803.067	43.46
803.37	50.16
803.672	44.17
803.975	46.61
804.277	43.46
804.579	43.64
804.882	46.94
805.184	44.65
805.486	48.7
805.788	46.99
806.09	46.34
806.392	44.73
806.694	46.82
806.996	50
807.298	45.32
807.6	44.8
807.902	44.03
808.203	46.71
808.505	49.5
808.807	52.81
809.108	46.3
809.409	52.22
809.711	42.82
810.012	46.67
810.313	47.33
810.615	47
810.916	47.32
811.217	44.22
811.518	49.53
811.819	47.19
812.12	47.06
812.421	44.51
812.722	49.52
813.023	41.09
813.323	51.09
813.624	47.8
813.925	45.26
814.225	43.43
814.526	46.53
814.826	51.21
815.126	51.83
815.427	53.15
815.727	48.76
816.027	42.36
816.327	45.77
816.627	49.24
816.927	46.96
817.227	50.05
817.527	50.94
817.827	48.91
818.127	52.14
818.427	47.88
818.727	43.11
819.026	43.64
819.326	48.56
819.625	50.58
819.925	48.79
820.224	53.44
820.524	50.05
820.823	48.33
821.122	52.7
821.421	48.78
821.72	47.36
822.019	50.02
822.318	45.72
822.617	47.15
822.916	45.84
823.215	48.04
823.514	46.08
823.813	46.42
824.111	46.88
824.41	47.11
824.709	47.63
825.007	47.75
825.306	47.95
825.604	47.13
825.902	47.92
826.201	48.66
826.499	47.57
826.797	47.92
827.095	49.81
827.393	48.87
827.691	48.11
827.989	46.91
828.287	49.29
828.585	49.93
828.882	48.77
829.18	45.62
829.478	48.67
829.775	48.3
830.073	48.45
830.37	48.97
830.668	47.68
830.965	49.11
831.263	46.97
831.56	47.49
831.857	50.17
832.154	48
832.451	48.7
832.748	48.46
833.045	49.93
833.342	47.22
833.639	46.95
833.936	50.73
834.232	48.05
834.529	44.88
834.826	45.02
835.122	53.13
835.419	54.62
835.715	52.06
836.012	48.05
836.308	47.49
836.604	50.27
836.901	45.77
837.197	46.73
837.493	44.19
837.789	46.8
838.085	50.61
838.381	44.97
838.677	49.97
838.972	48.43
839.268	51.87
839.564	52.62
839.86	50.66
840.155	43.72
840.451	47.29
840.746	45.02
841.042	59.13
841.337	55.23
841.632	46.35
841.928	52.41
842.223	46.94
842.518	49.41
842.813	45.63
843.108	49.29
843.403	47
843.698	50.12
843.993	44.56
844.287	49.11
844.582	45.61
844.877	48.34
845.171	49.02
845.466	45.3
845.761	52.68
846.055	44.83
846.349	43.01
846.644	39.21
846.938	46.8
847.232	36.61
847.526	36.25
847.82	53.86
848.114	36.44
848.408	48.77
848.702	51.11
848.996	46.63
849.29	42.59
849.584	35.85
849.877	30.43
850.171	47.13
850.465	45.74
850.758	43.22
851.052	29.16
851.345	37.38
851.638	36.7
851.932	59.76
852.225	52.34
852.518	48.98
852.811	36.88
853.104	49.18
853.397	49.74
853.69	44.86
853.983	49.61
854.276	42.98
854.569	49.26
854.861	48.69
855.154	51.16
855.447	59.04
855.739	45.37
856.032	36.55
856.324	51.19
856.616	51.18
856.909	52.93
857.201	40.2
857.493	45.01
857.785	50.44
858.077	59.98
858.369	28.41
858.661	39.27
858.953	61.35
859.245	57
859.537	38.09
859.829	33.19
860.12	37.44
860.412	55.46
860.703	43.76
860.995	39.99
861.286	29.73
861.578	19.18
861.869	60.1
862.16	74.29
862.452	45.41
862.743	30.77
863.034	44.49
863.325	44.24
863.616	44.99
863.907	46.62
864.198	42.13
864.488	32.84
864.779	53.28
865.07	54.68
865.36	55.51
865.651	30.59
865.941	38.99
866.232	54.98
866.522	43.99
866.813	28.65
867.103	55.62
867.393	58.07
867.683	53.93
867.973	46.7
868.263	36.62
868.553	30.91
868.843	54.52
869.133	65.73
869.423	49.34
869.713	29.57
870.002	34.61
870.292	79.59
870.582	20.1
870.871	37.82
871.161	29.44
871.45	73.06
871.739	60.27
872.029	48.12
872.318	79.11
872.607	51.15
872.896	56.12
873.185	56.93
873.474	57.78
873.763	43.47
874.052	49.76
874.341	42.55
874.63	35.27
874.918	60.87
875.207	59.28
875.496	33.94
875.784	43.54
876.073	65.3
876.361	45.56
876.649	65.26
876.938	54.98
877.226	45.81
877.514	40.92
877.802	64.15
878.09	52.17
878.378	41.86
878.666	49.26
878.954	62.95
879.242	68.65
879.53	43.71
879.817	71.21
880.105	56.08
880.392	38.96
880.68	23.27
880.967	51.98
881.255	52.97
881.542	23.47
881.83	46.22
882.117	67.67
882.404	57.38
882.691	41
882.978	34.86
883.265	39.39
883.552	41.86
883.839	50.12
884.126	45.02
884.413	58.32
884.699	51.4
884.986	46.25
885.273	48.22
885.559	48.22
885.846	48.22
