Data from 1890-1_crown_Reflection__4__130.txt Node

Date: Fri Sep 30 18:48:59 CDT 2022
User: ToomeyLab
Spectrometer: FLMS14357
Trigger mode: 0
Integration Time (sec): 1.000000E-2
Scans to average: 100
Electric dark correction enabled: true
Nonlinearity correction enabled: false
Boxcar width: 0
XAxis mode: Wavelengths
Number of Pixels in Spectrum: 2048
>>>>>Begin Spectral Data<<<<<
189.047	-1130.49
189.435	-1130.49
189.823	-1130.49
190.211	4.68
190.599	-31.05
190.987	6.69
191.375	248.13
191.763	51.11
192.151	1223.35
192.538	-355.85
192.926	-691.11
193.314	49.78
193.702	-7.16
194.089	24.52
194.477	190.09
194.864	60.99
195.252	97.1
195.639	-110.67
196.027	-25.15
196.414	812.16
196.801	134.43
197.189	110.72
197.576	78.58
197.963	-857.19
198.351	3.06
198.738	7.43
199.125	27.28
199.512	-15.6
199.899	-13.32
200.286	13.26
200.673	27.78
201.06	20.37
201.447	13.88
201.833	29.92
202.22	29.57
202.607	2.8
202.994	47.39
203.38	12.65
203.767	9.78
204.154	50.73
204.54	14.31
204.927	40.56
205.313	-47.13
205.699	27.38
206.086	-19.98
206.472	-13.7
206.858	-5.18
207.245	39.15
207.631	-18.08
208.017	-27.71
208.403	17.6
208.789	18.72
209.175	35.26
209.561	6.34
209.947	-4.05
210.333	-73.08
210.719	-25.91
211.105	-2.71
211.491	-5.53
211.876	5.68
212.262	48.94
212.648	34.27
213.034	-7.14
213.419	8.79
213.805	-2.78
214.19	-5.36
214.576	-2.82
214.961	4.85
215.346	19.6
215.732	21.02
216.117	-25.91
216.502	10.65
216.888	16.94
217.273	-15.75
217.658	10.65
218.043	-9.83
218.428	5.88
218.813	25.81
219.198	1.47
219.583	6.68
219.968	21.64
220.353	-1.41
220.738	4.49
221.122	21.76
221.507	15.88
221.892	6.46
222.276	-13.3
222.661	18.15
223.046	-3.78
223.43	-2.56
223.815	3.48
224.199	8.33
224.583	-4.56
224.968	-0.31
225.352	-6.75
225.736	9
226.121	-0.35
226.505	-1.07
226.889	2.8
227.273	-10.19
227.657	1.67
228.041	0.92
228.425	5.01
228.809	4.1
229.193	2.65
229.577	-0.86
229.961	1.7
230.344	0.67
230.728	0.8
231.112	0.49
231.495	0.54
231.879	2.81
232.263	0.65
232.646	-0.99
233.03	1.44
233.413	0.88
233.797	1.32
234.18	1.19
234.563	-0.55
234.946	2.45
235.33	-0.15
235.713	2.05
236.096	0.73
236.479	2.56
236.862	1.15
237.245	1.94
237.628	-0.64
238.011	1.2
238.394	1.91
238.777	-0.17
239.16	0.53
239.543	-0.05
239.925	1.61
240.308	0.3
240.691	1.23
241.073	1.1
241.456	-0.89
241.838	1.43
242.221	1.14
242.603	1.21
242.986	1.44
243.368	0.31
243.75	0.77
244.133	1.18
244.515	0.94
244.897	1.54
245.279	1.82
245.661	1.37
246.043	0.84
246.425	1.32
246.807	0.81
247.189	1.56
247.571	1.41
247.953	1.29
248.335	0.98
248.717	1.34
249.098	1.16
249.48	1.09
249.862	1.1
250.243	0.81
250.625	1.05
251.006	0.65
251.388	-0.11
251.769	1.66
252.151	1.99
252.532	0.57
252.913	0.87
253.295	1.55
253.676	0.76
254.057	1.21
254.438	0.48
254.819	1.89
255.2	1.35
255.581	1.73
255.962	0.88
256.343	1.37
256.724	1.82
257.105	1.98
257.486	1.84
257.867	1.34
258.247	1.59
258.628	1.51
259.009	1.8
259.389	0.37
259.77	1.29
260.15	0.87
260.531	1.96
260.911	1.12
261.292	1.05
261.672	0.72
262.052	0.92
262.432	1.07
262.813	1.73
263.193	1.11
263.573	1.2
263.953	0.66
264.333	1.16
264.713	0.87
265.093	1.03
265.473	1.3
265.853	0.62
266.233	0.67
266.612	0.25
266.992	0.59
267.372	0.24
267.752	0.56
268.131	0.94
268.511	0.7
268.89	0.75
269.27	0.98
269.649	0.67
270.029	1.82
270.408	0.38
270.787	0.43
271.167	1.33
271.546	1.29
271.925	1.32
272.304	1.3
272.683	0.97
273.062	0.91
273.441	0.78
273.82	0.71
274.199	1.42
274.578	0.68
274.957	1.06
275.336	0.6
275.715	0.93
276.093	1.12
276.472	0.85
276.851	1.45
277.229	1.48
277.608	1.33
277.986	0.97
278.365	1.16
278.743	0.76
279.122	0.71
279.5	0.56
279.878	1.02
280.257	1.26
280.635	1.53
281.013	1.24
281.391	0.61
281.769	0.5
282.147	1.4
282.525	0.98
282.903	0.82
283.281	0.59
283.659	0.93
284.037	0.78
284.415	0.86
284.792	0.4
285.17	0.27
285.548	0.75
285.925	0.88
286.303	1.01
286.68	0.58
287.058	0.92
287.435	0.8
287.813	0.51
288.19	0.93
288.567	1.14
288.945	0.59
289.322	0.73
289.699	1.2
290.076	0.95
290.453	1.1
290.83	0.88
291.207	0.9
291.584	0.71
291.961	0.7
292.338	0.83
292.715	1.26
293.092	0.92
293.469	1.12
293.845	1.15
294.222	0.8
294.599	1.38
294.975	0.89
295.352	1.09
295.728	1.24
296.105	1
296.481	1.4
296.858	1.43
297.234	1.42
297.61	0.83
297.986	0.51
298.363	0.92
298.739	0.81
299.115	0.73
299.491	0.85
299.867	0.84
300.243	0.87
300.619	0.99
300.995	1.45
301.371	0.82
301.746	0.61
302.122	1.15
302.498	0.95
302.874	0.9
303.249	1.12
303.625	1.46
304	0.79
304.376	0.95
304.751	1.21
305.127	0.92
305.502	1.42
305.878	1.65
306.253	1.25
306.628	1.22
307.003	0.99
307.378	0.94
307.754	0.92
308.129	1.15
308.504	1.2
308.879	1.36
309.254	1.07
309.629	1.36
310.003	1.12
310.378	0.88
310.753	0.49
311.128	0.84
311.502	1.17
311.877	0.97
312.252	1.04
312.626	1.35
313.001	1.26
313.375	0.97
313.75	1.2
314.124	1.17
314.498	0.32
314.873	0.97
315.247	0.73
315.621	1.4
315.995	1.42
316.369	0.92
316.743	1.34
317.117	1.55
317.491	1.83
317.865	1.53
318.239	1.49
318.613	1.07
318.987	1.83
319.361	0.7
319.734	0.56
320.108	1.03
320.482	1.19
320.855	1.32
321.229	1.51
321.602	1.39
321.976	2.06
322.349	1.55
322.723	1.13
323.096	1.71
323.469	1.23
323.843	0.65
324.216	1.35
324.589	1.95
324.962	1.69
325.335	0.83
325.708	1.03
326.081	1.48
326.454	1.32
326.827	1.32
327.2	1.4
327.573	0.94
327.945	1.05
328.318	1.38
328.691	1.5
329.063	0.91
329.436	1.4
329.809	1.45
330.181	1.68
330.553	1.14
330.926	1.47
331.298	1.47
331.671	1.32
332.043	1.68
332.415	1.45
332.787	1.4
333.159	0.82
333.532	1.76
333.904	1.52
334.276	1.25
334.648	0.86
335.02	1.23
335.391	1.56
335.763	1.13
336.135	1.31
336.507	1.28
336.879	1.24
337.25	1.03
337.622	1.4
337.993	1.41
338.365	1.41
338.736	1.09
339.108	1.15
339.479	1.82
339.851	1.17
340.222	1.73
340.593	0.94
340.964	0.9
341.336	1.48
341.707	1.23
342.078	1.35
342.449	1.5
342.82	1.14
343.191	1.43
343.562	1.26
343.933	1.33
344.303	1.05
344.674	1.22
345.045	1.6
345.416	1.5
345.786	1.34
346.157	1.77
346.527	1.29
346.898	1.39
347.268	1.35
347.639	0.83
348.009	1.35
348.38	1.96
348.75	1.61
349.12	1.29
349.49	1.53
349.861	0.96
350.231	1.13
350.601	1.69
350.971	1.25
351.341	1.49
351.711	1.22
352.081	1.34
352.45	1.31
352.82	1.24
353.19	1.81
353.56	1.1
353.929	1.5
354.299	1.33
354.669	1.52
355.038	1.48
355.408	1.54
355.777	1.62
356.147	1.08
356.516	1.63
356.885	1.11
357.254	1.98
357.624	1.51
357.993	0.86
358.362	1.52
358.731	1.3
359.1	1.18
359.469	1.26
359.838	1.39
360.207	1.24
360.576	1.04
360.945	1.29
361.314	1.44
361.682	1.28
362.051	1.38
362.42	1.19
362.788	1.41
363.157	1.32
363.525	1.01
363.894	1.29
364.262	1.27
364.631	1.42
364.999	1.41
365.367	1.55
365.735	1.36
366.104	1.08
366.472	1.61
366.84	1.41
367.208	1.39
367.576	1.8
367.944	1.43
368.312	1.04
368.68	1.33
369.048	1.12
369.416	1.25
369.783	1.47
370.151	1.17
370.519	1.41
370.886	1.57
371.254	1.37
371.621	1.65
371.989	1.45
372.356	1.18
372.724	1.48
373.091	1.3
373.458	1.15
373.826	1.51
374.193	1.71
374.56	1.66
374.927	1.7
375.294	1.57
375.661	1.38
376.028	1.26
376.395	1.6
376.762	1.3
377.129	1.76
377.496	1.69
377.863	1.14
378.229	1.65
378.596	1.44
378.963	1.56
379.329	1.4
379.696	1.5
380.062	1.6
380.429	1.56
380.795	1.48
381.161	1.23
381.528	1.51
381.894	1.3
382.26	1.23
382.626	1.44
382.993	1.6
383.359	1.16
383.725	1.3
384.091	1.35
384.457	1.8
384.823	1.75
385.188	1.42
385.554	1.48
385.92	1.59
386.286	1.73
386.651	1.56
387.017	1.35
387.383	1.28
387.748	0.97
388.114	1.41
388.479	1.29
388.845	1.32
389.21	1.06
389.575	1.37
389.94	1.43
390.306	1.62
390.671	1.29
391.036	1.59
391.401	1.02
391.766	1.65
392.131	1.48
392.496	1.55
392.861	1.68
393.226	1.24
393.591	1.49
393.956	1.63
394.32	1.24
394.685	1.43
395.05	1.35
395.414	1.66
395.779	1.55
396.143	1.57
396.508	1.4
396.872	1.51
397.236	1.34
397.601	1.62
397.965	1.49
398.329	1.39
398.694	1.64
399.058	1.5
399.422	1.73
399.786	1.47
400.15	1.55
400.514	1.49
400.878	1.38
401.242	1.43
401.605	1.46
401.969	1.53
402.333	1.71
402.697	1.47
403.06	1.57
403.424	1.4
403.787	1.94
404.151	1.62
404.514	1.6
404.878	1.38
405.241	1.7
405.604	1.73
405.968	1.51
406.331	1.64
406.694	1.53
407.057	1.62
407.42	1.6
407.783	1.38
408.146	1.2
408.509	1.36
408.872	1.51
409.235	1.65
409.598	1.71
409.961	1.62
410.323	1.72
410.686	2.02
411.049	1.27
411.411	1.43
411.774	1.61
412.136	1.68
412.499	1.18
412.861	1.46
413.223	1.27
413.586	1.52
413.948	1.72
414.31	1.62
414.672	1.57
415.035	1.48
415.397	1.64
415.759	1.53
416.121	1.54
416.483	1.6
416.845	1.44
417.206	1.59
417.568	1.56
417.93	1.45
418.292	1.61
418.653	1.57
419.015	1.74
419.377	1.57
419.738	1.49
420.1	1.61
420.461	1.6
420.822	1.62
421.184	1.55
421.545	1.41
421.906	1.42
422.267	1.51
422.629	1.6
422.99	1.58
423.351	1.52
423.712	1.46
424.073	1.52
424.434	1.53
424.795	1.52
425.155	1.58
425.516	1.5
425.877	1.64
426.238	1.61
426.598	1.62
426.959	1.51
427.32	1.55
427.68	1.58
428.041	1.55
428.401	1.59
428.761	1.69
429.122	1.52
429.482	1.5
429.842	1.6
430.202	1.51
430.563	1.57
430.923	1.35
431.283	1.51
431.643	1.59
432.003	1.56
432.363	1.71
432.722	1.65
433.082	1.68
433.442	1.5
433.802	1.69
434.161	1.64
434.521	1.63
434.881	1.43
435.24	1.59
435.6	1.65
435.959	1.58
436.319	1.66
436.678	1.64
437.037	1.68
437.396	1.65
437.756	1.58
438.115	1.5
438.474	1.69
438.833	1.7
439.192	1.73
439.551	1.67
439.91	1.57
440.269	1.51
440.628	1.62
440.987	1.7
441.345	1.78
441.704	1.7
442.063	1.61
442.421	1.63
442.78	1.53
443.138	1.48
443.497	1.53
443.855	1.68
444.214	1.63
444.572	1.67
444.93	1.52
445.288	1.68
445.647	1.53
446.005	1.62
446.363	1.79
446.721	1.58
447.079	1.52
447.437	1.65
447.795	1.57
448.153	1.55
448.51	1.65
448.868	1.68
449.226	1.57
449.584	1.59
449.941	1.65
450.299	1.61
450.656	1.72
451.014	1.86
451.371	1.82
451.729	1.82
452.086	1.68
452.443	1.85
452.801	1.77
453.158	1.67
453.515	1.61
453.872	1.71
454.229	1.74
454.586	1.65
454.943	1.64
455.3	1.6
455.657	1.78
456.014	1.52
456.371	1.68
456.727	1.82
457.084	1.62
457.441	1.79
457.797	1.63
458.154	1.33
458.51	1.65
458.867	1.77
459.223	1.76
459.58	1.75
459.936	1.76
460.292	1.66
460.648	1.53
461.005	1.75
461.361	1.66
461.717	1.65
462.073	1.68
462.429	1.63
462.785	1.74
463.141	1.75
463.496	1.7
463.852	1.63
464.208	1.85
464.564	1.6
464.919	1.75
465.275	1.71
465.631	1.83
465.986	1.69
466.342	1.67
466.697	1.77
467.052	1.86
467.408	1.79
467.763	1.64
468.118	1.72
468.473	1.7
468.829	1.75
469.184	1.68
469.539	1.78
469.894	1.91
470.249	1.84
470.603	1.77
470.958	1.75
471.313	1.73
471.668	1.72
472.023	1.77
472.377	1.83
472.732	1.7
473.086	1.68
473.441	1.8
473.795	1.66
474.15	1.61
474.504	1.78
474.859	1.75
475.213	1.74
475.567	1.69
475.921	1.79
476.275	1.58
476.63	1.67
476.984	1.63
477.338	1.72
477.692	1.77
478.045	1.81
478.399	1.81
478.753	1.96
479.107	1.84
479.461	1.73
479.814	1.65
480.168	1.77
480.521	1.72
480.875	1.77
481.228	1.72
481.582	1.83
481.935	1.79
482.289	1.8
482.642	1.81
482.995	1.67
483.348	1.79
483.701	1.8
484.055	1.66
484.408	1.66
484.761	1.66
485.114	1.58
485.466	1.6
485.819	1.58
486.172	1.67
486.525	1.71
486.878	1.73
487.23	1.75
487.583	1.68
487.936	1.75
488.288	1.68
488.641	1.62
488.993	1.66
489.345	1.63
489.698	1.63
490.05	1.68
490.402	1.7
490.754	1.82
491.107	1.8
491.459	1.79
491.811	1.7
492.163	1.9
492.515	1.73
492.866	1.72
493.218	1.64
493.57	1.69
493.922	1.71
494.274	1.73
494.625	1.83
494.977	1.84
495.328	1.8
495.68	1.72
496.031	1.83
496.383	1.78
496.734	1.85
497.086	1.8
497.437	1.81
497.788	1.83
498.139	1.7
498.49	1.7
498.842	1.74
499.193	1.81
499.544	1.81
499.894	1.84
500.245	1.76
500.596	1.8
500.947	1.76
501.298	1.91
501.648	1.81
501.999	1.87
502.35	1.74
502.7	1.78
503.051	1.8
503.401	1.9
503.752	1.73
504.102	1.93
504.452	1.82
504.803	1.92
505.153	2.08
505.503	1.68
505.853	1.74
506.203	1.58
506.553	1.74
506.903	1.87
507.253	1.88
507.603	1.98
507.953	1.88
508.303	1.97
508.652	1.85
509.002	1.96
509.352	1.92
509.701	1.8
510.051	1.9
510.4	1.81
510.75	1.93
511.099	1.83
511.449	1.84
511.798	1.81
512.147	1.85
512.496	1.85
512.846	1.82
513.195	1.9
513.544	1.94
513.893	1.87
514.242	1.78
514.591	1.87
514.939	1.88
515.288	1.99
515.637	1.85
515.986	1.97
516.334	1.83
516.683	1.79
517.032	1.91
517.38	1.88
517.729	2.02
518.077	1.89
518.426	1.81
518.774	1.98
519.122	1.74
519.47	1.81
519.819	1.87
520.167	1.9
520.515	1.92
520.863	1.87
521.211	1.92
521.559	1.94
521.907	1.98
522.255	1.74
522.602	1.9
522.95	1.94
523.298	1.98
523.645	1.9
523.993	1.82
524.341	1.96
524.688	1.98
525.036	1.79
525.383	1.7
525.73	1.98
526.078	1.95
526.425	1.88
526.772	1.95
527.119	1.75
527.466	1.79
527.814	1.79
528.161	1.82
528.508	1.87
528.854	1.84
529.201	1.83
529.548	1.81
529.895	1.82
530.242	1.78
530.588	1.81
530.935	1.83
531.282	1.89
531.628	1.86
531.975	1.92
532.321	1.84
532.667	1.87
533.014	1.97
533.36	1.92
533.706	1.94
534.052	1.87
534.399	1.84
534.745	1.83
535.091	1.79
535.437	1.93
535.783	1.9
536.129	1.9
536.474	1.94
536.82	1.84
537.166	1.99
537.512	1.94
537.857	1.94
538.203	1.95
538.549	1.84
538.894	1.91
539.239	1.98
539.585	1.94
539.93	1.93
540.276	1.88
540.621	1.99
540.966	1.91
541.311	1.92
541.656	2.01
542.001	1.88
542.346	1.97
542.691	1.82
543.036	1.85
543.381	1.84
543.726	1.91
544.071	1.97
544.415	1.93
544.76	1.94
545.105	1.91
545.449	1.95
545.794	1.92
546.138	1.94
546.483	2.03
546.827	1.94
547.171	1.97
547.516	1.89
547.86	1.89
548.204	1.91
548.548	1.93
548.892	1.98
549.236	1.94
549.58	2.06
549.924	1.98
550.268	2.09
550.612	2.09
550.956	2.17
551.3	2.02
551.643	2.05
551.987	2.01
552.33	2.11
552.674	1.97
553.017	1.94
553.361	2.01
553.704	2.22
554.048	1.98
554.391	2.03
554.734	1.94
555.077	2.1
555.42	2.05
555.764	2.01
556.107	2.16
556.45	2.12
556.793	1.96
557.135	2.1
557.478	2.04
557.821	2.02
558.164	2.25
558.507	2.08
558.849	1.94
559.192	1.94
559.534	2.04
559.877	2.17
560.219	2.08
560.562	2.05
560.904	2
561.246	2.17
561.589	1.93
561.931	2.1
562.273	2.18
562.615	2.1
562.957	2.03
563.299	2.01
563.641	1.92
563.983	2.02
564.325	2.06
564.667	2.35
565.008	2.12
565.35	2.07
565.692	2.04
566.033	1.92
566.375	1.94
566.716	2.1
567.058	2.08
567.399	2.05
567.741	2.09
568.082	2.18
568.423	2.2
568.764	2.13
569.105	2
569.447	2.05
569.788	2.2
570.129	2.13
570.47	2.26
570.811	2.02
571.151	2.16
571.492	2.19
571.833	2.16
572.174	1.86
572.514	2.11
572.855	2.05
573.195	2.06
573.536	2.04
573.876	2.14
574.217	2.06
574.557	2.07
574.898	2.06
575.238	2.19
575.578	2.16
575.918	2.02
576.258	2.3
576.598	2.14
576.938	2
577.278	2.26
577.618	2.21
577.958	2.2
578.298	2.32
578.638	2.41
578.977	2.34
579.317	2.03
579.657	2.1
579.996	2.09
580.336	2.21
580.675	2.24
581.014	2.11
581.354	1.95
581.693	2.19
582.032	2.21
582.372	2.08
582.711	1.98
583.05	2.09
583.389	2.14
583.728	2.22
584.067	2.11
584.406	2.04
584.745	2.04
585.083	1.96
585.422	2.05
585.761	2.09
586.1	2.21
586.438	2.35
586.777	2.41
587.115	2.25
587.454	2.11
587.792	1.99
588.13	2.41
588.469	2.19
588.807	2.32
589.145	1.82
589.483	2.61
589.821	2.21
590.159	2.45
590.497	2.18
590.835	2.41
591.173	1.99
591.511	2.26
591.849	2.25
592.187	2.22
592.524	2.2
592.862	2.45
593.2	2.35
593.537	2.08
593.875	2.36
594.212	2.09
594.55	2.08
594.887	2.38
595.224	2.28
595.561	2.34
595.899	2.19
596.236	2.14
596.573	2.32
596.91	2.25
597.247	2.15
597.584	2.3
597.921	2.24
598.258	2.04
598.594	2.04
598.931	2.16
599.268	2.01
599.604	2.2
599.941	2.08
600.277	2.23
600.614	2.22
600.95	2.4
601.287	2.24
601.623	2.24
601.959	2.11
602.296	2.22
602.632	2.31
602.968	2.37
603.304	2.26
603.64	2.15
603.976	2.09
604.312	2.04
604.648	2.32
604.984	2.46
605.319	2.39
605.655	2.37
605.991	2.09
606.326	2.22
606.662	2.3
606.998	2.18
607.333	2.09
607.668	2.17
608.004	2.37
608.339	2.21
608.674	2.4
609.01	2.38
609.345	2.09
609.68	2.43
610.015	2.45
610.35	2.33
610.685	2.27
611.02	2.05
611.355	2.21
611.689	1.96
612.024	2.46
612.359	2.45
612.694	2.48
613.028	2.44
613.363	2.36
613.697	2.12
614.032	2.55
614.366	2.14
614.7	2.26
615.035	2.6
615.369	2.6
615.703	2.44
616.037	2.44
616.371	2.11
616.705	2.23
617.039	2.45
617.373	2.38
617.707	2.01
618.041	2.29
618.375	2.43
618.709	2.76
619.042	2.21
619.376	2.36
619.71	2.42
620.043	2.74
620.377	2.76
620.71	2.43
621.043	2.46
621.377	2.36
621.71	1.93
622.043	2.05
622.376	2.16
622.709	2.27
623.043	2.6
623.376	2.16
623.709	2.31
624.041	2.19
624.374	2.59
624.707	2
625.04	2.62
625.373	2.43
625.705	2.17
626.038	2.36
626.37	2.46
626.703	2.65
627.035	2.48
627.368	2.66
627.7	2.47
628.032	2.28
628.365	2.3
628.697	2.41
629.029	1.98
629.361	2.18
629.693	2.58
630.025	2.7
630.357	2.54
630.689	2.32
631.021	2.31
631.353	2.13
631.684	2.5
632.016	2.43
632.348	2.37
632.679	2.38
633.011	2.47
633.342	2.52
633.674	2.6
634.005	2.75
634.336	2.48
634.668	2.51
634.999	2.55
635.33	2.88
635.661	2.52
635.992	2.31
636.323	2.54
636.654	2.13
636.985	2.24
637.316	3.06
637.647	2.15
637.977	2.59
638.308	2.36
638.639	2.16
638.969	2.43
639.3	2.31
639.63	2.1
639.961	2.78
640.291	2.3
640.622	2.7
640.952	2.58
641.282	2.12
641.612	2.52
641.943	2.27
642.273	2.45
642.603	2.16
642.933	2.35
643.263	2.79
643.592	2.4
643.922	1.87
644.252	2.66
644.582	2.63
644.911	2.63
645.241	2.77
645.571	2.19
645.9	2.67
646.23	2.45
646.559	1.99
646.888	2.57
647.218	2.48
647.547	2.67
647.876	2.15
648.205	2.82
648.534	2.29
648.863	2.7
649.192	2.26
649.521	2.53
649.85	2.65
650.179	2.25
650.508	2.3
650.837	2.63
651.165	1.99
651.494	2.69
651.822	2.66
652.151	2.78
652.479	2.62
652.808	2.9
653.136	2.75
653.465	2.64
653.793	2.34
654.121	2.47
654.449	2.57
654.777	2.67
655.105	2.7
655.433	2.5
655.761	2.83
656.089	2.93
656.417	2.15
656.745	1.86
657.073	2.45
657.4	3.09
657.728	2.98
658.056	2.36
658.383	2.57
658.711	3
659.038	2.51
659.365	2.39
659.693	2.52
660.02	2.35
660.347	2.69
660.674	2.57
661.001	2.52
661.329	2.73
661.656	2.45
661.982	2.99
662.309	2.89
662.636	2.86
662.963	2.25
663.29	2.29
663.616	2.55
663.943	2.82
664.27	2.46
664.596	1.93
664.923	2.86
665.249	3.02
665.576	2.75
665.902	2.45
666.228	2.5
666.554	2.59
666.881	2.64
667.207	2.52
667.533	2.39
667.859	2.49
668.185	2.89
668.511	2.84
668.837	2.47
669.162	2.82
669.488	2.99
669.814	2.51
670.139	2.57
670.465	3.3
670.791	2.63
671.116	2.64
671.442	2.8
671.767	2.3
672.092	2.09
672.418	2.13
672.743	2.95
673.068	2.79
673.393	2.95
673.718	2.54
674.043	2.95
674.368	3.6
674.693	2.8
675.018	3.07
675.343	2.87
675.667	3.13
675.992	3.22
676.317	2.81
676.641	2.62
676.966	2.73
677.29	2.35
677.615	1.83
677.939	2.8
678.264	2.73
678.588	2.75
678.912	2.64
679.236	2.94
679.56	2.41
679.885	2.9
680.209	2.54
680.532	2.47
680.856	2.88
681.18	3.11
681.504	2.71
681.828	2.82
682.152	2.67
682.475	2.75
682.799	2.42
683.122	2.99
683.446	2.76
683.769	2.92
684.093	3.37
684.416	3.06
684.739	2.82
685.062	2.77
685.386	2.83
685.709	2.88
686.032	2.63
686.355	2.61
686.678	3.23
687.001	3.19
687.324	3.67
687.646	2.82
687.969	2.64
688.292	3.28
688.614	2.13
688.937	2.98
689.26	2.67
689.582	3
689.904	3.18
690.227	3.01
690.549	2.02
690.871	2.82
691.194	2.84
691.516	2.35
691.838	2.6
692.16	2.85
692.482	3.52
692.804	3.78
693.126	2.57
693.448	2.51
693.769	2.97
694.091	2.63
694.413	3.01
694.735	3.17
695.056	3.24
695.378	2.48
695.699	2.9
696.021	2.21
696.342	2.84
696.663	2.72
696.984	2.62
697.306	2.96
697.627	2.31
697.948	3.65
698.269	2.53
698.59	3.04
698.911	2.69
699.232	3.18
699.553	3.31
699.873	2.53
700.194	2.67
700.515	2.91
700.835	2.44
701.156	2.66
701.477	2.76
701.797	2.79
702.117	2.58
702.438	2.42
702.758	3.1
703.078	3.35
703.398	3.36
703.719	3.91
704.039	3.13
704.359	2.66
704.679	2.59
704.999	3
705.319	2.66
705.638	3.12
705.958	3.69
706.278	2.86
706.597	2.44
706.917	3.07
707.237	3.13
707.556	2.9
707.876	2.35
708.195	3.54
708.514	3.03
708.834	3.09
709.153	2.93
709.472	3.03
709.791	2.58
710.11	3.56
710.429	2.05
710.748	3.16
711.067	3.14
711.386	3.31
711.705	3.72
712.023	2.64
712.342	3.29
712.661	2.72
712.979	2.97
713.298	2.82
713.616	2.35
713.935	2.87
714.253	3.83
714.572	2.68
714.89	2.12
715.208	1.58
715.526	3.1
715.844	4.18
716.162	3.32
716.48	2.57
716.798	2.85
717.116	3.69
717.434	2.5
717.752	2.35
718.069	2.97
718.387	2.99
718.705	3.87
719.022	3.07
719.34	2.8
719.657	3.77
719.975	2.92
720.292	3.75
720.609	2.67
720.927	2.14
721.244	4.61
721.561	1.67
721.878	3.81
722.195	3.53
722.512	2.49
722.829	2.75
723.146	3.04
723.463	4.13
723.779	4.05
724.096	2.31
724.413	2.68
724.729	3.6
725.046	3.32
725.362	3.93
725.679	2.98
725.995	3.94
726.311	3.3
726.628	2.18
726.944	3.63
727.26	2.77
727.576	2.77
727.892	4.49
728.208	3.03
728.524	3.08
728.84	2.38
729.156	2.99
729.472	3.47
729.787	3.51
730.103	4.18
730.419	1.53
730.734	3.38
731.05	4.35
731.365	3.6
731.681	3.63
731.996	4.2
732.311	2.49
732.626	3.42
732.942	3.66
733.257	3.94
733.572	4.17
733.887	2.36
734.202	4.5
734.517	2.22
734.832	3.34
735.146	3.85
735.461	1.94
735.776	3.98
736.091	3.4
736.405	3.71
736.72	3.61
737.034	3.77
737.349	2.68
737.663	1.89
737.977	3.38
738.292	3.83
738.606	2.48
738.92	2.76
739.234	2.01
739.548	1.49
739.862	3.64
740.176	2.87
740.49	4.48
740.804	3.31
741.117	3.61
741.431	4.51
741.745	2.49
742.058	3.74
742.372	3.51
742.685	2.15
742.999	4.58
743.312	3.18
743.626	2.36
743.939	3.47
744.252	3.87
744.565	4.48
744.878	4.52
745.191	1.84
745.505	2.85
745.817	2.94
746.13	5.08
746.443	1.26
746.756	4.58
747.069	3.05
747.381	2.4
747.694	2.26
748.007	3.95
748.319	4.29
748.632	3.81
748.944	3.24
749.256	5.57
749.569	0.12
749.881	3.07
750.193	3.79
750.505	3.82
750.817	2.17
751.129	2.03
751.441	4.73
751.753	4.28
752.065	2.95
752.377	3.33
752.689	2.69
753	3.64
753.312	3.9
753.624	2.65
753.935	3.7
754.247	3.7
754.558	5.07
754.869	4.32
755.181	3.97
755.492	2.28
755.803	3.71
756.114	2.09
756.425	3.17
756.736	3.05
757.047	3.45
757.358	3.78
757.669	4.63
757.98	4.41
758.291	3.48
758.601	3.24
758.912	2.58
759.223	4.4
759.533	2.71
759.844	3.67
760.154	1.71
760.464	4
760.775	3.15
761.085	3.11
761.395	4.42
761.705	6.02
762.016	4.39
762.326	2.7
762.636	3.35
762.945	2.93
763.255	2.41
763.565	4.79
763.875	3.33
764.185	3.63
764.494	3.69
764.804	2.94
765.113	3.48
765.423	4.05
765.732	3.78
766.042	3.65
766.351	3.39
766.66	4.19
766.97	4.03
767.279	4.46
767.588	4.66
767.897	2.15
768.206	2.7
768.515	2.81
768.824	5.42
769.133	3.37
769.441	3.32
769.75	1.66
770.059	2.31
770.367	1.81
770.676	4.23
770.984	3.65
771.293	2.06
771.601	4.2
771.91	4.47
772.218	4.9
772.526	2.89
772.834	2.3
773.142	4.89
773.45	4.84
773.758	0.58
774.066	2.63
774.374	5.9
774.682	0.69
774.99	2.4
775.298	6.2
775.605	4.93
775.913	5.72
776.22	3.28
776.528	3.74
776.835	4.15
777.143	5.07
777.45	6.19
777.757	3.26
778.065	4.2
778.372	1.99
778.679	5.03
778.986	3.89
779.293	4.83
779.6	3.4
779.907	4.54
780.214	3.73
780.52	4.27
780.827	4.39
781.134	2.77
781.44	7.5
781.747	3.88
782.053	1.83
782.36	3.82
782.666	4.41
782.973	4.88
783.279	2.94
783.585	5.42
783.891	4.53
784.197	5.29
784.503	2.5
784.809	3.24
785.115	3.55
785.421	2.89
785.727	7.65
786.033	4.36
786.339	5.22
786.644	1.17
786.95	11.66
787.255	5.34
787.561	1.87
787.866	3.64
788.172	4.03
788.477	2.72
788.782	7.3
789.088	2.45
789.393	3.16
789.698	3.97
790.003	2.43
790.308	2.62
790.613	5.81
790.918	0.95
791.223	5.39
791.527	4.42
791.832	8.73
792.137	4.45
792.441	4.33
792.746	3.61
793.05	6.75
793.355	4.64
793.659	4.86
793.963	4.26
794.268	1.86
794.572	6.57
794.876	4.87
795.18	5.21
795.484	5.63
795.788	4.57
796.092	6.34
796.396	5.58
796.7	4.9
797.004	8.06
797.307	1.2
797.611	3.64
797.915	3.87
798.218	6.53
798.522	-1.09
798.825	3.86
799.128	3.15
799.432	7.21
799.735	4.09
800.038	4.49
800.341	2.1
800.644	4.69
800.947	0.41
801.25	3.53
801.553	4.87
801.856	5.77
802.159	0.66
802.462	3.7
802.764	8.47
803.067	4.47
803.37	1.16
803.672	2.61
803.975	7.13
804.277	-4.01
804.579	0.16
804.882	6.93
805.184	2.49
805.486	8.39
805.788	2.05
806.09	-0.46
806.392	6.14
806.694	1.05
806.996	9.48
807.298	4.34
807.6	4.78
807.902	3.01
808.203	2.31
808.505	-1.37
808.807	9.83
809.108	5.3
809.409	3.45
809.711	-1.09
810.012	4.67
810.313	7.94
810.615	6.59
810.916	8.29
811.217	3.9
811.518	3.92
811.819	3.21
812.12	-0.46
812.421	8.3
812.722	9.14
813.023	5.35
813.323	11.88
813.624	3.92
813.925	4.5
814.225	11.25
814.526	1.5
814.826	3.59
815.126	4.43
815.427	3.14
815.727	7.94
816.027	3.4
816.327	5.09
816.627	6.34
816.927	2.58
817.227	9.67
817.527	-1.09
817.827	10.62
818.127	-1.83
818.427	3.45
818.727	1.03
819.026	7.08
819.326	2.85
819.625	3.27
819.925	5.28
820.224	5.83
820.524	8.99
820.823	9.06
821.122	6.91
821.421	6.5
821.72	9.36
822.019	3.18
822.318	4.77
822.617	6.42
822.916	5.76
823.215	5.04
823.514	4.55
823.813	4.22
824.111	5.96
824.41	3.54
824.709	5.08
825.007	4.97
825.306	5.08
825.604	3.78
825.902	5.05
826.201	3.78
826.499	5.32
826.797	2.99
827.095	4.51
827.393	4.1
827.691	6.12
827.989	3.84
828.287	4.52
828.585	5.51
828.882	4.8
829.18	3.14
829.478	5.09
829.775	5.79
830.073	4.43
830.37	4.82
830.668	5.01
830.965	2.65
831.263	3.35
831.56	0.76
831.857	7.13
832.154	4.81
832.451	3.66
832.748	5.47
833.045	7.29
833.342	2.77
833.639	0.13
833.936	3.13
834.232	4.29
834.529	5.72
834.826	7.35
835.122	7.76
835.419	4.74
835.715	4.2
836.012	7.26
836.308	4.76
836.604	5.59
836.901	6.13
837.197	6.33
837.493	2.68
837.789	1.58
838.085	3.56
838.381	5.47
838.677	3.71
838.972	6.91
839.268	6.71
839.564	5.06
839.86	1.99
840.155	5.86
840.451	7.66
840.746	7.62
841.042	11
841.337	9.46
841.632	5.46
841.928	13.33
842.223	5.44
842.518	7.05
842.813	6.52
843.108	12.67
843.403	3.06
843.698	7.27
843.993	-1.53
844.287	0.2
844.582	10.03
844.877	5.4
845.171	-9.35
845.466	10.7
845.761	14.32
846.055	1.88
846.349	11.05
846.644	-6.42
846.938	2.93
847.232	-7.78
847.526	-2.29
847.82	1.87
848.114	8.05
848.408	15.52
848.702	-5.04
848.996	-3.24
849.29	-4.29
849.584	-3.29
849.877	-4.39
850.171	6.7
850.465	15.35
850.758	13.88
851.052	-1.73
851.345	11.67
851.638	1.8
851.932	20.39
852.225	3.1
852.518	-0.8
852.811	-9.13
853.104	3.46
853.397	19.67
853.69	7.46
853.983	3.9
854.276	4.03
854.569	-9.72
854.861	25.74
855.154	20.49
855.447	14.14
855.739	4.82
856.032	-6.31
856.324	20.75
856.616	4.49
856.909	18.66
857.201	14.81
857.493	-23.43
857.785	17.35
858.077	23.65
858.369	-20.06
858.661	9.75
858.953	15.82
859.245	8.83
859.537	-12.32
859.829	-3.7
860.12	4.89
860.412	-0.02
860.703	-9.8
860.995	13.69
861.286	10
861.578	-15.25
861.869	5.65
862.16	1.64
862.452	-4.62
862.743	-2.58
863.034	-10.91
863.325	-0.38
863.616	21.84
863.907	-13.39
864.198	-10.94
864.488	17.01
864.779	2.44
865.07	23.46
865.36	-1.59
865.651	29.66
865.941	31.7
866.232	20.8
866.522	27.51
866.813	20.49
867.103	19.14
867.393	2.03
867.683	10.06
867.973	14.64
868.263	-37.46
868.553	-10.47
868.843	3.58
869.133	8.03
869.423	4.05
869.713	-12.42
870.002	1.44
870.292	34.76
870.582	1.11
870.871	-9.06
871.161	7.52
871.45	27.87
871.739	9.58
872.029	15.65
872.318	35.34
872.607	3.57
872.896	26.1
873.185	3.83
873.474	32.1
873.763	-13.95
874.052	4.41
874.341	11.44
874.63	-4.37
874.918	7.97
875.207	2.56
875.496	13.75
875.784	-5.68
876.073	-21.72
876.361	17.56
876.649	8.99
876.938	-1.4
877.226	5.32
877.514	-23.49
877.802	-2.68
878.09	33
878.378	18.64
878.666	13.65
878.954	5.71
879.242	25.49
879.53	-6.87
879.817	3.46
880.105	3.16
880.392	-10.83
880.68	-6.7
880.967	13.44
881.255	-24.93
881.542	-30.93
881.83	-10.03
882.117	4.07
882.404	24.01
882.691	0.16
882.978	12.74
883.265	5.49
883.552	-2.65
883.839	11.9
884.126	9.41
884.413	13.1
884.699	7.75
884.986	11.22
885.273	6.34
885.559	6.34
885.846	6.34
