Data from 815644_forehead_Reflection__1__30.txt Node

Date: Fri Sep 16 14:32:02 CDT 2022
User: ToomeyLab
Spectrometer: FLMS14357
Trigger mode: 0
Integration Time (sec): 1.000000E-2
Scans to average: 100
Electric dark correction enabled: true
Nonlinearity correction enabled: false
Boxcar width: 0
XAxis mode: Wavelengths
Number of Pixels in Spectrum: 2048
>>>>>Begin Spectral Data<<<<<
189.047	184.3
189.435	184.3
189.823	184.3
190.211	969.86
190.599	-75.28
190.987	54.35
191.375	236.22
191.763	20.56
192.151	-36.2
192.538	9435.29
192.926	-54.94
193.314	-206.71
193.702	122.86
194.089	27.11
194.477	188.07
194.864	291.78
195.252	-39.53
195.639	601.05
196.027	-15.36
196.414	-18.77
196.801	-11.71
197.189	223.26
197.576	159.7
197.963	-52.08
198.351	-49.48
198.738	15.07
199.125	9.32
199.512	-7.26
199.899	46.93
200.286	3.53
200.673	45.05
201.06	0.94
201.447	18.53
201.833	30.8
202.22	15.87
202.607	11.26
202.994	49.06
203.38	26.11
203.767	25.75
204.154	31.83
204.54	-8.43
204.927	14.48
205.313	51.06
205.699	61.23
206.086	44.07
206.472	16.73
206.858	5.76
207.245	25.98
207.631	46.82
208.017	23.02
208.403	24.69
208.789	23.38
209.175	23
209.561	11.89
209.947	-1.91
210.333	8.47
210.719	12.37
211.105	-3.01
211.491	25.99
211.876	8.58
212.262	36.11
212.648	-0.59
213.034	29.34
213.419	-15.64
213.805	0.46
214.19	45.15
214.576	2.93
214.961	15.32
215.346	7.46
215.732	-12.92
216.117	21.13
216.502	39.99
216.888	-6.99
217.273	24.91
217.658	31.32
218.043	-56.31
218.428	9.85
218.813	20.47
219.198	10.86
219.583	21.35
219.968	6.02
220.353	15.24
220.738	-0.45
221.122	0.03
221.507	25.7
221.892	10.84
222.276	19.34
222.661	4.62
223.046	5.45
223.43	5.66
223.815	-3.64
224.199	8.75
224.583	10.09
224.968	6.95
225.352	12.61
225.736	15.45
226.121	15.53
226.505	14.31
226.889	9.85
227.273	9.49
227.657	10.89
228.041	9.15
228.425	0.02
228.809	11.04
229.193	3.86
229.577	7.1
229.961	4.7
230.344	6.08
230.728	5.27
231.112	5.8
231.495	4.38
231.879	5.11
232.263	3.65
232.646	5.14
233.03	5.32
233.413	6.83
233.797	5.63
234.18	6.38
234.563	4.1
234.946	6.8
235.33	5.31
235.713	4.88
236.096	4.56
236.479	4.66
236.862	5.39
237.245	4.37
237.628	6.33
238.011	7.12
238.394	4.3
238.777	7.1
239.16	6.15
239.543	8.5
239.925	6.64
240.308	4.85
240.691	5.84
241.073	6.27
241.456	4.68
241.838	4.92
242.221	5.51
242.603	5.09
242.986	3.88
243.368	4.49
243.75	4.45
244.133	5.4
244.515	4.74
244.897	5.31
245.279	4.64
245.661	5.77
246.043	4.88
246.425	5.2
246.807	5.43
247.189	5.12
247.571	4.51
247.953	4.66
248.335	4.57
248.717	4.72
249.098	4.46
249.48	4.57
249.862	4.73
250.243	4.9
250.625	4.68
251.006	5.24
251.388	5.23
251.769	3.98
252.151	4.33
252.532	5.29
252.913	5.22
253.295	4.71
253.676	5.35
254.057	4.56
254.438	3.9
254.819	3.82
255.2	4.36
255.581	5.33
255.962	3.82
256.343	4.91
256.724	5
257.105	3.74
257.486	4.15
257.867	4.01
258.247	4.21
258.628	4.72
259.009	5.19
259.389	4.76
259.77	3.91
260.15	4.84
260.531	4.51
260.911	3.93
261.292	4.32
261.672	4.35
262.052	4.22
262.432	4.42
262.813	4.62
263.193	4.37
263.573	4.79
263.953	4.37
264.333	4.18
264.713	3.66
265.093	4.08
265.473	4.73
265.853	5.18
266.233	4.53
266.612	6.14
266.992	3.33
267.372	4.36
267.752	4.19
268.131	4.6
268.511	4.31
268.89	5.33
269.27	3.95
269.649	4.08
270.029	4.88
270.408	5.11
270.787	4.02
271.167	4.09
271.546	5.42
271.925	4.69
272.304	4.64
272.683	4.25
273.062	4.3
273.441	4.61
273.82	4.38
274.199	4.6
274.578	4.52
274.957	4.38
275.336	4.61
275.715	4.77
276.093	4.35
276.472	4.26
276.851	4.33
277.229	5.14
277.608	4.87
277.986	4.67
278.365	4.31
278.743	4.83
279.122	4.44
279.5	4.64
279.878	4.33
280.257	5.13
280.635	4.79
281.013	3.96
281.391	4.53
281.769	4.88
282.147	4.74
282.525	3.77
282.903	4.46
283.281	4.35
283.659	4.64
284.037	4.23
284.415	4.81
284.792	5
285.17	4.72
285.548	4.21
285.925	4.37
286.303	4.83
286.68	4.26
287.058	4.24
287.435	4.15
287.813	4.55
288.19	4.1
288.567	4.13
288.945	4.74
289.322	4.7
289.699	4.29
290.076	4.25
290.453	4.42
290.83	4.41
291.207	4.12
291.584	4.12
291.961	4.69
292.338	4.52
292.715	4.53
293.092	4.38
293.469	4.08
293.845	4.51
294.222	4.36
294.599	4.31
294.975	4.02
295.352	4.64
295.728	4.37
296.105	4.99
296.481	4.25
296.858	4.77
297.234	4.57
297.61	4.81
297.986	4.89
298.363	4.42
298.739	4.16
299.115	4.64
299.491	4.84
299.867	4.28
300.243	4.19
300.619	5.12
300.995	4.29
301.371	4.6
301.746	4.61
302.122	5.08
302.498	4.5
302.874	4.69
303.249	4.71
303.625	4.91
304	4.62
304.376	5.04
304.751	4.81
305.127	4.75
305.502	4.91
305.878	4.47
306.253	5.31
306.628	4.45
307.003	5.49
307.378	5.02
307.754	4.77
308.129	5.76
308.504	4.82
308.879	4.72
309.254	5.24
309.629	4.61
310.003	4.55
310.378	4.53
310.753	4.6
311.128	4.63
311.502	4.82
311.877	5.11
312.252	4.93
312.626	4.88
313.001	5.31
313.375	5.21
313.75	5.36
314.124	5.05
314.498	5.04
314.873	5.53
315.247	4.82
315.621	4.96
315.995	4.61
316.369	5.42
316.743	5.44
317.117	5.18
317.491	5.32
317.865	5.73
318.239	5.02
318.613	4.93
318.987	4.8
319.361	4.69
319.734	5.05
320.108	5.17
320.482	5.73
320.855	4.95
321.229	5.02
321.602	5.97
321.976	5.29
322.349	5.52
322.723	5.16
323.096	5.9
323.469	5.34
323.843	5.79
324.216	5.77
324.589	5.99
324.962	5.3
325.335	6.21
325.708	5.48
326.081	5.66
326.454	5.97
326.827	5.74
327.2	5.7
327.573	5.61
327.945	5.86
328.318	5.91
328.691	5.59
329.063	5.64
329.436	5.12
329.809	5.55
330.181	6.21
330.553	6.1
330.926	5.69
331.298	5.87
331.671	5.94
332.043	5.89
332.415	5.67
332.787	5.79
333.159	6.01
333.532	6.02
333.904	5.85
334.276	5.81
334.648	5.54
335.02	6.37
335.391	6.55
335.763	5.63
336.135	5.55
336.507	6.01
336.879	6.31
337.25	5.58
337.622	6.33
337.993	6.47
338.365	6.05
338.736	6.95
339.108	6.43
339.479	6.69
339.851	6
340.222	6.37
340.593	6.22
340.964	6.51
341.336	6.4
341.707	6.38
342.078	6.64
342.449	6.41
342.82	6.28
343.191	6.3
343.562	6.55
343.933	6.57
344.303	6.63
344.674	6.29
345.045	6.95
345.416	6.23
345.786	6.39
346.157	6.91
346.527	6.71
346.898	6.56
347.268	6.92
347.639	6.32
348.009	6.79
348.38	7.04
348.75	6.21
349.12	7.13
349.49	7.14
349.861	7.09
350.231	6.72
350.601	6.68
350.971	6.94
351.341	7.12
351.711	6.67
352.081	6.7
352.45	7.28
352.82	7.48
353.19	7.04
353.56	7.22
353.929	7.15
354.299	7.33
354.669	6.99
355.038	7.32
355.408	7.4
355.777	7.23
356.147	7.41
356.516	7.4
356.885	7.05
357.254	7.7
357.624	7.41
357.993	7.29
358.362	7.05
358.731	7.62
359.1	7.43
359.469	7.18
359.838	7.38
360.207	7.61
360.576	7.94
360.945	7.39
361.314	7.31
361.682	7.06
362.051	7.62
362.42	7.97
362.788	7.85
363.157	7.53
363.525	7.51
363.894	7.77
364.262	7.54
364.631	7.95
364.999	7.84
365.367	7.8
365.735	8.02
366.104	8
366.472	8.01
366.84	8.21
367.208	8.12
367.576	7.86
367.944	7.83
368.312	7.76
368.68	8.65
369.048	8.51
369.416	8.53
369.783	8.24
370.151	8.41
370.519	7.99
370.886	8.36
371.254	8.22
371.621	8.68
371.989	8.4
372.356	8.81
372.724	8.59
373.091	8.37
373.458	8.35
373.826	8.45
374.193	8.83
374.56	8.35
374.927	8.82
375.294	8.61
375.661	8.53
376.028	8.59
376.395	8.47
376.762	9.07
377.129	8.65
377.496	8.83
377.863	8.69
378.229	9
378.596	8.57
378.963	9.07
379.329	8.93
379.696	9.18
380.062	8.79
380.429	9.14
380.795	9.35
381.161	9.13
381.528	9.56
381.894	9.1
382.26	9.16
382.626	9.22
382.993	9.21
383.359	9.34
383.725	9.32
384.091	9.59
384.457	9.33
384.823	9.23
385.188	9.28
385.554	9.29
385.92	9.72
386.286	9.62
386.651	9.53
387.017	9.61
387.383	9.44
387.748	9.47
388.114	9.29
388.479	9.66
388.845	9.72
389.21	9.8
389.575	9.72
389.94	10.18
390.306	9.7
390.671	10.11
391.036	10.02
391.401	9.97
391.766	10.13
392.131	10.14
392.496	9.8
392.861	9.91
393.226	10.04
393.591	9.98
393.956	10.18
394.32	10.2
394.685	10
395.05	10.21
395.414	10.07
395.779	10.22
396.143	10.52
396.508	10.14
396.872	10.48
397.236	10.41
397.601	10.35
397.965	10.33
398.329	10.29
398.694	10.45
399.058	10.83
399.422	10.56
399.786	10.69
400.15	10.75
400.514	10.72
400.878	10.82
401.242	10.68
401.605	10.86
401.969	10.56
402.333	10.87
402.697	10.92
403.06	11.13
403.424	10.89
403.787	10.72
404.151	11.05
404.514	10.83
404.878	11.05
405.241	10.98
405.604	11.25
405.968	11.33
406.331	10.99
406.694	11.24
407.057	11.19
407.42	11.04
407.783	11.43
408.146	11.44
408.509	11.21
408.872	11.34
409.235	11.41
409.598	11.15
409.961	11.62
410.323	11.51
410.686	11.67
411.049	11.38
411.411	11.43
411.774	11.55
412.136	11.35
412.499	11.39
412.861	11.68
413.223	11.5
413.586	11.71
413.948	11.91
414.31	11.86
414.672	11.74
415.035	12.16
415.397	11.85
415.759	12.09
416.121	12.09
416.483	12.05
416.845	12.08
417.206	11.99
417.568	12.14
417.93	12.17
418.292	12.02
418.653	11.96
419.015	12.13
419.377	12.14
419.738	12.19
420.1	12.15
420.461	12.19
420.822	12.16
421.184	12.14
421.545	12.28
421.906	12.18
422.267	12.39
422.629	12.24
422.99	12.18
423.351	12.25
423.712	12.31
424.073	12.44
424.434	12.53
424.795	12.48
425.155	12.6
425.516	12.58
425.877	12.49
426.238	12.57
426.598	12.53
426.959	12.64
427.32	12.85
427.68	12.86
428.041	13.01
428.401	12.99
428.761	13.24
429.122	13.37
429.482	13.15
429.842	13.36
430.202	13.45
430.563	13.49
430.923	13.69
431.283	13.8
431.643	13.59
432.003	13.54
432.363	13.43
432.722	13.83
433.082	13.74
433.442	13.96
433.802	13.78
434.161	13.74
434.521	13.81
434.881	13.75
435.24	13.66
435.6	13.85
435.959	13.98
436.319	14.01
436.678	14.05
437.037	14.04
437.396	14.2
437.756	14.23
438.115	14.29
438.474	14.25
438.833	14.25
439.192	14.42
439.551	14.59
439.91	14.5
440.269	14.47
440.628	14.37
440.987	14.34
441.345	14.48
441.704	14.68
442.063	14.57
442.421	14.5
442.78	14.54
443.138	14.62
443.497	14.7
443.855	14.92
444.214	14.86
444.572	15.18
444.93	15.06
445.288	14.87
445.647	15
446.005	15.11
446.363	15.13
446.721	15.13
447.079	15.04
447.437	15.13
447.795	15.02
448.153	15
448.51	14.96
448.868	15.06
449.226	15.3
449.584	15.44
449.941	15.33
450.299	15.42
450.656	15.55
451.014	15.56
451.371	15.79
451.729	15.68
452.086	15.79
452.443	15.83
452.801	16.12
453.158	16.03
453.515	15.96
453.872	15.86
454.229	16.02
454.586	15.97
454.943	15.94
455.3	16.24
455.657	16.13
456.014	16.42
456.371	16.13
456.727	16.48
457.084	16.58
457.441	16.41
457.797	16.48
458.154	16.6
458.51	16.68
458.867	16.72
459.223	16.66
459.58	16.78
459.936	16.75
460.292	16.74
460.648	16.69
461.005	16.78
461.361	16.52
461.717	16.43
462.073	16.56
462.429	16.62
462.785	16.73
463.141	16.8
463.496	17.15
463.852	17.32
464.208	17.3
464.564	17.29
464.919	17.26
465.275	17.45
465.631	17.58
465.986	17.62
466.342	17.53
466.697	17.62
467.052	17.55
467.408	17.67
467.763	17.81
468.118	17.72
468.473	17.73
468.829	17.7
469.184	17.65
469.539	18.01
469.894	18.01
470.249	17.99
470.603	18.18
470.958	18.06
471.313	18.33
471.668	18.03
472.023	18.24
472.377	18.26
472.732	18.25
473.086	18.42
473.441	18.28
473.795	18.42
474.15	18.35
474.504	18.56
474.859	18.4
475.213	18.72
475.567	18.46
475.921	18.63
476.275	18.57
476.63	18.81
476.984	18.88
477.338	18.78
477.692	18.77
478.045	18.71
478.399	18.86
478.753	18.74
479.107	18.7
479.461	18.8
479.814	18.96
480.168	18.98
480.521	19.04
480.875	19.13
481.228	19.03
481.582	19.04
481.935	19.26
482.289	19.33
482.642	19.23
482.995	19.11
483.348	19.08
483.701	19.07
484.055	19.04
484.408	19.02
484.761	18.68
485.114	18.52
485.466	18.4
485.819	18.34
486.172	18.43
486.525	18.52
486.878	18.71
487.23	18.9
487.583	19.07
487.936	19.12
488.288	19.15
488.641	19.04
488.993	18.92
489.345	18.88
489.698	18.88
490.05	19
490.402	19.13
490.754	19.3
491.107	19.38
491.459	19.63
491.811	19.67
492.163	19.77
492.515	19.76
492.866	19.65
493.218	19.47
493.57	19.29
493.922	19.45
494.274	19.63
494.625	19.91
494.977	20.11
495.328	20.21
495.68	20.39
496.031	20.61
496.383	20.75
496.734	20.66
497.086	20.89
497.437	20.9
497.788	20.81
498.139	20.87
498.49	20.71
498.842	20.74
499.193	20.77
499.544	20.89
499.894	20.91
500.245	20.96
500.596	20.89
500.947	21.13
501.298	21.18
501.648	21.3
501.999	21.2
502.35	21.42
502.7	21.38
503.051	21.4
503.401	21.45
503.752	21.74
504.102	21.63
504.452	21.75
504.803	21.71
505.153	21.73
505.503	21.63
505.853	21.69
506.203	21.78
506.553	21.76
506.903	21.58
507.253	21.86
507.603	21.92
507.953	22.26
508.303	22.07
508.652	21.89
509.002	21.92
509.352	22.11
509.701	21.85
510.051	22.18
510.4	21.89
510.75	21.88
511.099	22.06
511.449	22.01
511.798	22.06
512.147	22.1
512.496	22.27
512.846	22.33
513.195	22.19
513.544	22.29
513.893	22.25
514.242	22.45
514.591	22.45
514.939	22.41
515.288	22.55
515.637	22.59
515.986	22.74
516.334	22.74
516.683	22.88
517.032	22.8
517.38	23.05
517.729	23.05
518.077	23.03
518.426	23.02
518.774	23.02
519.122	22.92
519.47	22.78
519.819	22.78
520.167	22.61
520.515	22.57
520.863	22.64
521.211	22.81
521.559	22.86
521.907	22.98
522.255	23.13
522.602	23.23
522.95	23.34
523.298	23.42
523.645	23.59
523.993	23.6
524.341	23.57
524.688	23.74
525.036	23.52
525.383	23.66
525.73	23.67
526.078	23.65
526.425	23.51
526.772	23.37
527.119	23.34
527.466	23.4
527.814	23.28
528.161	23.35
528.508	23.37
528.854	23.56
529.201	23.45
529.548	23.25
529.895	23.07
530.242	22.93
530.588	22.93
530.935	22.99
531.282	23.23
531.628	23.24
531.975	23.36
532.321	23.64
532.667	23.81
533.014	23.98
533.36	24.03
533.706	24.02
534.052	23.9
534.399	23.99
534.745	23.78
535.091	23.52
535.437	23.68
535.783	23.8
536.129	24.05
536.474	24.15
536.82	24.31
537.166	24.45
537.512	24.64
537.857	24.39
538.203	24.34
538.549	24.21
538.894	24.29
539.239	24.52
539.585	24.71
539.93	24.68
540.276	24.98
540.621	25.26
540.966	24.99
541.311	25.1
541.656	25.15
542.001	25.13
542.346	24.87
542.691	24.61
543.036	24.35
543.381	24.28
543.726	24.36
544.071	24.48
544.415	24.77
544.76	24.83
545.105	24.9
545.449	25.11
545.794	25.09
546.138	25.36
546.483	25.47
546.827	25.62
547.171	25.58
547.516	25.53
547.86	25.58
548.204	25.48
548.548	25.53
548.892	25.45
549.236	25.74
549.58	25.87
549.924	25.8
550.268	26.18
550.612	26.3
550.956	26.39
551.3	26.4
551.643	26.58
551.987	26.67
552.33	26.52
552.674	26.49
553.017	26.75
553.361	26.79
553.704	26.67
554.048	26.58
554.391	26.73
554.734	26.36
555.077	26.52
555.42	26.72
555.764	26.82
556.107	26.79
556.45	26.82
556.793	27.05
557.135	27.2
557.478	27.05
557.821	27.19
558.164	27.37
558.507	27.47
558.849	27.28
559.192	27.14
559.534	27.64
559.877	27.31
560.219	27.5
560.562	27.52
560.904	27.38
561.246	27.49
561.589	27.59
561.931	27.83
562.273	27.54
562.615	27.76
562.957	27.63
563.299	27.74
563.641	27.69
563.983	27.74
564.325	27.67
564.667	27.82
565.008	28.09
565.35	28.01
565.692	27.95
566.033	28.05
566.375	28.04
566.716	28.1
567.058	27.88
567.399	28.08
567.741	27.76
568.082	27.99
568.423	27.72
568.764	28.07
569.105	27.99
569.447	28.29
569.788	28.34
570.129	28.6
570.47	28.49
570.811	28.41
571.151	28.26
571.492	28.45
571.833	28.27
572.174	28.72
572.514	28.47
572.855	28.76
573.195	28.52
573.536	28.34
573.876	28.41
574.217	28.38
574.557	28.54
574.898	28.69
575.238	28.64
575.578	28.69
575.918	28.92
576.258	28.78
576.598	28.75
576.938	28.81
577.278	28.78
577.618	29.04
577.958	28.78
578.298	29.08
578.638	29.08
578.977	29.34
579.317	28.92
579.657	29.34
579.996	29.5
580.336	29.44
580.675	29.36
581.014	29.67
581.354	29.51
581.693	29.28
582.032	29.88
582.372	29.87
582.711	29.92
583.05	30.06
583.389	29.84
583.728	30.06
584.067	30.03
584.406	30.34
584.745	30.2
585.083	30.18
585.422	30.13
585.761	30.32
586.1	30.27
586.438	30.3
586.777	30.08
587.115	30.46
587.454	30.39
587.792	30.38
588.13	30.38
588.469	30.39
588.807	30.15
589.145	30.35
589.483	30.33
589.821	30.46
590.159	30.41
590.497	30.39
590.835	30.5
591.173	30.82
591.511	30.39
591.849	30.62
592.187	30.46
592.524	30.58
592.862	30.71
593.2	30.83
593.537	30.81
593.875	30.71
594.212	30.67
594.55	30.86
594.887	31.02
595.224	30.66
595.561	31.02
595.899	30.83
596.236	30.89
596.573	31.02
596.91	30.98
597.247	31
597.584	31.08
597.921	30.91
598.258	30.85
598.594	30.65
598.931	30.57
599.268	30.82
599.604	31
599.941	31.04
600.277	31.12
600.614	31.19
600.95	31.25
601.287	31.41
601.623	31.62
601.959	31.76
602.296	31.61
602.632	31.62
602.968	31.74
603.304	31.72
603.64	31.79
603.976	31.59
604.312	31.66
604.648	31.72
604.984	31.67
605.319	31.6
605.655	31.86
605.991	31.62
606.326	31.4
606.662	31.46
606.998	31.62
607.333	31.64
607.668	31.77
608.004	31.6
608.339	31.92
608.674	31.95
609.01	32.51
609.345	32.41
609.68	32.19
610.015	32.27
610.35	32.44
610.685	32.3
611.02	32.07
611.355	32.18
611.689	32.11
612.024	32.03
612.359	32.06
612.694	32.12
613.028	32.34
613.363	32.63
613.697	32.73
614.032	32.86
614.366	32.66
614.7	32.98
615.035	32.7
615.369	32.53
615.703	32.97
616.037	33.17
616.371	32.82
616.705	32.84
617.039	33.07
617.373	32.6
617.707	32.8
618.041	33.21
618.375	32.93
618.709	33.14
619.042	33.42
619.376	33.01
619.71	33.28
620.043	33.34
620.377	33.17
620.71	33.26
621.043	33.45
621.377	33.61
621.71	33.34
622.043	33.24
622.376	33.73
622.709	33.24
623.043	33.56
623.376	33.54
623.709	33.73
624.041	33.58
624.374	33.64
624.707	33.61
625.04	33.55
625.373	33.51
625.705	33.68
626.038	33.78
626.37	34.03
626.703	33.61
627.035	33.78
627.368	33.88
627.7	34.08
628.032	33.88
628.365	33.84
628.697	33.74
629.029	34.05
629.361	33.71
629.693	33.75
630.025	33.86
630.357	33.94
630.689	34.23
631.021	34.13
631.353	34.22
631.684	34.23
632.016	34.27
632.348	34.31
632.679	34.1
633.011	34.31
633.342	34.15
633.674	34.54
634.005	34.83
634.336	34.81
634.668	34.21
634.999	34.26
635.33	34.29
635.661	34.44
635.992	34.24
636.323	34.53
636.654	34.6
636.985	34.8
637.316	34.54
637.647	34.45
637.977	34.6
638.308	34.72
638.639	34.63
638.969	35.2
639.3	34.45
639.63	34.59
639.961	35.1
640.291	35.34
640.622	34.78
640.952	35.1
641.282	35.09
641.612	35.29
641.943	35.15
642.273	35.05
642.603	35.5
642.933	35.58
643.263	35.47
643.592	35.14
643.922	34.39
644.252	35.21
644.582	35.25
644.911	35.2
645.241	35.57
645.571	35.66
645.9	36.11
646.23	35.25
646.559	34.93
646.888	35.24
647.218	35.57
647.547	35.72
647.876	36.2
648.205	35.68
648.534	35.83
648.863	35.74
649.192	35.89
649.521	35.59
649.85	35.9
650.179	35.44
650.508	35.78
650.837	35.65
651.165	35.96
651.494	35.97
651.822	36.09
652.151	35.6
652.479	35.78
652.808	35.59
653.136	35.19
653.465	36.33
653.793	35.32
654.121	36.31
654.449	35.81
654.777	36.24
655.105	35.65
655.433	36.31
655.761	36.68
656.089	36.32
656.417	35.92
656.745	36.2
657.073	36.65
657.4	36.09
657.728	36.08
658.056	36.21
658.383	36.53
658.711	37.35
659.038	36.84
659.365	36.21
659.693	35.86
660.02	36.73
660.347	36.48
660.674	36.41
661.001	36.3
661.329	36.22
661.656	36.12
661.982	36.26
662.309	36.83
662.636	36.21
662.963	36.55
663.29	36.97
663.616	37.09
663.943	36.2
664.27	37.05
664.596	36.74
664.923	36.59
665.249	36.86
665.576	36.39
665.902	37.33
666.228	36.95
666.554	37.29
666.881	37.03
667.207	36.88
667.533	37.23
667.859	37.47
668.185	36.73
668.511	37.16
668.837	37.29
669.162	37.01
669.488	37.4
669.814	36.76
670.139	37.02
670.465	37.26
670.791	36.72
671.116	37.41
671.442	37.27
671.767	36.98
672.092	37.1
672.418	37.26
672.743	37.28
673.068	37.56
673.393	37.78
673.718	37.65
674.043	37.4
674.368	37.4
674.693	38.21
675.018	37.6
675.343	37.27
675.667	37.5
675.992	37.57
676.317	37.59
676.641	37.16
676.966	37.68
677.29	37.84
677.615	37.55
677.939	37.6
678.264	37.26
678.588	37.84
678.912	36.99
679.236	37.98
679.56	37.91
679.885	37.92
680.209	37.65
680.532	37.63
680.856	38.06
681.18	38.06
681.504	38.19
681.828	37.78
682.152	38.01
682.475	38.16
682.799	37.52
683.122	38.23
683.446	37.67
683.769	37.62
684.093	38.02
684.416	37.76
684.739	38.06
685.062	37.84
685.386	38.11
685.709	38.17
686.032	38.76
686.355	37.74
686.678	38.69
687.001	38.32
687.324	38.61
687.646	38.59
687.969	38.03
688.292	38.82
688.614	38.61
688.937	38.23
689.26	38.84
689.582	38.77
689.904	38.72
690.227	38.82
690.549	38.87
690.871	38.9
691.194	38.54
691.516	38.19
691.838	38.54
692.16	39.21
692.482	38.62
692.804	38.47
693.126	38.96
693.448	38.5
693.769	39.2
694.091	38.96
694.413	39.41
694.735	38.59
695.056	39
695.378	39.35
695.699	38.41
696.021	39.04
696.342	39.48
696.663	39.64
696.984	38.84
697.306	38.64
697.627	39.66
697.948	38.7
698.269	39.34
698.59	39.45
698.911	38.96
699.232	39
699.553	39.24
699.873	38.57
700.194	39.17
700.515	39.28
700.835	38.57
701.156	39.17
701.477	39.24
701.797	39.65
702.117	39.16
702.438	38.95
702.758	39.29
703.078	38.74
703.398	39.98
703.719	39.16
704.039	38.09
704.359	39.87
704.679	39.3
704.999	39.56
705.319	39.48
705.638	40.17
705.958	40.41
706.278	39.07
706.597	39.58
706.917	39.34
707.237	40.47
707.556	39.14
707.876	40.05
708.195	40.05
708.514	39.9
708.834	40.15
709.153	40.05
709.472	39.23
709.791	39.1
710.11	40.42
710.429	40.29
710.748	40.06
711.067	40.81
711.386	39.76
711.705	40.09
712.023	40.04
712.342	39.69
712.661	39.58
712.979	40.34
713.298	39.73
713.616	39.76
713.935	40.44
714.253	39.52
714.572	39.31
714.89	40.31
715.208	40.13
715.526	39.45
715.844	39.8
716.162	40.91
716.48	40.32
716.798	40.04
717.116	40.9
717.434	40.76
717.752	40.36
718.069	39.85
718.387	40.77
718.705	41.16
719.022	39.55
719.34	40.07
719.657	40.64
719.975	39.63
720.292	40.92
720.609	40.57
720.927	40.13
721.244	40.54
721.561	40.52
721.878	40.96
722.195	40.89
722.512	40.19
722.829	40.03
723.146	40.88
723.463	40.49
723.779	40.19
724.096	41.17
724.413	40.64
724.729	39.17
725.046	41.23
725.362	39.89
725.679	39.77
725.995	40.12
726.311	41.23
726.628	40.97
726.944	40.61
727.26	40.39
727.576	40.58
727.892	40.24
728.208	40.11
728.524	41.3
728.84	41.04
729.156	41.42
729.472	40.58
729.787	40.56
730.103	40.03
730.419	41.2
730.734	39.66
731.05	40.88
731.365	40.07
731.681	40.8
731.996	41.76
732.311	41.32
732.626	40.64
732.942	40.42
733.257	40.42
733.572	41.93
733.887	41.45
734.202	39.68
734.517	41.81
734.832	40.88
735.146	41.36
735.461	41.06
735.776	40.67
736.091	41.66
736.405	41.11
736.72	40.64
737.034	41.25
737.349	41.01
737.663	39.87
737.977	41.43
738.292	40.15
738.606	42.32
738.92	41.32
739.234	40.87
739.548	41.24
739.862	39.96
740.176	42.34
740.49	41.71
740.804	41.27
741.117	41.79
741.431	41.52
741.745	42.02
742.058	39.67
742.372	40.94
742.685	40.71
742.999	41.04
743.312	43.7
743.626	41.26
743.939	41.45
744.252	41.9
744.565	41.17
744.878	41.7
745.191	40.56
745.505	41.79
745.817	40.87
746.13	40.95
746.443	39.68
746.756	41.92
747.069	40.1
747.381	41.4
747.694	42.58
748.007	42.93
748.319	41.68
748.632	41.56
748.944	42.43
749.256	41.13
749.569	41.65
749.881	41.5
750.193	41.94
750.505	45.25
750.817	42.64
751.129	43.25
751.441	42.73
751.753	42.87
752.065	43.13
752.377	40.64
752.689	41.64
753	42.55
753.312	40.88
753.624	40.86
753.935	41.68
754.247	41.97
754.558	42.52
754.869	43.07
755.181	42.14
755.492	42.19
755.803	43.26
756.114	40.19
756.425	43.79
756.736	42.8
757.047	42.56
757.358	42.52
757.669	42.09
757.98	43.56
758.291	42.33
758.601	42.95
758.912	42.27
759.223	43.62
759.533	41.52
759.844	41.95
760.154	41.07
760.464	41.95
760.775	41.46
761.085	41.57
761.395	43.37
761.705	42.98
762.016	43.78
762.326	42.23
762.636	41.72
762.945	42.1
763.255	41.19
763.565	42.35
763.875	41.55
764.185	42.38
764.494	41.89
764.804	42.47
765.113	43.24
765.423	42.27
765.732	41.87
766.042	42.3
766.351	42.93
766.66	41.2
766.97	42.93
767.279	42.86
767.588	42.41
767.897	42.36
768.206	42.11
768.515	42.05
768.824	42.23
769.133	43.41
769.441	41.92
769.75	42.46
770.059	42.89
770.367	43.78
770.676	43.91
770.984	41.57
771.293	42.58
771.601	39.82
771.91	44.56
772.218	44.01
772.526	41.37
772.834	43.44
773.142	43.38
773.45	41.05
773.758	42.25
774.066	39.81
774.374	42.4
774.682	46.64
774.99	44.27
775.298	40.86
775.605	42.35
775.913	41.59
776.22	41.5
776.528	46.24
776.835	41.25
777.143	39.17
777.45	42.08
777.757	41.91
778.065	42.62
778.372	42.96
778.679	43.38
778.986	43.16
779.293	42.02
779.6	44.42
779.907	41.34
780.214	41.97
780.52	44.07
780.827	44.05
781.134	42.83
781.44	42.43
781.747	39.13
782.053	41
782.36	44.47
782.666	40.88
782.973	41.83
783.279	43.75
783.585	43.98
783.891	41
784.197	42.14
784.503	43.25
784.809	45.19
785.115	42.44
785.421	43.35
785.727	39.14
786.033	38.61
786.339	46.22
786.644	44.37
786.95	44.89
787.255	39.41
787.561	45.29
787.866	42.75
788.172	40.53
788.477	41.53
788.782	43.62
789.088	40.99
789.393	43.87
789.698	43.2
790.003	45.17
790.308	45.32
790.613	42.54
790.918	45.55
791.223	44.52
791.527	44.27
791.832	41.5
792.137	42.8
792.441	47.74
792.746	44.81
793.05	40.62
793.355	42.31
793.659	46.02
793.963	45.13
794.268	39.75
794.572	44.41
794.876	42.67
795.18	42.57
795.484	41.46
795.788	43.98
796.092	41.84
796.396	43.95
796.7	44.96
797.004	44.17
797.307	44.12
797.611	44.35
797.915	41.13
798.218	41.85
798.522	45.33
798.825	41.17
799.128	41.25
799.432	44.38
799.735	42.22
800.038	45.19
800.341	41.96
800.644	44.88
800.947	48.97
801.25	41.07
801.553	46.07
801.856	42.78
802.159	40.11
802.462	47.08
802.764	43.16
803.067	43.09
803.37	42.48
803.672	39.82
803.975	41.56
804.277	42.48
804.579	43.78
804.882	46.22
805.184	42.94
805.486	45.2
805.788	47.28
806.09	43.7
806.392	43.75
806.694	42.01
806.996	41.11
807.298	42.57
807.6	43.3
807.902	40.57
808.203	44.88
808.505	45.28
808.807	46.14
809.108	48.05
809.409	44.24
809.711	44.81
810.012	37.83
810.313	46.37
810.615	40.95
810.916	42.47
811.217	39.8
811.518	41.63
811.819	43.48
812.12	40.4
812.421	39.52
812.722	46.85
813.023	43.47
813.323	42.16
813.624	52.08
813.925	42.43
814.225	43.74
814.526	45.87
814.826	47.69
815.126	49.06
815.427	45.39
815.727	41.93
816.027	49.02
816.327	45.81
816.627	39.4
816.927	41.09
817.227	44.96
817.527	43.25
817.827	41.78
818.127	43.2
818.427	46.13
818.727	39.72
819.026	45.41
819.326	45.97
819.625	49.51
819.925	48.13
820.224	41.92
820.524	46.05
820.823	40.21
821.122	46.94
821.421	42.97
821.72	45.48
822.019	44.31
822.318	43.36
822.617	46.14
822.916	47.87
823.215	43.69
823.514	46.01
823.813	45.4
824.111	45.56
824.41	44.85
824.709	44.47
825.007	45.24
825.306	44.6
825.604	44.9
825.902	45.26
826.201	45
826.499	44.76
826.797	46.3
827.095	43.71
827.393	44.05
827.691	45.07
827.989	44.77
828.287	45.2
828.585	43.93
828.882	45.15
829.18	44.91
829.478	46.24
829.775	45.4
830.073	46.65
830.37	43.51
830.668	45.38
830.965	45.98
831.263	44.44
831.56	43.21
831.857	47.67
832.154	42.33
832.451	42.74
832.748	45.36
833.045	40.96
833.342	48.14
833.639	48.5
833.936	45.17
834.232	49.32
834.529	45.79
834.826	42.98
835.122	39.35
835.419	47.3
835.715	43.63
836.012	47.52
836.308	40.67
836.604	44.93
836.901	45.85
837.197	44.74
837.493	45.65
837.789	45.73
838.085	44.17
838.381	45.68
838.677	45.83
838.972	44.75
839.268	43.09
839.564	48.24
839.86	45.28
840.155	46.65
840.451	46.92
840.746	41.45
841.042	41.72
841.337	47.51
841.632	50.6
841.928	39.95
842.223	50.83
842.518	48.92
842.813	47.7
843.108	42.53
843.403	41.91
843.698	49.9
843.993	40.03
844.287	44.06
844.582	40.77
844.877	45.74
845.171	47.12
845.466	35.17
845.761	48.45
846.055	45.84
846.349	40.4
846.644	46.93
846.938	34.14
847.232	42.32
847.526	52.21
847.82	46.81
848.114	40.41
848.408	49.82
848.702	42.43
848.996	40.13
849.29	52.63
849.584	42.23
849.877	42.62
850.171	40
850.465	47.67
850.758	30.22
851.052	37.8
851.345	53.1
851.638	46.49
851.932	50.36
852.225	29.68
852.518	54.34
852.811	36.59
853.104	49.94
853.397	16.33
853.69	54.52
853.983	28.63
854.276	41.85
854.569	42.63
854.861	42.39
855.154	38.54
855.447	48.65
855.739	55.42
856.032	47.67
856.324	49.23
856.616	54.93
856.909	65.89
857.201	35.04
857.493	33.31
857.785	26.87
858.077	42.35
858.369	52.19
858.661	45.99
858.953	42.84
859.245	43.24
859.537	46.29
859.829	39.47
860.12	35.54
860.412	40.5
860.703	37.54
860.995	31.86
861.286	36.38
861.578	53.4
861.869	29.96
862.16	27.13
862.452	49.29
862.743	46.22
863.034	51.36
863.325	41.55
863.616	36.18
863.907	43.27
864.198	64.5
864.488	26.67
864.779	44.35
865.07	35.34
865.36	50.02
865.651	31.24
865.941	20.87
866.232	40.77
866.522	44.89
866.813	47.33
867.103	44.78
867.393	51.92
867.683	39.13
867.973	30.48
868.263	29.38
868.553	37.26
868.843	83.9
869.133	68.27
869.423	62.97
869.713	32.05
870.002	35.39
870.292	25.59
870.582	64.64
870.871	62.49
871.161	24.71
871.45	2.79
871.739	58.63
872.029	23.15
872.318	31.84
872.607	28.6
872.896	44.11
873.185	38.42
873.474	56.71
873.763	42.08
874.052	43.87
874.341	50.21
874.63	19.62
874.918	41.03
875.207	48.84
875.496	48.1
875.784	61.53
876.073	20.74
876.361	36.33
876.649	30.76
876.938	40.13
877.226	58.72
877.514	43.33
877.802	48.95
878.09	38.2
878.378	40.83
878.666	32.26
878.954	72.73
879.242	45.38
879.53	31.86
879.817	51.7
880.105	52.39
880.392	34.57
880.68	40.64
880.967	40.14
881.255	50.31
881.542	60.8
881.83	28.6
882.117	44.72
882.404	37.86
882.691	21.63
882.978	31.65
883.265	41.24
883.552	58.26
883.839	28.08
884.126	47.29
884.413	46.78
884.699	41.35
884.986	43.31
885.273	45.94
885.559	45.94
885.846	45.94
