Data from 0237_forehead_Reflection__0__73.txt Node

Date: Fri Oct 20 21:13:52 CDT 2023
User: ToomeyLab
Spectrometer: FLMS14357
Trigger mode: 0
Integration Time (sec): 1.000000E-2
Scans to average: 100
Electric dark correction enabled: true
Nonlinearity correction enabled: false
Boxcar width: 0
XAxis mode: Wavelengths
Number of Pixels in Spectrum: 2048
>>>>>Begin Spectral Data<<<<<
189.047	-102.41
189.435	-102.41
189.823	-102.41
190.211	-334.7
190.599	-917.42
190.987	74.37
191.375	1134.72
191.763	87.81
192.151	-631.74
192.538	-814.67
192.926	262.76
193.314	-10.05
193.702	101.53
194.089	32.79
194.477	-67.28
194.864	-633.83
195.252	67.35
195.639	-458.1
196.027	-50.32
196.414	249.31
196.801	233.1
197.189	56.59
197.576	32.12
197.963	-1474.85
198.351	41.23
198.738	56.08
199.125	56.18
199.512	49.89
199.899	36.62
200.286	10.72
200.673	42.93
201.06	54.56
201.447	4.97
201.833	39.03
202.22	29.33
202.607	34.45
202.994	31.74
203.38	16.62
203.767	39.87
204.154	53.93
204.54	26.8
204.927	33.04
205.313	57.86
205.699	50.47
206.086	46.75
206.472	66.66
206.858	33.55
207.245	13.08
207.631	29.49
208.017	35.31
208.403	22.09
208.789	34.91
209.175	41.49
209.561	32.08
209.947	10.15
210.333	27.12
210.719	27.04
211.105	32.57
211.491	60.18
211.876	12.73
212.262	66.34
212.648	42.51
213.034	27.27
213.419	54.18
213.805	40.13
214.19	33.5
214.576	53.26
214.961	38.02
215.346	53.14
215.732	24.35
216.117	-12.71
216.502	33.25
216.888	32.83
217.273	6.42
217.658	20.25
218.043	44.2
218.428	2.52
218.813	9.22
219.198	19.83
219.583	3.82
219.968	16.39
220.353	36.6
220.738	22.9
221.122	30.03
221.507	34.03
221.892	17.2
222.276	28.81
222.661	29.48
223.046	6.88
223.43	17.05
223.815	23.55
224.199	21.67
224.583	1.56
224.968	4.77
225.352	10.38
225.736	3.79
226.121	10.4
226.505	3.57
226.889	8.28
227.273	4.67
227.657	13.66
228.041	5.04
228.425	6.91
228.809	5.89
229.193	7.26
229.577	6.51
229.961	3.19
230.344	3.98
230.728	2.57
231.112	3.96
231.495	3.14
231.879	3.53
232.263	4.55
232.646	2.56
233.03	2.35
233.413	3.24
233.797	3.5
234.18	4.39
234.563	6.6
234.946	7.99
235.33	3.57
235.713	4.17
236.096	6.13
236.479	4.2
236.862	3.04
237.245	3.95
237.628	4.98
238.011	5.41
238.394	2.72
238.777	5.49
239.16	3.14
239.543	6.42
239.925	5.83
240.308	3.64
240.691	4.33
241.073	4.61
241.456	4.43
241.838	4.27
242.221	4.91
242.603	4.01
242.986	4.4
243.368	3.48
243.75	3.59
244.133	3.31
244.515	3.61
244.897	3.23
245.279	3.29
245.661	3.39
246.043	3.43
246.425	3.26
246.807	3.6
247.189	3.59
247.571	3.03
247.953	3.98
248.335	3.78
248.717	3.4
249.098	3.06
249.48	3.02
249.862	3.35
250.243	3.32
250.625	3.79
251.006	3.54
251.388	3.52
251.769	4.65
252.151	3.93
252.532	3.93
252.913	4.04
253.295	3.11
253.676	3.76
254.057	3.53
254.438	3.23
254.819	3.39
255.2	3.81
255.581	3.44
255.962	4.09
256.343	5.28
256.724	3.1
257.105	4.17
257.486	4.41
257.867	3.86
258.247	3.77
258.628	3.63
259.009	3.44
259.389	3.65
259.77	3.65
260.15	3.8
260.531	3.62
260.911	3.36
261.292	3.17
261.672	3.26
262.052	3.2
262.432	3.22
262.813	3.16
263.193	3.62
263.573	3.33
263.953	4.07
264.333	3.93
264.713	4.4
265.093	3.89
265.473	3.68
265.853	3.25
266.233	3.53
266.612	4.15
266.992	3.73
267.372	3.89
267.752	3.58
268.131	4.22
268.511	3.66
268.89	3.44
269.27	3.64
269.649	3.21
270.029	3.42
270.408	3.52
270.787	3.53
271.167	3.65
271.546	3.8
271.925	4.33
272.304	3.77
272.683	3.62
273.062	3.21
273.441	3.78
273.82	3.62
274.199	3.48
274.578	3.07
274.957	3.41
275.336	3.58
275.715	3.44
276.093	3.41
276.472	3.63
276.851	4.13
277.229	3.9
277.608	3.57
277.986	3.61
278.365	3.59
278.743	3.84
279.122	4.07
279.5	3.56
279.878	2.85
280.257	3.59
280.635	3.42
281.013	4.16
281.391	3.83
281.769	3.37
282.147	3.06
282.525	3.24
282.903	3.2
283.281	3.21
283.659	3.26
284.037	3.55
284.415	3
284.792	3.49
285.17	3.26
285.548	3.57
285.925	2.84
286.303	3.02
286.68	3.07
287.058	3.69
287.435	3.61
287.813	3.27
288.19	3.26
288.567	3.37
288.945	3.79
289.322	3.86
289.699	3.17
290.076	3.96
290.453	4.18
290.83	3.29
291.207	3.93
291.584	3.42
291.961	3.62
292.338	3.57
292.715	3.68
293.092	3.73
293.469	4.02
293.845	3.2
294.222	3.72
294.599	3.75
294.975	4.63
295.352	3.84
295.728	4.12
296.105	3.49
296.481	3.81
296.858	3.77
297.234	3.92
297.61	3.37
297.986	3.76
298.363	4.13
298.739	4.17
299.115	3.97
299.491	3.93
299.867	4.02
300.243	4.09
300.619	4.15
300.995	4.08
301.371	4.49
301.746	4.35
302.122	4.79
302.498	3.8
302.874	4.49
303.249	4.74
303.625	4.57
304	4.75
304.376	4.77
304.751	4.5
305.127	4.6
305.502	4.75
305.878	4.47
306.253	4.22
306.628	4.58
307.003	5.03
307.378	4.65
307.754	4.85
308.129	5.56
308.504	5.21
308.879	4.92
309.254	5.3
309.629	4.91
310.003	5.02
310.378	5.3
310.753	4.8
311.128	5.54
311.502	5.23
311.877	5.42
312.252	4.97
312.626	5.34
313.001	5.25
313.375	5.21
313.75	5.54
314.124	5.4
314.498	5.16
314.873	5.25
315.247	5.72
315.621	5.85
315.995	5.84
316.369	5.31
316.743	5.73
317.117	5.99
317.491	5.79
317.865	6.11
318.239	6.34
318.613	6.28
318.987	5.54
319.361	5.64
319.734	5.7
320.108	5.74
320.482	6.4
320.855	6.53
321.229	6.79
321.602	6.58
321.976	6.27
322.349	7.27
322.723	6.21
323.096	6.94
323.469	6.1
323.843	6.48
324.216	6.22
324.589	6.47
324.962	7.27
325.335	6.79
325.708	6.65
326.081	6.84
326.454	6.67
326.827	7.35
327.2	7.3
327.573	6.84
327.945	6.45
328.318	6.51
328.691	7.04
329.063	7.1
329.436	6.77
329.809	6.66
330.181	7.43
330.553	7.5
330.926	7.08
331.298	6.75
331.671	6.85
332.043	7.19
332.415	7.37
332.787	7.55
333.159	7.51
333.532	7.66
333.904	7.58
334.276	7.08
334.648	7.42
335.02	7.65
335.391	6.99
335.763	7.75
336.135	7.62
336.507	7.59
336.879	7.92
337.25	7.4
337.622	7.8
337.993	8.79
338.365	7.66
338.736	7.9
339.108	8.23
339.479	8.16
339.851	7.99
340.222	7.79
340.593	7.69
340.964	8.29
341.336	8.41
341.707	7.79
342.078	8.56
342.449	7.91
342.82	8.05
343.191	8.17
343.562	8.15
343.933	8.11
344.303	7.6
344.674	8.44
345.045	8.69
345.416	8.55
345.786	8.2
346.157	8.65
346.527	8.24
346.898	8.44
347.268	8.77
347.639	8.41
348.009	8.16
348.38	8.55
348.75	8.39
349.12	8.8
349.49	8.52
349.861	8.81
350.231	8.17
350.601	8.37
350.971	8.77
351.341	8.92
351.711	9.26
352.081	9.04
352.45	9.17
352.82	8.94
353.19	9.42
353.56	9.51
353.929	9.12
354.299	8.88
354.669	9.11
355.038	9.43
355.408	9.52
355.777	9.19
356.147	9.14
356.516	9.07
356.885	9.11
357.254	9.33
357.624	9.4
357.993	8.94
358.362	9.41
358.731	8.75
359.1	9.03
359.469	9.08
359.838	9.31
360.207	9.7
360.576	9.74
360.945	9.6
361.314	9.34
361.682	9.38
362.051	9.71
362.42	9.37
362.788	9.78
363.157	9.61
363.525	9.51
363.894	9.65
364.262	9.88
364.631	9.75
364.999	10.03
365.367	9.95
365.735	9.7
366.104	9.85
366.472	9.96
366.84	10.29
367.208	10.02
367.576	9.84
367.944	10.04
368.312	9.97
368.68	10.19
369.048	10.25
369.416	10.39
369.783	10.51
370.151	10.36
370.519	10.41
370.886	10.66
371.254	10.89
371.621	10.63
371.989	10.49
372.356	10.75
372.724	11.02
373.091	10.69
373.458	10.7
373.826	10.74
374.193	10.56
374.56	10.68
374.927	10.86
375.294	10.86
375.661	10.96
376.028	11.25
376.395	11.42
376.762	10.93
377.129	10.68
377.496	11.05
377.863	11.72
378.229	11.42
378.596	11.13
378.963	11.13
379.329	11.16
379.696	11.13
380.062	11.21
380.429	11
380.795	11
381.161	11.28
381.528	11.36
381.894	11.26
382.26	11.46
382.626	11.6
382.993	11.66
383.359	11.45
383.725	11.56
384.091	11.82
384.457	11.58
384.823	11.68
385.188	11.64
385.554	11.54
385.92	11.59
386.286	11.93
386.651	11.5
387.017	12.19
387.383	11.79
387.748	11.73
388.114	11.77
388.479	12
388.845	12.14
389.21	12.17
389.575	11.99
389.94	12.1
390.306	11.97
390.671	12.06
391.036	12.17
391.401	12.33
391.766	12.44
392.131	12.43
392.496	12.5
392.861	12.48
393.226	12.48
393.591	12.66
393.956	12.6
394.32	12.75
394.685	12.48
395.05	12.86
395.414	12.79
395.779	12.6
396.143	12.59
396.508	12.53
396.872	12.67
397.236	12.85
397.601	12.78
397.965	12.59
398.329	12.71
398.694	13.04
399.058	12.93
399.422	13.07
399.786	13.08
400.15	12.96
400.514	12.83
400.878	13.35
401.242	13.24
401.605	13.33
401.969	13.22
402.333	13.45
402.697	13.43
403.06	13.2
403.424	13.4
403.787	13.37
404.151	13.46
404.514	13.52
404.878	13.67
405.241	13.45
405.604	13.65
405.968	13.58
406.331	13.62
406.694	13.5
407.057	13.71
407.42	13.81
407.783	13.73
408.146	13.87
408.509	13.89
408.872	13.89
409.235	13.98
409.598	14.05
409.961	13.97
410.323	14.03
410.686	13.74
411.049	14.08
411.411	14.16
411.774	14.34
412.136	14.14
412.499	14.12
412.861	14.3
413.223	14.35
413.586	14.25
413.948	14.41
414.31	14.69
414.672	14.38
415.035	14.53
415.397	14.63
415.759	14.66
416.121	14.66
416.483	14.82
416.845	14.6
417.206	14.72
417.568	14.91
417.93	14.77
418.292	14.46
418.653	14.44
419.015	14.41
419.377	14.49
419.738	14.64
420.1	14.54
420.461	14.47
420.822	14.51
421.184	14.64
421.545	14.79
421.906	14.77
422.267	14.75
422.629	14.67
422.99	14.67
423.351	14.7
423.712	14.72
424.073	14.79
424.434	14.85
424.795	14.99
425.155	14.91
425.516	15.09
425.877	15.08
426.238	14.93
426.598	15.02
426.959	14.99
427.32	15.13
427.68	15.21
428.041	15.27
428.401	15.44
428.761	15.47
429.122	15.59
429.482	15.59
429.842	15.69
430.202	15.56
430.563	15.77
430.923	15.78
431.283	15.89
431.643	15.97
432.003	16.12
432.363	15.88
432.722	16.23
433.082	16.11
433.442	15.93
433.802	16.11
434.161	15.88
434.521	16.31
434.881	16.19
435.24	16.02
435.6	16.17
435.959	16.14
436.319	16.42
436.678	16.23
437.037	16.45
437.396	16.4
437.756	16.4
438.115	16.41
438.474	16.7
438.833	16.62
439.192	16.55
439.551	16.65
439.91	16.72
440.269	16.59
440.628	16.76
440.987	16.83
441.345	16.63
441.704	16.82
442.063	16.74
442.421	16.8
442.78	16.66
443.138	16.81
443.497	16.91
443.855	16.95
444.214	17.13
444.572	17.06
444.93	17.11
445.288	17.36
445.647	17.33
446.005	17.12
446.363	17.27
446.721	17.34
447.079	17.34
447.437	17.22
447.795	17.17
448.153	17.12
448.51	17.22
448.868	17.19
449.226	17.26
449.584	17.38
449.941	17.23
450.299	17.48
450.656	17.54
451.014	17.87
451.371	17.84
451.729	17.75
452.086	17.74
452.443	18.02
452.801	18.01
453.158	18.01
453.515	17.94
453.872	18.16
454.229	18.26
454.586	18.27
454.943	17.97
455.3	18.12
455.657	18.22
456.014	18.38
456.371	18.36
456.727	18.45
457.084	18.65
457.441	18.6
457.797	18.53
458.154	18.59
458.51	18.55
458.867	18.71
459.223	18.88
459.58	18.77
459.936	18.85
460.292	18.83
460.648	18.67
461.005	18.58
461.361	18.77
461.717	18.5
462.073	18.44
462.429	18.54
462.785	18.72
463.141	18.91
463.496	18.9
463.852	19.13
464.208	19.22
464.564	19.32
464.919	19.32
465.275	19.56
465.631	19.53
465.986	19.63
466.342	19.64
466.697	19.54
467.052	19.5
467.408	19.61
467.763	19.82
468.118	20
468.473	19.76
468.829	19.82
469.184	19.69
469.539	19.75
469.894	19.88
470.249	19.82
470.603	19.96
470.958	19.93
471.313	20.14
471.668	20.11
472.023	20.12
472.377	20.25
472.732	20.23
473.086	20.23
473.441	20.23
473.795	20.53
474.15	20.43
474.504	20.43
474.859	20.4
475.213	20.66
475.567	20.61
475.921	20.58
476.275	20.72
476.63	20.75
476.984	20.82
477.338	20.8
477.692	21.02
478.045	20.94
478.399	20.94
478.753	20.88
479.107	20.88
479.461	20.93
479.814	21.03
480.168	20.96
480.521	21.12
480.875	21.04
481.228	21.13
481.582	21.29
481.935	21.23
482.289	21.21
482.642	21.23
482.995	21.07
483.348	21.13
483.701	21.17
484.055	21.12
484.408	21
484.761	20.98
485.114	20.74
485.466	20.57
485.819	20.34
486.172	20.39
486.525	20.52
486.878	20.64
487.23	20.9
487.583	21.01
487.936	21.1
488.288	21.2
488.641	21.26
488.993	21.01
489.345	21
489.698	20.95
490.05	21.02
490.402	21.03
490.754	21.16
491.107	21.34
491.459	21.62
491.811	21.73
492.163	21.81
492.515	22.13
492.866	21.97
493.218	21.75
493.57	21.56
493.922	21.47
494.274	21.69
494.625	21.8
494.977	21.96
495.328	22.27
495.68	22.5
496.031	22.69
496.383	22.84
496.734	22.86
497.086	22.85
497.437	22.89
497.788	23.13
498.139	23.08
498.49	23.01
498.842	22.89
499.193	22.89
499.544	22.97
499.894	22.95
500.245	23.1
500.596	23.1
500.947	23.28
501.298	23.35
501.648	23.24
501.999	23.37
502.35	23.44
502.7	23.63
503.051	23.67
503.401	23.72
503.752	23.77
504.102	23.82
504.452	23.87
504.803	24
505.153	23.87
505.503	23.99
505.853	24
506.203	24.06
506.553	24.07
506.903	24.11
507.253	24.2
507.603	24.32
507.953	24.21
508.303	24.39
508.652	24.4
509.002	24.35
509.352	24.46
509.701	24.46
510.051	24.5
510.4	24.41
510.75	24.4
511.099	24.42
511.449	24.54
511.798	24.59
512.147	24.61
512.496	24.73
512.846	24.73
513.195	24.79
513.544	24.82
513.893	24.83
514.242	24.65
514.591	24.86
514.939	24.8
515.288	24.99
515.637	25.15
515.986	25.24
516.334	25.24
516.683	25.3
517.032	25.39
517.38	25.39
517.729	25.55
518.077	25.56
518.426	25.57
518.774	25.53
519.122	25.57
519.47	25.56
519.819	25.52
520.167	25.39
520.515	25.35
520.863	25.29
521.211	25.51
521.559	25.53
521.907	25.65
522.255	25.66
522.602	25.96
522.95	25.85
523.298	26.12
523.645	26.04
523.993	26.21
524.341	26.1
524.688	26.48
525.036	26.47
525.383	26.38
525.73	26.39
526.078	26.39
526.425	26.53
526.772	26.32
527.119	26.22
527.466	26.25
527.814	26.25
528.161	26.23
528.508	26.32
528.854	26.45
529.201	26.33
529.548	26.56
529.895	26.31
530.242	26.14
530.588	25.91
530.935	25.97
531.282	26.1
531.628	26.27
531.975	26.34
532.321	26.46
532.667	26.72
533.014	26.81
533.36	26.94
533.706	27.2
534.052	27.31
534.399	27.09
534.745	27
535.091	26.93
535.437	26.98
535.783	26.91
536.129	27.19
536.474	27.29
536.82	27.46
537.166	27.73
537.512	27.8
537.857	27.66
538.203	27.67
538.549	27.67
538.894	27.56
539.239	27.85
539.585	27.91
539.93	28.15
540.276	28.22
540.621	28.32
540.966	28.49
541.311	28.61
541.656	28.67
542.001	28.57
542.346	28.48
542.691	28.25
543.036	28.04
543.381	27.9
543.726	27.87
544.071	28
544.415	28.14
544.76	28.25
545.105	28.4
545.449	28.61
545.794	28.4
546.138	28.8
546.483	29.04
546.827	29.06
547.171	29.26
547.516	29.17
547.86	29.26
548.204	29.21
548.548	29.31
548.892	29.17
549.236	29.35
549.58	29.52
549.924	29.51
550.268	29.76
550.612	29.76
550.956	30.08
551.3	30.2
551.643	30.14
551.987	30.41
552.33	30.33
552.674	30.56
553.017	30.49
553.361	30.49
553.704	30.55
554.048	30.38
554.391	30.68
554.734	30.4
555.077	30.63
555.42	30.44
555.764	30.62
556.107	30.71
556.45	31.05
556.793	30.89
557.135	30.98
557.478	30.8
557.821	31.25
558.164	31.58
558.507	31.51
558.849	31.41
559.192	31.54
559.534	31.62
559.877	31.31
560.219	31.64
560.562	31.44
560.904	31.53
561.246	31.56
561.589	31.85
561.931	31.86
562.273	31.78
562.615	31.98
562.957	31.88
563.299	32.19
563.641	31.96
563.983	31.83
564.325	31.98
564.667	32.22
565.008	32
565.35	32.24
565.692	32.22
566.033	32.51
566.375	32.33
566.716	32.49
567.058	32.58
567.399	32.3
567.741	32.52
568.082	32.56
568.423	32.51
568.764	32.59
569.105	32.56
569.447	32.62
569.788	32.72
570.129	32.88
570.47	32.86
570.811	33.26
571.151	32.89
571.492	33.14
571.833	33.39
572.174	33.42
572.514	33.27
572.855	33.2
573.195	33.3
573.536	33.05
573.876	33.32
574.217	33.17
574.557	33.19
574.898	33.35
575.238	33.51
575.578	33.44
575.918	33.69
576.258	33.75
576.598	33.76
576.938	34.12
577.278	33.85
577.618	33.87
577.958	33.94
578.298	34.04
578.638	34.14
578.977	34.23
579.317	34.36
579.657	34.37
579.996	34.28
580.336	34.64
580.675	34.8
581.014	34.7
581.354	34.43
581.693	34.81
582.032	34.9
582.372	34.93
582.711	35.2
583.05	35.37
583.389	35.14
583.728	34.9
584.067	35.53
584.406	35.47
584.745	35.46
585.083	35.37
585.422	35.49
585.761	35.21
586.1	35.36
586.438	35.48
586.777	35.72
587.115	35.67
587.454	35.77
587.792	35.71
588.13	35.92
588.469	36.02
588.807	36
589.145	35.9
589.483	36.14
589.821	36.03
590.159	36.26
590.497	35.99
590.835	36.15
591.173	36.19
591.511	36.4
591.849	36.25
592.187	36.35
592.524	36.34
592.862	36.56
593.2	36.52
593.537	36.36
593.875	36.6
594.212	36.91
594.55	36.91
594.887	36.94
595.224	37.03
595.561	36.65
595.899	36.81
596.236	36.82
596.573	36.88
596.91	36.83
597.247	37.25
597.584	36.9
597.921	36.91
598.258	37.09
598.594	37.22
598.931	36.67
599.268	37
599.604	37.2
599.941	37.2
600.277	37.57
600.614	37.51
600.95	37.31
601.287	37.48
601.623	37.71
601.959	37.9
602.296	37.79
602.632	37.79
602.968	37.98
603.304	38.28
603.64	38.06
603.976	38.1
604.312	38.29
604.648	38.04
604.984	38.17
605.319	38.42
605.655	37.82
605.991	37.83
606.326	38
606.662	37.93
606.998	37.97
607.333	37.9
607.668	38.18
608.004	38.36
608.339	38.15
608.674	38.53
609.01	38.68
609.345	39.03
609.68	39.29
610.015	39.19
610.35	39.43
610.685	39.23
611.02	38.89
611.355	38.75
611.689	38.87
612.024	38.94
612.359	38.99
612.694	39.25
613.028	39.37
613.363	39.35
613.697	39.24
614.032	39.41
614.366	39.77
614.7	39.94
615.035	39.83
615.369	40.06
615.703	39.49
616.037	40.05
616.371	40.06
616.705	39.87
617.039	40.28
617.373	39.99
617.707	40.5
618.041	40.27
618.375	40.26
618.709	40.19
619.042	41.04
619.376	40.57
619.71	40.24
620.043	40.67
620.377	40.45
620.71	40.85
621.043	41.07
621.377	40.65
621.71	40.72
622.043	40.92
622.376	40.91
622.709	41.08
623.043	41.08
623.376	40.82
623.709	40.93
624.041	40.83
624.374	41.33
624.707	41.36
625.04	41.6
625.373	41.23
625.705	41.09
626.038	41.55
626.37	41.15
626.703	41.09
627.035	41.24
627.368	41.79
627.7	41.76
628.032	41.18
628.365	41.34
628.697	41.71
629.029	41.53
629.361	41.43
629.693	41.92
630.025	41.64
630.357	41.91
630.689	41.89
631.021	42
631.353	41.9
631.684	41.67
632.016	42.35
632.348	42.4
632.679	42
633.011	42.15
633.342	41.85
633.674	42.27
634.005	42.43
634.336	42.92
634.668	42.76
634.999	42.56
635.33	42.63
635.661	42.69
635.992	42.67
636.323	42.61
636.654	42.82
636.985	42.53
637.316	42.98
637.647	42.97
637.977	43.02
638.308	43.04
638.639	43.3
638.969	43.67
639.3	42.95
639.63	43.37
639.961	43.48
640.291	43.09
640.622	43.53
640.952	43.7
641.282	43.38
641.612	43.5
641.943	43.3
642.273	43.41
642.603	44.03
642.933	43.9
643.263	44.12
643.592	43.71
643.922	43.74
644.252	43.96
644.582	43.65
644.911	44.55
645.241	44.45
645.571	44.02
645.9	44.28
646.23	44.39
646.559	44.7
646.888	44.41
647.218	44.29
647.547	44.33
647.876	44.55
648.205	44.39
648.534	44.63
648.863	44
649.192	44.59
649.521	44.73
649.85	44.56
650.179	44.74
650.508	45.02
650.837	45.07
651.165	45.03
651.494	44.79
651.822	44.87
652.151	44.88
652.479	45.36
652.808	45.28
653.136	44.26
653.465	45.32
653.793	45.41
654.121	44.99
654.449	45.24
654.777	45.33
655.105	45.42
655.433	45.52
655.761	46.51
656.089	45.71
656.417	46.04
656.745	46.06
657.073	45.62
657.4	46.03
657.728	45.68
658.056	45.53
658.383	45.88
658.711	45.86
659.038	45.69
659.365	46.23
659.693	45.81
660.02	45.56
660.347	45.66
660.674	46.03
661.001	45.9
661.329	45.96
661.656	45.8
661.982	46.1
662.309	46.07
662.636	46.44
662.963	47.02
663.29	46.47
663.616	46.97
663.943	47.1
664.27	46.82
664.596	46.31
664.923	46.56
665.249	46.91
665.576	46.82
665.902	46.57
666.228	46.87
666.554	47.11
666.881	47.16
667.207	47
667.533	46.66
667.859	47.28
668.185	47.46
668.511	47.26
668.837	47.26
669.162	47.91
669.488	47.34
669.814	46.65
670.139	47.27
670.465	46.77
670.791	47.85
671.116	47.63
671.442	47.31
671.767	47.34
672.092	47.46
672.418	47.7
672.743	47.54
673.068	48.11
673.393	47.42
673.718	47.45
674.043	47.21
674.368	48.36
674.693	47.07
675.018	48.01
675.343	48.24
675.667	47.85
675.992	48.35
676.317	48.11
676.641	48.31
676.966	48.87
677.29	48.47
677.615	48.67
677.939	48.99
678.264	48.97
678.588	48.44
678.912	48.6
679.236	47.77
679.56	48.95
679.885	47.55
680.209	48.22
680.532	48.24
680.856	48.52
681.18	49.45
681.504	49.36
681.828	49.16
682.152	48.56
682.475	48.55
682.799	48.89
683.122	48.59
683.446	48.23
683.769	48.79
684.093	49.28
684.416	49.06
684.739	49.32
685.062	49.64
685.386	49.19
685.709	49.27
686.032	49.01
686.355	48.79
686.678	49.42
687.001	49.28
687.324	49.16
687.646	49.71
687.969	49.61
688.292	49.79
688.614	49.45
688.937	49.09
689.26	49.15
689.582	49.35
689.904	49.07
690.227	50.3
690.549	50.04
690.871	49.79
691.194	50.24
691.516	50.36
691.838	50.62
692.16	50.49
692.482	49.83
692.804	49.93
693.126	49.86
693.448	50.71
693.769	50.67
694.091	50.39
694.413	50.21
694.735	50.41
695.056	49.71
695.378	50.02
695.699	50.36
696.021	50.26
696.342	51.03
696.663	49.9
696.984	50.1
697.306	51.09
697.627	51.49
697.948	51.52
698.269	50.87
698.59	50.99
698.911	51.19
699.232	50.6
699.553	51.2
699.873	51.23
700.194	50.8
700.515	51.48
700.835	50.52
701.156	51.15
701.477	50.47
701.797	51.4
702.117	50.95
702.438	50.88
702.758	51.92
703.078	51.19
703.398	51.39
703.719	51.24
704.039	52.32
704.359	52.54
704.679	52.2
704.999	51.19
705.319	52.37
705.638	52.12
705.958	51.38
706.278	51.31
706.597	52.11
706.917	51.37
707.237	50.77
707.556	51.33
707.876	51.68
708.195	51.75
708.514	51.63
708.834	51.76
709.153	51.48
709.472	51.86
709.791	51.79
710.11	51.68
710.429	51.75
710.748	52.39
711.067	51.94
711.386	51.92
711.705	51.01
712.023	53.33
712.342	51.83
712.661	52.57
712.979	51.4
713.298	53.18
713.616	52.49
713.935	52.69
714.253	52.79
714.572	53.16
714.89	53.19
715.208	53.09
715.526	52.74
715.844	53
716.162	51.9
716.48	53.14
716.798	53.11
717.116	53.65
717.434	53.17
717.752	52.61
718.069	53.12
718.387	53.13
718.705	52.75
719.022	54.3
719.34	52.67
719.657	53.16
719.975	52.74
720.292	52.99
720.609	52.87
720.927	52.75
721.244	53.24
721.561	52.66
721.878	53.93
722.195	54.27
722.512	52.6
722.829	53.74
723.146	55.26
723.463	53.81
723.779	53.17
724.096	53.67
724.413	54.01
724.729	55.2
725.046	54.37
725.362	55.17
725.679	53.32
725.995	53.25
726.311	53.8
726.628	53.6
726.944	54.73
727.26	53.39
727.576	52.83
727.892	54.33
728.208	54.27
728.524	53.74
728.84	54.49
729.156	55.44
729.472	55.23
729.787	54.18
730.103	54.44
730.419	54.44
730.734	53.93
731.05	55.44
731.365	53.41
731.681	55.56
731.996	56.28
732.311	54.13
732.626	55.02
732.942	54.2
733.257	53.33
733.572	54.74
733.887	54.36
734.202	54.9
734.517	54.44
734.832	55.12
735.146	54.72
735.461	53.94
735.776	54.4
736.091	54.86
736.405	54.72
736.72	55.86
737.034	56.34
737.349	55.48
737.663	53.15
737.977	55.36
738.292	55.36
738.606	53.92
738.92	54.93
739.234	56.23
739.548	55.42
739.862	54.16
740.176	55.36
740.49	56.03
740.804	56.49
741.117	55.56
741.431	56.2
741.745	55.99
742.058	55.85
742.372	55.44
742.685	55.91
742.999	55.4
743.312	55.54
743.626	55.53
743.939	55.65
744.252	55.14
744.565	54.67
744.878	55.47
745.191	54.47
745.505	55.61
745.817	55.08
746.13	55.92
746.443	57.29
746.756	55.65
747.069	54.76
747.381	55.17
747.694	56.91
748.007	56.1
748.319	57.81
748.632	56.11
748.944	56.69
749.256	56.82
749.569	56.98
749.881	56.39
750.193	56.4
750.505	55.39
750.817	55.85
751.129	54.7
751.441	55.86
751.753	55.46
752.065	57.32
752.377	57.08
752.689	58.07
753	56.98
753.312	56.66
753.624	56.84
753.935	56.97
754.247	57.95
754.558	55.95
754.869	56.33
755.181	57.93
755.492	58.33
755.803	55.75
756.114	57.01
756.425	57.02
756.736	58.17
757.047	57.63
757.358	56.07
757.669	57.39
757.98	55.62
758.291	56.89
758.601	56.57
758.912	57.71
759.223	55.49
759.533	58.18
759.844	56.71
760.154	58.43
760.464	57.53
760.775	57.92
761.085	59.1
761.395	59.07
761.705	58.22
762.016	56.91
762.326	57.12
762.636	57.32
762.945	57.82
763.255	58.08
763.565	58.46
763.875	57
764.185	57.91
764.494	59
764.804	57.13
765.113	58.24
765.423	58.37
765.732	58
766.042	59.17
766.351	58.22
766.66	57.28
766.97	57.68
767.279	57.76
767.588	58.61
767.897	57.98
768.206	57.36
768.515	57.63
768.824	58.29
769.133	57.81
769.441	58.36
769.75	59.61
770.059	60.54
770.367	60.41
770.676	61.18
770.984	57.39
771.293	56.28
771.601	59.84
771.91	59.92
772.218	60.17
772.526	59.39
772.834	59.93
773.142	56.51
773.45	52.64
773.758	58.18
774.066	58.06
774.374	56.45
774.682	57.13
774.99	58.65
775.298	58.23
775.605	60.31
775.913	60.57
776.22	56.59
776.528	57.45
776.835	58.06
777.143	58.57
777.45	59.5
777.757	60.24
778.065	60.74
778.372	58.07
778.679	59.25
778.986	56.51
779.293	57.28
779.6	57.61
779.907	58.27
780.214	56.4
780.52	59.45
780.827	60.4
781.134	58.38
781.44	60.74
781.747	59.73
782.053	59.52
782.36	61.59
782.666	59.83
782.973	54.83
783.279	56.32
783.585	62.1
783.891	57.18
784.197	61.33
784.503	60.14
784.809	56.09
785.115	59.42
785.421	61.81
785.727	58.66
786.033	62.22
786.339	55.23
786.644	59.08
786.95	63.47
787.255	58.09
787.561	53.39
787.866	59.86
788.172	59.31
788.477	53.74
788.782	58.36
789.088	58.18
789.393	60.14
789.698	60.79
790.003	62.38
790.308	63.99
790.613	61.89
790.918	62.9
791.223	61.31
791.527	60.57
791.832	61.18
792.137	62.57
792.441	63.18
792.746	60.06
793.05	56.75
793.355	61.97
793.659	61.61
793.963	63.82
794.268	55.24
794.572	57.42
794.876	63.07
795.18	63.29
795.484	60.81
795.788	60.1
796.092	57.91
796.396	57.27
796.7	61.85
797.004	62.83
797.307	60.24
797.611	59.59
797.915	59.03
798.218	55.69
798.522	61.91
798.825	64.65
799.128	61.74
799.432	60.88
799.735	58.62
800.038	60.29
800.341	58.18
800.644	65.33
800.947	58.65
801.25	62.66
801.553	64.7
801.856	61.52
802.159	57.66
802.462	62.2
802.764	58.89
803.067	60.16
803.37	58.38
803.672	62.23
803.975	62.71
804.277	56.84
804.579	61.18
804.882	59.57
805.184	57.02
805.486	57.18
805.788	66.36
806.09	60.31
806.392	57.28
806.694	59.23
806.996	61.3
807.298	60.25
807.6	60.1
807.902	60.34
808.203	65.71
808.505	58.79
808.807	56.08
809.108	59.87
809.409	62
809.711	61.91
810.012	62.56
810.313	60.96
810.615	54.01
810.916	59.28
811.217	56.76
811.518	59.67
811.819	61.92
812.12	62.59
812.421	56.43
812.722	59.72
813.023	66.52
813.323	60.38
813.624	66.73
813.925	59.5
814.225	62.36
814.526	62.98
814.826	60.06
815.126	67.91
815.427	62.19
815.727	70.9
816.027	63.99
816.327	62.22
816.627	65.1
816.927	57.4
817.227	62.78
817.527	64.42
817.827	62.95
818.127	56.94
818.427	65.72
818.727	64.35
819.026	58.27
819.326	66.46
819.625	59.77
819.925	64.6
820.224	62.65
820.524	63.63
820.823	59.24
821.122	55.39
821.421	69.53
821.72	65.94
822.019	63.63
822.318	66.43
822.617	64.04
822.916	63.27
823.215	62.99
823.514	63.53
823.813	61.35
824.111	65.68
824.41	63.97
824.709	63.35
825.007	61.32
825.306	64.24
825.604	62.19
825.902	62.22
826.201	61.75
826.499	63.66
826.797	62.38
827.095	60.6
827.393	61.71
827.691	63.31
827.989	62.84
828.287	64.72
828.585	62.02
828.882	61.45
829.18	62.32
829.478	62.16
829.775	63.37
830.073	63.8
830.37	63.15
830.668	64.74
830.965	64.31
831.263	61.07
831.56	62.55
831.857	63.86
832.154	66.35
832.451	67.81
832.748	64.54
833.045	61.38
833.342	68.66
833.639	64.46
833.936	64.05
834.232	64.12
834.529	69.17
834.826	63.05
835.122	62.7
835.419	65.92
835.715	67.65
836.012	66.69
836.308	59.55
836.604	61.42
836.901	59.99
837.197	61.28
837.493	65.97
837.789	64.37
838.085	62.75
838.381	63.92
838.677	68.31
838.972	67.52
839.268	62.84
839.564	62.26
839.86	66.17
840.155	64.77
840.451	67.66
840.746	66.05
841.042	66.55
841.337	61.13
841.632	64.76
841.928	59.38
842.223	64.71
842.518	65.31
842.813	61.82
843.108	70.85
843.403	65.17
843.698	61.6
843.993	65.65
844.287	57.35
844.582	62.82
844.877	66.04
845.171	58.39
845.466	66.93
845.761	64.31
846.055	68.16
846.349	73.41
846.644	67.06
846.938	79.7
847.232	73.92
847.526	69.04
847.82	52.57
848.114	76.6
848.408	76.19
848.702	57.37
848.996	66.08
849.29	57.53
849.584	66.54
849.877	81.82
850.171	63.8
850.465	55.28
850.758	83.65
851.052	57.86
851.345	62.87
851.638	60.45
851.932	83.58
852.225	84.25
852.518	63.58
852.811	71.19
853.104	92.56
853.397	66.74
853.69	66.43
853.983	92.64
854.276	68.05
854.569	60
854.861	78.27
855.154	59.03
855.447	64.08
855.739	61.29
856.032	52.76
856.324	48.08
856.616	40.51
856.909	72.16
857.201	70.17
857.493	60.3
857.785	65.9
858.077	74.93
858.369	57.92
858.661	72.46
858.953	82.62
859.245	67.3
859.537	66.17
859.829	70.3
860.12	66.32
860.412	72.46
860.703	72.17
860.995	86.66
861.286	68.91
861.578	73.67
861.869	48.74
862.16	73.14
862.452	68.53
862.743	72.67
863.034	55.36
863.325	52.89
863.616	51.82
863.907	56.67
864.198	75.91
864.488	54.76
864.779	60.93
865.07	74.16
865.36	59.07
865.651	78.38
865.941	98.04
866.232	81.49
866.522	80.33
866.813	58.22
867.103	61.02
867.393	112.63
867.683	62.28
867.973	70.38
868.263	67.27
868.553	69.7
868.843	68.96
869.133	74.94
869.423	56.4
869.713	71.54
870.002	65.95
870.292	64.87
870.582	84.72
870.871	60.69
871.161	55.49
871.45	85.11
871.739	90.72
872.029	57.95
872.318	91.54
872.607	70.86
872.896	75.08
873.185	61.42
873.474	51.34
873.763	59.45
874.052	74.29
874.341	60.24
874.63	66.76
874.918	105.32
875.207	65.92
875.496	63.55
875.784	35.56
876.073	79.25
876.361	77.92
876.649	59.51
876.938	57.56
877.226	56.53
877.514	88.29
877.802	43.55
878.09	58.94
878.378	60.62
878.666	61.78
878.954	71.14
879.242	73.69
879.53	73.18
879.817	53.86
880.105	65.03
880.392	70.85
880.68	77.15
880.967	86.7
881.255	58.32
881.542	69.58
881.83	48.57
882.117	99.13
882.404	58.74
882.691	59.4
882.978	45.27
883.265	81.53
883.552	60.38
883.839	62.71
884.126	81.66
884.413	81.43
884.699	62.2
884.986	69.67
885.273	69.43
885.559	69.43
885.846	69.43
