Data from 20-8_forehead_Reflection__3__119.txt Node

Date: Fri Nov 11 21:01:52 CST 2022
User: ToomeyLab
Spectrometer: FLMS14357
Trigger mode: 0
Integration Time (sec): 1.000000E-2
Scans to average: 100
Electric dark correction enabled: true
Nonlinearity correction enabled: false
Boxcar width: 0
XAxis mode: Wavelengths
Number of Pixels in Spectrum: 2048
>>>>>Begin Spectral Data<<<<<
189.047	464.35
189.435	464.35
189.823	464.35
190.211	-39.64
190.599	-482.49
190.987	66.12
191.375	52.51
191.763	-209.14
192.151	-26.84
192.538	52.25
192.926	26.39
193.314	15.27
193.702	69.5
194.089	97.66
194.477	48.83
194.864	202.39
195.252	145.92
195.639	31.77
196.027	75.21
196.414	37.46
196.801	284.1
197.189	152.33
197.576	161.16
197.963	-1973.2
198.351	-53.84
198.738	-16.3
199.125	20.19
199.512	7.45
199.899	-79.13
200.286	20.23
200.673	-10.11
201.06	58.74
201.447	28.4
201.833	7.91
202.22	-43.34
202.607	57.34
202.994	36.25
203.38	12.27
203.767	6.16
204.154	32.42
204.54	37.75
204.927	-25.36
205.313	-5.81
205.699	-15.82
206.086	23.21
206.472	24.99
206.858	18.64
207.245	43.39
207.631	21.52
208.017	25.99
208.403	16.25
208.789	18.31
209.175	5.93
209.561	32.91
209.947	-6.8
210.333	-0.58
210.719	22.08
211.105	36.93
211.491	35.46
211.876	1.82
212.262	9.24
212.648	-39.05
213.034	-40.68
213.419	-54.61
213.805	-16.42
214.19	15.89
214.576	13.94
214.961	-39.98
215.346	-1.16
215.732	-17.47
216.117	53.27
216.502	-12.12
216.888	-11.39
217.273	21.31
217.658	0.53
218.043	30.05
218.428	12.68
218.813	1.78
219.198	-10.35
219.583	7.4
219.968	24.01
220.353	-16.57
220.738	5.98
221.122	4.01
221.507	-27.45
221.892	-4.37
222.276	-0.39
222.661	18.96
223.046	-6.39
223.43	-12.54
223.815	21.17
224.199	4.29
224.583	0.03
224.968	-4.4
225.352	8.09
225.736	-0.85
226.121	5.96
226.505	3.21
226.889	-10.46
227.273	6.38
227.657	-4.73
228.041	0.01
228.425	-0.16
228.809	-1.62
229.193	7.44
229.577	4.54
229.961	3.28
230.344	3.35
230.728	1.86
231.112	1.41
231.495	2.62
231.879	1.84
232.263	1
232.646	1.75
233.03	2.85
233.413	1.48
233.797	3.18
234.18	2.93
234.563	3.35
234.946	3.05
235.33	4.33
235.713	2.78
236.096	1.47
236.479	2.26
236.862	3.24
237.245	3.63
237.628	3.84
238.011	3.8
238.394	2.6
238.777	2.18
239.16	3.25
239.543	0.74
239.925	3.63
240.308	2.18
240.691	4.1
241.073	3.06
241.456	1.29
241.838	4.77
242.221	2.62
242.603	3.29
242.986	2.1
243.368	3.47
243.75	2.84
244.133	2.92
244.515	2.07
244.897	2.7
245.279	2.95
245.661	2.79
246.043	2.56
246.425	3.67
246.807	3.4
247.189	2.05
247.571	2.52
247.953	2.93
248.335	2.85
248.717	3
249.098	3.19
249.48	2.44
249.862	3.13
250.243	2.97
250.625	2.61
251.006	3.9
251.388	3.46
251.769	2.97
252.151	3.37
252.532	2.86
252.913	2.84
253.295	2.99
253.676	2.41
254.057	2.69
254.438	3.12
254.819	2.31
255.2	3.45
255.581	3.02
255.962	2.96
256.343	2.4
256.724	2.25
257.105	2.72
257.486	2.8
257.867	3.6
258.247	1.88
258.628	1.92
259.009	2.61
259.389	3.01
259.77	3.48
260.15	2.47
260.531	2.72
260.911	2.94
261.292	2.86
261.672	2.69
262.052	2.87
262.432	3.13
262.813	3.01
263.193	3.19
263.573	2.91
263.953	3.16
264.333	2.57
264.713	2.27
265.093	2.88
265.473	2.04
265.853	2.91
266.233	2.28
266.612	1.77
266.992	2.06
267.372	3.44
267.752	2.86
268.131	2.83
268.511	3.06
268.89	2.86
269.27	2.98
269.649	2.59
270.029	3.45
270.408	2.72
270.787	2.53
271.167	2.31
271.546	2.7
271.925	3.27
272.304	3.2
272.683	2.84
273.062	2.77
273.441	2.83
273.82	2.48
274.199	2.48
274.578	2.32
274.957	2.73
275.336	3.04
275.715	2.77
276.093	2.77
276.472	2.35
276.851	2.36
277.229	2.5
277.608	2.56
277.986	2.42
278.365	2.39
278.743	2.6
279.122	2.72
279.5	2.55
279.878	3.16
280.257	3.04
280.635	2.77
281.013	2.75
281.391	2.65
281.769	2.53
282.147	2.94
282.525	2.27
282.903	2.26
283.281	2.64
283.659	3
284.037	2.88
284.415	2.81
284.792	2.74
285.17	2.98
285.548	2.46
285.925	2.42
286.303	2.43
286.68	2.59
287.058	2.87
287.435	2.82
287.813	2.95
288.19	2.55
288.567	2.88
288.945	3.29
289.322	3.35
289.699	2.26
290.076	3.51
290.453	2.77
290.83	2.82
291.207	2.75
291.584	2.97
291.961	2.91
292.338	3.25
292.715	3.12
293.092	3.06
293.469	2.76
293.845	2.82
294.222	2.95
294.599	3.21
294.975	3.19
295.352	3.19
295.728	3.2
296.105	2.97
296.481	2.66
296.858	2.87
297.234	2.65
297.61	3.01
297.986	3.4
298.363	3.42
298.739	3.29
299.115	3.43
299.491	3.48
299.867	3.28
300.243	3.63
300.619	3.59
300.995	3.99
301.371	4.07
301.746	4.18
302.122	3.51
302.498	3.84
302.874	3.94
303.249	3.55
303.625	3.25
304	3.11
304.376	3.78
304.751	3.46
305.127	3.67
305.502	3.83
305.878	4.22
306.253	3.79
306.628	3.81
307.003	4.16
307.378	4.15
307.754	4.06
308.129	4.04
308.504	3.76
308.879	4.25
309.254	4.16
309.629	3.61
310.003	4.27
310.378	4.49
310.753	4.48
311.128	4.22
311.502	4.35
311.877	4.12
312.252	4.29
312.626	4.27
313.001	4.35
313.375	4.33
313.75	4.61
314.124	4.04
314.498	4.67
314.873	4.46
315.247	4.6
315.621	4.71
315.995	4.82
316.369	4.9
316.743	4.53
317.117	4.89
317.491	4.83
317.865	4.52
318.239	4.75
318.613	4.96
318.987	5.08
319.361	4.65
319.734	4.89
320.108	4.81
320.482	5.34
320.855	4.99
321.229	4.96
321.602	4.83
321.976	4.91
322.349	5.24
322.723	5.61
323.096	5.05
323.469	5.66
323.843	5.33
324.216	5.31
324.589	6.16
324.962	5.4
325.335	5.02
325.708	5.52
326.081	5.67
326.454	5.18
326.827	5
327.2	5.8
327.573	6.38
327.945	5.64
328.318	5.73
328.691	5.62
329.063	5.7
329.436	5.56
329.809	5.48
330.181	5.75
330.553	5.29
330.926	5.33
331.298	5.65
331.671	5.76
332.043	5.44
332.415	5.18
332.787	5.69
333.159	5.67
333.532	5.92
333.904	5.69
334.276	6.12
334.648	6.06
335.02	6
335.391	6.17
335.763	5.84
336.135	5.61
336.507	5.94
336.879	5.84
337.25	6.02
337.622	6.16
337.993	6.41
338.365	6.49
338.736	6.35
339.108	5.93
339.479	5.79
339.851	6.27
340.222	6.4
340.593	7.09
340.964	6.39
341.336	6.51
341.707	6.09
342.078	5.89
342.449	6.1
342.82	6.47
343.191	6.53
343.562	6.48
343.933	6.48
344.303	5.93
344.674	6.81
345.045	5.94
345.416	6.83
345.786	6.36
346.157	6.75
346.527	6.57
346.898	6.14
347.268	6.46
347.639	6.89
348.009	6.63
348.38	6.9
348.75	6.69
349.12	7.24
349.49	7
349.861	6.88
350.231	6.96
350.601	6.61
350.971	6.85
351.341	7.27
351.711	7.07
352.081	6.68
352.45	7.12
352.82	6.68
353.19	6.95
353.56	7.14
353.929	7.02
354.299	6.98
354.669	7.35
355.038	7.16
355.408	7.42
355.777	7
356.147	6.97
356.516	7.2
356.885	7.3
357.254	7.07
357.624	6.89
357.993	7.31
358.362	7.67
358.731	6.93
359.1	7.18
359.469	6.91
359.838	7.03
360.207	7.58
360.576	7.36
360.945	7.61
361.314	7.39
361.682	6.91
362.051	7.32
362.42	7.71
362.788	7.7
363.157	7.48
363.525	7.26
363.894	7.37
364.262	7.51
364.631	7.7
364.999	7.61
365.367	7.75
365.735	7.44
366.104	7.48
366.472	7.74
366.84	7.48
367.208	7.61
367.576	7.82
367.944	7.87
368.312	7.76
368.68	7.93
369.048	7.83
369.416	7.79
369.783	8.05
370.151	8.06
370.519	8.03
370.886	7.96
371.254	8.08
371.621	7.69
371.989	7.93
372.356	8.18
372.724	8.41
373.091	8.3
373.458	8.26
373.826	8
374.193	7.82
374.56	7.92
374.927	8.06
375.294	8.48
375.661	8.39
376.028	8.26
376.395	8.36
376.762	8.48
377.129	8.17
377.496	8.27
377.863	8.45
378.229	8.47
378.596	8.39
378.963	8.59
379.329	8.55
379.696	8.35
380.062	8.44
380.429	8.4
380.795	8.66
381.161	8.75
381.528	8.5
381.894	8.6
382.26	8.88
382.626	8.72
382.993	8.33
383.359	8.69
383.725	8.25
384.091	8.75
384.457	8.8
384.823	8.56
385.188	8.64
385.554	8.52
385.92	8.55
386.286	8.41
386.651	8.79
387.017	8.42
387.383	9.01
387.748	8.39
388.114	8.7
388.479	8.48
388.845	8.71
389.21	8.67
389.575	8.77
389.94	8.65
390.306	8.89
390.671	8.77
391.036	8.48
391.401	8.76
391.766	8.83
392.131	8.72
392.496	8.73
392.861	8.76
393.226	8.65
393.591	8.66
393.956	8.75
394.32	8.54
394.685	8.97
395.05	8.79
395.414	8.78
395.779	8.83
396.143	8.71
396.508	8.85
396.872	8.72
397.236	8.67
397.601	8.69
397.965	8.82
398.329	8.93
398.694	8.84
399.058	8.71
399.422	8.81
399.786	8.62
400.15	8.89
400.514	8.91
400.878	8.96
401.242	8.73
401.605	9
401.969	8.67
402.333	8.51
402.697	8.81
403.06	8.79
403.424	8.74
403.787	8.91
404.151	8.81
404.514	8.89
404.878	8.71
405.241	8.58
405.604	8.54
405.968	8.46
406.331	8.52
406.694	8.56
407.057	8.61
407.42	8.72
407.783	8.67
408.146	8.83
408.509	8.64
408.872	8.66
409.235	8.62
409.598	8.71
409.961	8.72
410.323	8.59
410.686	8.72
411.049	8.62
411.411	8.78
411.774	8.7
412.136	8.54
412.499	8.75
412.861	8.72
413.223	8.53
413.586	8.55
413.948	8.92
414.31	9.08
414.672	8.83
415.035	8.84
415.397	8.58
415.759	8.64
416.121	8.92
416.483	8.77
416.845	8.84
417.206	8.7
417.568	8.79
417.93	8.86
418.292	8.78
418.653	9
419.015	9.09
419.377	8.87
419.738	8.94
420.1	8.94
420.461	9.03
420.822	8.89
421.184	8.97
421.545	9.01
421.906	9.06
422.267	9
422.629	8.98
422.99	9.09
423.351	9.16
423.712	9.21
424.073	9.27
424.434	9.55
424.795	9.46
425.155	9.42
425.516	9.53
425.877	9.54
426.238	9.45
426.598	9.54
426.959	9.64
427.32	9.8
427.68	9.92
428.041	10.1
428.401	9.91
428.761	10.24
429.122	10.08
429.482	10.46
429.842	10.11
430.202	10.45
430.563	10.64
430.923	10.66
431.283	10.59
431.643	10.65
432.003	10.79
432.363	10.56
432.722	10.85
433.082	10.8
433.442	11
433.802	10.9
434.161	10.99
434.521	11.02
434.881	11.15
435.24	11.01
435.6	11.22
435.959	11.29
436.319	11.33
436.678	11.34
437.037	11.52
437.396	11.52
437.756	11.53
438.115	11.61
438.474	11.74
438.833	11.43
439.192	11.93
439.551	11.89
439.91	11.85
440.269	11.77
440.628	12.01
440.987	12.01
441.345	11.96
441.704	11.94
442.063	12.07
442.421	12.05
442.78	11.94
443.138	12.13
443.497	12.13
443.855	12.31
444.214	12.44
444.572	12.46
444.93	12.39
445.288	12.55
445.647	12.62
446.005	12.62
446.363	12.69
446.721	12.72
447.079	12.73
447.437	12.5
447.795	12.7
448.153	12.59
448.51	12.66
448.868	12.72
449.226	12.8
449.584	12.88
449.941	12.94
450.299	13.05
450.656	13.15
451.014	13.26
451.371	13.2
451.729	13.28
452.086	13.48
452.443	13.44
452.801	13.48
453.158	13.53
453.515	13.55
453.872	13.57
454.229	13.66
454.586	13.58
454.943	13.7
455.3	13.85
455.657	13.69
456.014	14.11
456.371	13.81
456.727	14.18
457.084	13.87
457.441	14.22
457.797	14.31
458.154	14.37
458.51	14.35
458.867	14.27
459.223	14.47
459.58	14.32
459.936	14.36
460.292	14.43
460.648	14.48
461.005	14.29
461.361	14.28
461.717	14.27
462.073	14.47
462.429	14.47
462.785	14.53
463.141	14.69
463.496	14.8
463.852	14.99
464.208	15.03
464.564	15.07
464.919	15.2
465.275	15.06
465.631	15.08
465.986	15.53
466.342	15.21
466.697	15.26
467.052	15.32
467.408	15.39
467.763	15.35
468.118	15.62
468.473	15.5
468.829	15.6
469.184	15.47
469.539	15.75
469.894	15.82
470.249	15.91
470.603	15.72
470.958	15.86
471.313	15.95
471.668	16.15
472.023	15.93
472.377	15.98
472.732	16.1
473.086	16.1
473.441	15.96
473.795	16.09
474.15	16.31
474.504	16.45
474.859	16.29
475.213	16.39
475.567	16.44
475.921	16.63
476.275	16.47
476.63	16.67
476.984	16.63
477.338	16.71
477.692	16.59
478.045	16.65
478.399	16.82
478.753	16.72
479.107	16.86
479.461	16.92
479.814	16.87
480.168	16.9
480.521	16.87
480.875	17
481.228	17.02
481.582	17.28
481.935	17.07
482.289	17.1
482.642	17.18
482.995	17.11
483.348	17.08
483.701	17.19
484.055	17.13
484.408	16.97
484.761	16.8
485.114	16.56
485.466	16.47
485.819	16.51
486.172	16.63
486.525	16.79
486.878	16.95
487.23	17.02
487.583	17.14
487.936	17.27
488.288	17.2
488.641	17.09
488.993	17.14
489.345	17.08
489.698	17.09
490.05	17.12
490.402	17.27
490.754	17.47
491.107	17.48
491.459	17.71
491.811	17.85
492.163	17.91
492.515	17.84
492.866	17.74
493.218	17.56
493.57	17.56
493.922	17.67
494.274	17.87
494.625	18.02
494.977	18.33
495.328	18.39
495.68	18.65
496.031	18.59
496.383	18.78
496.734	18.86
497.086	18.81
497.437	18.81
497.788	18.73
498.139	18.9
498.49	18.64
498.842	18.66
499.193	18.84
499.544	18.93
499.894	19
500.245	19.07
500.596	19.24
500.947	19.05
501.298	19.24
501.648	19.25
501.999	19.4
502.35	19.46
502.7	19.5
503.051	19.42
503.401	19.63
503.752	19.51
504.102	19.53
504.452	19.73
504.803	19.74
505.153	19.62
505.503	19.86
505.853	19.77
506.203	19.83
506.553	19.75
506.903	19.75
507.253	20.02
507.603	19.91
507.953	19.86
508.303	19.8
508.652	20
509.002	20.07
509.352	19.88
509.701	20.04
510.051	19.97
510.4	20.07
510.75	20.01
511.099	19.93
511.449	19.94
511.798	19.99
512.147	20.07
512.496	20.04
512.846	20.36
513.195	20.26
513.544	20.19
513.893	20.23
514.242	20.24
514.591	20.08
514.939	20.45
515.288	20.43
515.637	20.35
515.986	20.4
516.334	20.58
516.683	20.62
517.032	20.65
517.38	20.69
517.729	20.7
518.077	20.74
518.426	20.79
518.774	20.71
519.122	20.78
519.47	20.53
519.819	20.43
520.167	20.37
520.515	20.24
520.863	20.27
521.211	20.49
521.559	20.48
521.907	20.66
522.255	20.79
522.602	20.9
522.95	20.9
523.298	21.02
523.645	21
523.993	21.01
524.341	21.01
524.688	21.13
525.036	21.02
525.383	21.12
525.73	21.2
526.078	21.07
526.425	21.04
526.772	20.78
527.119	20.73
527.466	20.71
527.814	20.81
528.161	20.86
528.508	20.87
528.854	20.87
529.201	20.96
529.548	20.68
529.895	20.44
530.242	20.35
530.588	20.44
530.935	20.5
531.282	20.63
531.628	20.74
531.975	20.9
532.321	20.99
532.667	21.06
533.014	21.21
533.36	21.23
533.706	21.36
534.052	21.36
534.399	21.19
534.745	20.93
535.091	20.99
535.437	21.01
535.783	21.13
536.129	21.38
536.474	21.48
536.82	21.53
537.166	21.72
537.512	21.73
537.857	21.63
538.203	21.58
538.549	21.58
538.894	21.66
539.239	21.75
539.585	21.87
539.93	21.94
540.276	22.2
540.621	22.37
540.966	22.44
541.311	22.46
541.656	22.21
542.001	22.13
542.346	22.05
542.691	21.79
543.036	21.47
543.381	21.58
543.726	21.8
544.071	21.9
544.415	22.08
544.76	22.15
545.105	22.27
545.449	22.39
545.794	22.57
546.138	22.65
546.483	22.77
546.827	22.82
547.171	22.85
547.516	22.71
547.86	22.75
548.204	22.83
548.548	22.83
548.892	22.85
549.236	22.88
549.58	23.09
549.924	23.25
550.268	23.32
550.612	23.39
550.956	23.69
551.3	23.54
551.643	23.56
551.987	23.66
552.33	23.71
552.674	23.61
553.017	24.03
553.361	23.81
553.704	23.86
554.048	23.79
554.391	23.82
554.734	23.69
555.077	23.97
555.42	23.93
555.764	24.06
556.107	24.18
556.45	24.42
556.793	24.28
557.135	24.12
557.478	24.37
557.821	24.43
558.164	24.4
558.507	24.45
558.849	24.59
559.192	24.56
559.534	24.55
559.877	24.86
560.219	24.61
560.562	24.63
560.904	24.81
561.246	24.66
561.589	24.75
561.931	24.93
562.273	24.91
562.615	24.7
562.957	25.12
563.299	24.92
563.641	24.84
563.983	24.92
564.325	24.96
564.667	25.24
565.008	25.29
565.35	25.27
565.692	25.01
566.033	25.13
566.375	25.25
566.716	25.33
567.058	25.28
567.399	25.2
567.741	25.33
568.082	25.22
568.423	25.16
568.764	25.44
569.105	25.3
569.447	25.53
569.788	25.68
570.129	25.59
570.47	25.52
570.811	25.72
571.151	25.76
571.492	25.82
571.833	25.75
572.174	26.09
572.514	25.97
572.855	26.06
573.195	25.79
573.536	26.02
573.876	26.02
574.217	25.97
574.557	25.88
574.898	26.23
575.238	26.36
575.578	26.27
575.918	26.47
576.258	26.62
576.598	26.41
576.938	26.35
577.278	26.27
577.618	26.65
577.958	26.58
578.298	26.71
578.638	26.78
578.977	26.94
579.317	27.05
579.657	27.11
579.996	27.24
580.336	26.72
580.675	27.43
581.014	27.53
581.354	27.27
581.693	27.39
582.032	27.4
582.372	27.64
582.711	27.51
583.05	27.87
583.389	27.7
583.728	27.78
584.067	27.9
584.406	27.8
584.745	27.89
585.083	27.82
585.422	28.01
585.761	28.09
586.1	28.16
586.438	28.18
586.777	28.44
587.115	28.45
587.454	28
587.792	28.12
588.13	28.35
588.469	28.57
588.807	28.66
589.145	28.46
589.483	28.61
589.821	29.03
590.159	28.77
590.497	28.89
590.835	28.9
591.173	28.8
591.511	28.71
591.849	29.04
592.187	29.09
592.524	28.97
592.862	29.23
593.2	29.2
593.537	29.25
593.875	29.33
594.212	29.36
594.55	29.28
594.887	29.63
595.224	29.45
595.561	29.49
595.899	29.54
596.236	29.53
596.573	29.62
596.91	29.9
597.247	29.8
597.584	29.72
597.921	29.56
598.258	29.73
598.594	29.78
598.931	29.48
599.268	29.97
599.604	29.91
599.941	29.95
600.277	30.18
600.614	30.27
600.95	30.1
601.287	30.35
601.623	30.99
601.959	30.58
602.296	30.7
602.632	30.62
602.968	30.82
603.304	30.9
603.64	30.96
603.976	30.69
604.312	30.74
604.648	30.95
604.984	30.64
605.319	30.88
605.655	30.62
605.991	30.83
606.326	30.92
606.662	31.02
606.998	30.73
607.333	31.06
607.668	31.22
608.004	30.9
608.339	31.4
608.674	31.49
609.01	31.44
609.345	31.73
609.68	31.73
610.015	31.81
610.35	31.63
610.685	31.79
611.02	31.65
611.355	31.47
611.689	31.59
612.024	31.71
612.359	31.84
612.694	31.99
613.028	32.04
613.363	32.21
613.697	32.54
614.032	32.37
614.366	32.24
614.7	32.27
615.035	32.67
615.369	32.46
615.703	32.43
616.037	32.36
616.371	32.85
616.705	32.71
617.039	33.2
617.373	32.67
617.707	32.86
618.041	33.11
618.375	32.85
618.709	33.22
619.042	33.05
619.376	33.1
619.71	33.63
620.043	32.89
620.377	33.4
620.71	33.14
621.043	33.2
621.377	33.02
621.71	33.44
622.043	33.35
622.376	33.94
622.709	33.53
623.043	33.54
623.376	33.71
623.709	33.72
624.041	33.84
624.374	33.83
624.707	33.86
625.04	34.24
625.373	33.84
625.705	34.11
626.038	34.49
626.37	34.8
626.703	34.24
627.035	34.11
627.368	33.87
627.7	34.26
628.032	34.33
628.365	34.55
628.697	34.34
629.029	34.48
629.361	34.14
629.693	34.61
630.025	34.34
630.357	34.97
630.689	34.94
631.021	34.56
631.353	35.03
631.684	34.79
632.016	35.22
632.348	34.48
632.679	34.78
633.011	35.01
633.342	35.45
633.674	35.01
634.005	35.26
634.336	35.23
634.668	35.18
634.999	35.54
635.33	35.44
635.661	35.57
635.992	35.44
636.323	35.57
636.654	35.64
636.985	35.84
637.316	35.8
637.647	35.99
637.977	36.02
638.308	36.29
638.639	35.99
638.969	35.87
639.3	36.56
639.63	36.51
639.961	36.17
640.291	36.7
640.622	36.56
640.952	36.44
641.282	36.43
641.612	36.97
641.943	37.06
642.273	37.1
642.603	36.68
642.933	36.59
643.263	36.94
643.592	36.79
643.922	36.97
644.252	36.95
644.582	37.74
644.911	36.78
645.241	37.16
645.571	37.6
645.9	38.08
646.23	37.09
646.559	37.69
646.888	38.34
647.218	37.48
647.547	37.63
647.876	37.03
648.205	37.76
648.534	37.31
648.863	37.52
649.192	37.27
649.521	38.34
649.85	38.27
650.179	38.11
650.508	37.75
650.837	38.43
651.165	38.16
651.494	38.34
651.822	38.04
652.151	38.2
652.479	38.03
652.808	38.06
653.136	38.23
653.465	39.02
653.793	38.99
654.121	38.86
654.449	38.41
654.777	39
655.105	38.6
655.433	39.2
655.761	39.28
656.089	39.03
656.417	39.06
656.745	39.45
657.073	38.95
657.4	39.2
657.728	39.15
658.056	39.85
658.383	39.5
658.711	38.7
659.038	39.53
659.365	38.7
659.693	39.43
660.02	39.85
660.347	39.23
660.674	39.66
661.001	39.64
661.329	39.43
661.656	39.64
661.982	39.8
662.309	39.51
662.636	39.93
662.963	39.59
663.29	39.79
663.616	40.1
663.943	40.22
664.27	39.98
664.596	40.94
664.923	40.65
665.249	40.66
665.576	40.69
665.902	40.76
666.228	40.85
666.554	40.54
666.881	40.93
667.207	40.39
667.533	40.85
667.859	41.19
668.185	41.33
668.511	40.73
668.837	41.36
669.162	41.52
669.488	41.52
669.814	41.26
670.139	40.94
670.465	41.12
670.791	40.72
671.116	41.39
671.442	41.7
671.767	41.53
672.092	41.07
672.418	41.17
672.743	42.2
673.068	41.25
673.393	41.96
673.718	41.75
674.043	41.62
674.368	41.9
674.693	41.73
675.018	41.64
675.343	42.02
675.667	42
675.992	42.34
676.317	41.57
676.641	41.84
676.966	42.37
677.29	42.55
677.615	41.97
677.939	41.83
678.264	42.17
678.588	42.05
678.912	42.78
679.236	42.96
679.56	42.85
679.885	42.43
680.209	42.74
680.532	42.33
680.856	43.18
681.18	42.6
681.504	42.83
681.828	42.71
682.152	43.23
682.475	42.67
682.799	43.04
683.122	43.21
683.446	43.01
683.769	43.26
684.093	43.55
684.416	43.19
684.739	43.34
685.062	42.81
685.386	44.19
685.709	43.55
686.032	43.23
686.355	44.27
686.678	43.83
687.001	43.35
687.324	43.32
687.646	43.85
687.969	44.23
688.292	44.69
688.614	43.6
688.937	44.05
689.26	43.71
689.582	44.52
689.904	44.1
690.227	44.33
690.549	44.39
690.871	44.12
691.194	43.63
691.516	43.67
691.838	44.29
692.16	43.58
692.482	44.35
692.804	44.72
693.126	44.23
693.448	44.57
693.769	43.64
694.091	45.71
694.413	45.11
694.735	44.99
695.056	44.84
695.378	45.71
695.699	44.68
696.021	44.37
696.342	44.83
696.663	45.69
696.984	45.83
697.306	45.37
697.627	45.05
697.948	44.91
698.269	45.29
698.59	44.43
698.911	45.78
699.232	44.48
699.553	45.79
699.873	44.9
700.194	44.78
700.515	44.63
700.835	45.47
701.156	45.71
701.477	45.41
701.797	45.58
702.117	46.12
702.438	46.25
702.758	45.71
703.078	45.55
703.398	45.69
703.719	45.56
704.039	46.22
704.359	45.76
704.679	45.82
704.999	46.31
705.319	45.52
705.638	45.94
705.958	46.07
706.278	47.09
706.597	47.14
706.917	46.51
707.237	45.71
707.556	46.66
707.876	46.55
708.195	46.34
708.514	47.09
708.834	46.57
709.153	46.78
709.472	46.24
709.791	47.14
710.11	47.34
710.429	47.02
710.748	46.09
711.067	47.6
711.386	47.55
711.705	47.05
712.023	47
712.342	46.4
712.661	47.28
712.979	47.02
713.298	46.54
713.616	46.71
713.935	47.2
714.253	48.26
714.572	47.2
714.89	48.54
715.208	47.87
715.526	47.14
715.844	48.01
716.162	47.19
716.48	47.62
716.798	48.72
717.116	47.12
717.434	48.3
717.752	46.46
718.069	48.57
718.387	48
718.705	47.95
719.022	49.18
719.34	48.35
719.657	48.19
719.975	47.52
720.292	47.69
720.609	47.52
720.927	47.67
721.244	48.96
721.561	47.83
721.878	49
722.195	48.92
722.512	48.12
722.829	48.79
723.146	48.32
723.463	49.09
723.779	49.43
724.096	48.48
724.413	48.3
724.729	49.22
725.046	49.53
725.362	49.44
725.679	49.58
725.995	48.86
726.311	47.71
726.628	48.46
726.944	48.06
727.26	49.67
727.576	49.1
727.892	50.19
728.208	50.16
728.524	50.31
728.84	50.17
729.156	49.8
729.472	48.6
729.787	47.95
730.103	49.12
730.419	48.49
730.734	50.33
731.05	49.56
731.365	49.26
731.681	48.48
731.996	49.49
732.311	48.4
732.626	48.68
732.942	49.2
733.257	48.81
733.572	49.78
733.887	48.84
734.202	49.72
734.517	50.18
734.832	50.59
735.146	48.66
735.461	49.13
735.776	50.59
736.091	49.43
736.405	49.81
736.72	48.95
737.034	48.82
737.349	50.07
737.663	48.3
737.977	51.18
738.292	49.74
738.606	49.45
738.92	50.31
739.234	49.74
739.548	49.29
739.862	50.4
740.176	51.54
740.49	49.45
740.804	50.32
741.117	51.44
741.431	48.93
741.745	49.93
742.058	49.44
742.372	50.2
742.685	52.2
742.999	50.65
743.312	50.6
743.626	49.97
743.939	51.1
744.252	50.87
744.565	50.66
744.878	50.96
745.191	53.11
745.505	50.79
745.817	49.42
746.13	49.54
746.443	51.42
746.756	51.95
747.069	51.31
747.381	52.57
747.694	51.3
748.007	50.82
748.319	54.75
748.632	48.41
748.944	49.13
749.256	53.39
749.569	50.69
749.881	52.84
750.193	50.68
750.505	51.89
750.817	52.42
751.129	51.84
751.441	50.58
751.753	51.68
752.065	51.34
752.377	52.32
752.689	52.39
753	50.46
753.312	49.92
753.624	52.07
753.935	50.38
754.247	50.25
754.558	50.91
754.869	51.5
755.181	50.16
755.492	51.19
755.803	50.35
756.114	51.66
756.425	53.05
756.736	49.98
757.047	52.86
757.358	52.45
757.669	51.89
757.98	53.84
758.291	51.02
758.601	52.59
758.912	52.13
759.223	51.31
759.533	52.85
759.844	51.2
760.154	51.52
760.464	50.48
760.775	51.67
761.085	52.28
761.395	52.61
761.705	52.15
762.016	52.15
762.326	52.27
762.636	51.13
762.945	52.27
763.255	51.14
763.565	53.04
763.875	52.4
764.185	52.64
764.494	52.66
764.804	53.1
765.113	53.13
765.423	53.63
765.732	52.83
766.042	53.06
766.351	53.49
766.66	54.66
766.97	53.49
767.279	53.46
767.588	51.26
767.897	54.05
768.206	54.03
768.515	52.83
768.824	53.24
769.133	54.03
769.441	53.4
769.75	53.49
770.059	52.89
770.367	53.04
770.676	53.76
770.984	51.51
771.293	52.85
771.601	55.15
771.91	55.29
772.218	50.89
772.526	49.95
772.834	52.14
773.142	52.88
773.45	54.38
773.758	53.94
774.066	56.61
774.374	52.74
774.682	53.74
774.99	53.22
775.298	53.14
775.605	52.49
775.913	55.34
776.22	54.83
776.528	55.27
776.835	56.02
777.143	56.01
777.45	55.26
777.757	57.03
778.065	53.77
778.372	54.44
778.679	55.86
778.986	56.5
779.293	53.95
779.6	52.88
779.907	53.99
780.214	54.21
780.52	51.57
780.827	53.51
781.134	52.16
781.44	55.45
781.747	51.94
782.053	53.04
782.36	56.31
782.666	53.31
782.973	51.47
783.279	54.02
783.585	50.9
783.891	52.28
784.197	52.92
784.503	53.37
784.809	58.64
785.115	53.49
785.421	52
785.727	53.09
786.033	53.77
786.339	49.48
786.644	51.08
786.95	52.92
787.255	56.67
787.561	53.91
787.866	53.08
788.172	52.82
788.477	52
788.782	55.89
789.088	53.65
789.393	55.77
789.698	55.77
790.003	53.37
790.308	56.39
790.613	55.74
790.918	58.17
791.223	53.9
791.527	53.57
791.832	54.82
792.137	50.64
792.441	53.9
792.746	50.39
793.05	55.79
793.355	54.02
793.659	54.49
793.963	52.92
794.268	52.68
794.572	58
794.876	54.11
795.18	53.26
795.484	51.66
795.788	53.49
796.092	54.3
796.396	55.85
796.7	58.22
797.004	51.62
797.307	55.13
797.611	57.16
797.915	56.66
798.218	53.48
798.522	58.32
798.825	55.41
799.128	57.16
799.432	51.41
799.735	54.01
800.038	54.96
800.341	50.89
800.644	55.81
800.947	57.08
801.25	54.21
801.553	56.81
801.856	54.04
802.159	58.63
802.462	54.62
802.764	54.43
803.067	55.06
803.37	57.25
803.672	54.96
803.975	53.11
804.277	58.26
804.579	57.55
804.882	58.65
805.184	54.21
805.486	58.19
805.788	55.26
806.09	48.38
806.392	58.34
806.694	57.64
806.996	56.15
807.298	54.16
807.6	53.48
807.902	52.84
808.203	55.19
808.505	53.33
808.807	54.02
809.108	56.38
809.409	58.81
809.711	55.38
810.012	53.47
810.313	59.38
810.615	57.3
810.916	58.75
811.217	58.82
811.518	56.66
811.819	48.18
812.12	57.5
812.421	59.03
812.722	56.71
813.023	55.66
813.323	57.64
813.624	54.34
813.925	57.85
814.225	49.13
814.526	55.76
814.826	51.12
815.126	51.84
815.427	61.04
815.727	51.34
816.027	59.96
816.327	49.44
816.627	56.46
816.927	57.55
817.227	58.19
817.527	49.97
817.827	51.45
818.127	56.9
818.427	56.92
818.727	56.31
819.026	50.13
819.326	56.54
819.625	50.26
819.925	58.08
820.224	59.05
820.524	56.98
820.823	55.18
821.122	54.2
821.421	59.32
821.72	58.95
822.019	56.04
822.318	56.7
822.617	56.66
822.916	58.66
823.215	58.87
823.514	55.08
823.813	58.95
824.111	56.94
824.41	58.33
824.709	58.51
825.007	58.82
825.306	58.79
825.604	60.26
825.902	59.69
826.201	59.13
826.499	59.08
826.797	59.41
827.095	58.93
827.393	59.51
827.691	59.17
827.989	61.7
828.287	58.02
828.585	57.6
828.882	56.88
829.18	58.84
829.478	61.69
829.775	59.04
830.073	59.54
830.37	58.74
830.668	59.75
830.965	59.36
831.263	57.89
831.56	61.7
831.857	59.58
832.154	57.48
832.451	60.39
832.748	58.12
833.045	55.69
833.342	63.01
833.639	59.51
833.936	58.93
834.232	53.22
834.529	52.89
834.826	55.56
835.122	55.95
835.419	57.28
835.715	56.32
836.012	60.38
836.308	55.45
836.604	58.12
836.901	59.65
837.197	58.31
837.493	59.39
837.789	57.21
838.085	57.86
838.381	55.71
838.677	59.91
838.972	55.53
839.268	58.67
839.564	62.62
839.86	57.87
840.155	60.5
840.451	69.04
840.746	48.93
841.042	57.67
841.337	62.02
841.632	54.15
841.928	52.41
842.223	50.81
842.518	45.66
842.813	51.68
843.108	58.58
843.403	54.74
843.698	56.04
843.993	56.13
844.287	49.94
844.582	51.54
844.877	50.66
845.171	55.68
845.466	52.4
845.761	47.22
846.055	60
846.349	56.62
846.644	45.49
846.938	46.89
847.232	47.47
847.526	55.98
847.82	49.74
848.114	54.96
848.408	47.63
848.702	64.75
848.996	59.41
849.29	50.76
849.584	45.29
849.877	55.13
850.171	51.85
850.465	48.34
850.758	28.26
851.052	46.72
851.345	55.75
851.638	55.99
851.932	55.08
852.225	48.5
852.518	68.07
852.811	56.53
853.104	63.74
853.397	54.33
853.69	66.38
853.983	54.27
854.276	68.87
854.569	53.74
854.861	58.08
855.154	60.43
855.447	44.02
855.739	47.74
856.032	61.25
856.324	39.09
856.616	44.06
856.909	43.85
857.201	42.19
857.493	78.87
857.785	45.47
858.077	58.99
858.369	81.3
858.661	74.31
858.953	52.49
859.245	83.77
859.537	46.54
859.829	50.71
860.12	46.56
860.412	44.64
860.703	59.55
860.995	43.21
861.286	43.99
861.578	6.12
861.869	63.77
862.16	49.14
862.452	64.26
862.743	71.87
863.034	69.3
863.325	65.84
863.616	58.49
863.907	62.31
864.198	53.01
864.488	50.68
864.779	44.61
865.07	55.06
865.36	80.66
865.651	50.98
865.941	53.57
866.232	71.47
866.522	52.14
866.813	34.69
867.103	53.84
867.393	48.6
867.683	43.19
867.973	47.94
868.263	35.57
868.553	43.66
868.843	57.24
869.133	46.92
869.423	30
869.713	30.56
870.002	26.75
870.292	17.3
870.582	38.61
870.871	29.87
871.161	43.24
871.45	89.97
871.739	25.54
872.029	32.57
872.318	30.92
872.607	36.24
872.896	50.06
873.185	60.26
873.474	60.85
873.763	53.73
874.052	56
874.341	73.95
874.63	42.76
874.918	49.42
875.207	31.79
875.496	45.45
875.784	91.15
876.073	31.54
876.361	52.07
876.649	57.05
876.938	27.28
877.226	46.93
877.514	34.64
877.802	49.69
878.09	72.65
878.378	53.79
878.666	29.94
878.954	39.47
879.242	45.32
879.53	38.71
879.817	64.78
880.105	54.3
880.392	44.12
880.68	32.99
880.967	59.97
881.255	53.06
881.542	24.39
881.83	37.83
882.117	35.39
882.404	64.69
882.691	64.25
882.978	39.79
883.265	57.83
883.552	58.75
883.839	61.43
884.126	53.41
884.413	71.95
884.699	56.64
884.986	58.42
885.273	61.65
885.559	61.65
885.846	61.65
