Data from 2017-1_forehead_Reflection__4__14.txt Node

Date: Fri Oct 07 15:05:56 CDT 2022
User: ToomeyLab
Spectrometer: FLMS14357
Trigger mode: 0
Integration Time (sec): 1.000000E-2
Scans to average: 100
Electric dark correction enabled: true
Nonlinearity correction enabled: false
Boxcar width: 0
XAxis mode: Wavelengths
Number of Pixels in Spectrum: 2048
>>>>>Begin Spectral Data<<<<<
189.047	50.51
189.435	50.51
189.823	50.51
190.211	132.47
190.599	258.99
190.987	63.32
191.375	37.97
191.763	126.41
192.151	747.26
192.538	-129.96
192.926	-552.5
193.314	-382.44
193.702	168.59
194.089	-1331.79
194.477	39.56
194.864	121.2
195.252	91.15
195.639	65.16
196.027	420.89
196.414	110.09
196.801	85.21
197.189	51.93
197.576	69.1
197.963	209.67
198.351	11.72
198.738	45.49
199.125	76.66
199.512	3.66
199.899	21.2
200.286	-32.64
200.673	-77.7
201.06	24.09
201.447	32.36
201.833	42.1
202.22	22.87
202.607	35.33
202.994	43.14
203.38	18.63
203.767	53.87
204.154	14.87
204.54	9.22
204.927	75.94
205.313	-26.68
205.699	32.28
206.086	25.02
206.472	20.13
206.858	16.41
207.245	9.52
207.631	28.43
208.017	40.72
208.403	63.56
208.789	24.47
209.175	-8.26
209.561	60.98
209.947	42.91
210.333	17.12
210.719	33.16
211.105	53.91
211.491	33.08
211.876	15.27
212.262	9.91
212.648	26.67
213.034	16.4
213.419	38.46
213.805	18.2
214.19	14.53
214.576	21.83
214.961	13.78
215.346	4.5
215.732	36.12
216.117	19.55
216.502	7.59
216.888	-13.83
217.273	-3.81
217.658	31.93
218.043	24.68
218.428	18.31
218.813	26.22
219.198	28.51
219.583	27.18
219.968	5.02
220.353	1.63
220.738	6.94
221.122	15.49
221.507	12.01
221.892	-4.38
222.276	18.12
222.661	26.36
223.046	16.88
223.43	9.88
223.815	16.59
224.199	8.15
224.583	20.71
224.968	4.63
225.352	12.04
225.736	6.83
226.121	17.32
226.505	2.26
226.889	8.8
227.273	3.27
227.657	7.38
228.041	5.85
228.425	4.8
228.809	5.23
229.193	4.34
229.577	3.85
229.961	3.51
230.344	2.86
230.728	3.52
231.112	3.33
231.495	4.16
231.879	3.72
232.263	3.91
232.646	3.35
233.03	4.7
233.413	4.58
233.797	4.54
234.18	2.5
234.563	2.71
234.946	3.72
235.33	2.51
235.713	3.12
236.096	4.5
236.479	2.64
236.862	3.3
237.245	4.21
237.628	3.22
238.011	4.75
238.394	3.58
238.777	2.1
239.16	5.68
239.543	2.73
239.925	4
240.308	4.58
240.691	4.08
241.073	2.96
241.456	4.42
241.838	2.69
242.221	3.72
242.603	4.16
242.986	3.93
243.368	2.51
243.75	3.05
244.133	3.14
244.515	3.14
244.897	3.47
245.279	3.61
245.661	3.62
246.043	2.84
246.425	4.41
246.807	3.78
247.189	3.82
247.571	3.56
247.953	3.03
248.335	3.4
248.717	2.96
249.098	3.2
249.48	3.15
249.862	3.47
250.243	3.52
250.625	3.35
251.006	3.33
251.388	4.1
251.769	3.76
252.151	3.36
252.532	3.71
252.913	2.56
253.295	3.64
253.676	3.35
254.057	3.33
254.438	3.75
254.819	3.92
255.2	3.42
255.581	2.53
255.962	3.54
256.343	5.41
256.724	4.66
257.105	5.43
257.486	3.58
257.867	3.45
258.247	4
258.628	3.99
259.009	3.62
259.389	3.4
259.77	3.6
260.15	3.51
260.531	3.82
260.911	3.18
261.292	3.16
261.672	2.98
262.052	3.05
262.432	2.92
262.813	3.77
263.193	3.42
263.573	3.5
263.953	3.16
264.333	3.43
264.713	3.14
265.093	3.5
265.473	3.77
265.853	3.06
266.233	4.4
266.612	4.08
266.992	3.59
267.372	2.69
267.752	2.52
268.131	3.55
268.511	3.1
268.89	3.06
269.27	3.16
269.649	2.91
270.029	3.32
270.408	2.89
270.787	2.82
271.167	3.6
271.546	3.61
271.925	1.96
272.304	3.01
272.683	2.37
273.062	3.47
273.441	3.5
273.82	3.26
274.199	2.98
274.578	2.85
274.957	3.18
275.336	3.41
275.715	3.39
276.093	3.75
276.472	2.92
276.851	3.04
277.229	2.44
277.608	3.87
277.986	3.36
278.365	3.17
278.743	3.35
279.122	3.24
279.5	3.26
279.878	3.54
280.257	3.18
280.635	3.9
281.013	3.19
281.391	3.64
281.769	3.85
282.147	3.04
282.525	3.1
282.903	3.32
283.281	2.76
283.659	3.68
284.037	3.71
284.415	3.56
284.792	3.38
285.17	3.29
285.548	2.84
285.925	3.06
286.303	3.04
286.68	2.74
287.058	3.42
287.435	3.02
287.813	3.06
288.19	3.61
288.567	3.56
288.945	3.26
289.322	3.44
289.699	3.39
290.076	3.55
290.453	3.51
290.83	3.49
291.207	3.69
291.584	3.52
291.961	2.96
292.338	3.6
292.715	3.77
293.092	3.54
293.469	4.04
293.845	4.16
294.222	4.21
294.599	3.7
294.975	3.59
295.352	4.1
295.728	3.93
296.105	3.93
296.481	3.23
296.858	3.83
297.234	3.97
297.61	4.31
297.986	3.48
298.363	4.04
298.739	4.01
299.115	3.75
299.491	4.27
299.867	3.65
300.243	4
300.619	4.16
300.995	3.98
301.371	4.42
301.746	4.07
302.122	4.41
302.498	4.33
302.874	3.97
303.249	4.09
303.625	4.38
304	4.68
304.376	4.48
304.751	4.01
305.127	4.26
305.502	4.65
305.878	4.5
306.253	4.69
306.628	4.66
307.003	5.15
307.378	5.06
307.754	4.52
308.129	4.79
308.504	5.31
308.879	4.81
309.254	4.99
309.629	4.73
310.003	4.69
310.378	4.76
310.753	5.07
311.128	5.07
311.502	5.11
311.877	5.33
312.252	4.82
312.626	5.15
313.001	5.21
313.375	4.88
313.75	5.33
314.124	5.19
314.498	5.18
314.873	5.86
315.247	5.1
315.621	5.2
315.995	5.87
316.369	5.31
316.743	5.22
317.117	5.72
317.491	6.13
317.865	6.17
318.239	6.19
318.613	6.29
318.987	6.27
319.361	5.95
319.734	5.65
320.108	5.94
320.482	6.59
320.855	6.83
321.229	6.78
321.602	6.62
321.976	6.8
322.349	7.07
322.723	6.69
323.096	6.09
323.469	6.76
323.843	6.82
324.216	7.14
324.589	7.32
324.962	7.44
325.335	6.59
325.708	6.84
326.081	6.66
326.454	7.21
326.827	6.86
327.2	7.18
327.573	7.61
327.945	7.71
328.318	7.45
328.691	7.58
329.063	7.38
329.436	7.58
329.809	8
330.181	8.1
330.553	7.51
330.926	7.72
331.298	7.74
331.671	7.81
332.043	7.82
332.415	8.18
332.787	7.62
333.159	7.95
333.532	7.77
333.904	8.62
334.276	8.38
334.648	7.67
335.02	8.13
335.391	8.32
335.763	8.91
336.135	8.22
336.507	9.05
336.879	8.53
337.25	8.33
337.622	8.33
337.993	8.55
338.365	8.84
338.736	8.84
339.108	8.96
339.479	8.96
339.851	8.72
340.222	8.82
340.593	8.85
340.964	8.77
341.336	8.64
341.707	9.01
342.078	9.07
342.449	9.63
342.82	9.37
343.191	9.26
343.562	8.94
343.933	9.8
344.303	9.01
344.674	9.39
345.045	9.78
345.416	9.62
345.786	9.81
346.157	9.64
346.527	9.36
346.898	9.55
347.268	9.28
347.639	9.5
348.009	10.27
348.38	9.84
348.75	10.22
349.12	10.48
349.49	10.14
349.861	9.99
350.231	10.22
350.601	9.95
350.971	10.57
351.341	10.37
351.711	10.2
352.081	10.79
352.45	10.2
352.82	10.71
353.19	10.8
353.56	10.25
353.929	10.54
354.299	10.89
354.669	10.69
355.038	10.71
355.408	11.14
355.777	10.73
356.147	11
356.516	11.2
356.885	11.05
357.254	10.95
357.624	11.16
357.993	11.01
358.362	11.13
358.731	11.62
359.1	11.54
359.469	11.65
359.838	11.34
360.207	11.56
360.576	11.43
360.945	11.8
361.314	11.68
361.682	11.65
362.051	11.87
362.42	11.82
362.788	11.92
363.157	11.65
363.525	11.84
363.894	11.94
364.262	12.07
364.631	12.1
364.999	12.25
365.367	12.22
365.735	12.38
366.104	12.19
366.472	12.48
366.84	11.99
367.208	12.48
367.576	12.33
367.944	12.55
368.312	12.7
368.68	12.44
369.048	12.73
369.416	13.07
369.783	12.8
370.151	12.88
370.519	13.25
370.886	12.72
371.254	13.12
371.621	13.3
371.989	13.27
372.356	13.25
372.724	13.77
373.091	13.33
373.458	13.34
373.826	13.39
374.193	13.58
374.56	13.86
374.927	13.57
375.294	13.82
375.661	13.81
376.028	14.03
376.395	13.76
376.762	14.01
377.129	13.88
377.496	14.11
377.863	14.42
378.229	13.94
378.596	14.2
378.963	14.17
379.329	14.27
379.696	14.12
380.062	14.81
380.429	14.33
380.795	14.6
381.161	14.64
381.528	14.66
381.894	14.81
382.26	14.74
382.626	14.93
382.993	14.84
383.359	14.82
383.725	15.01
384.091	15.08
384.457	15.01
384.823	14.78
385.188	15.29
385.554	15.51
385.92	15.25
386.286	15.25
386.651	15.12
387.017	15.61
387.383	15.49
387.748	15.41
388.114	15.38
388.479	15.76
388.845	15.63
389.21	15.62
389.575	15.62
389.94	15.82
390.306	15.58
390.671	16.28
391.036	16.4
391.401	15.89
391.766	16.39
392.131	16.38
392.496	16.08
392.861	15.97
393.226	16.06
393.591	16.23
393.956	16.3
394.32	16.48
394.685	16.55
395.05	16.5
395.414	16.45
395.779	16.54
396.143	16.8
396.508	16.57
396.872	16.75
397.236	16.93
397.601	16.82
397.965	17
398.329	16.7
398.694	16.9
399.058	17.2
399.422	17.13
399.786	17.13
400.15	17.27
400.514	17.21
400.878	17.35
401.242	17.45
401.605	17.46
401.969	17.54
402.333	17.8
402.697	17.78
403.06	17.75
403.424	17.87
403.787	18.03
404.151	17.94
404.514	17.77
404.878	17.99
405.241	17.83
405.604	18.14
405.968	18.11
406.331	18.06
406.694	18.16
407.057	18.41
407.42	18.3
407.783	18.21
408.146	18.3
408.509	18.84
408.872	18.73
409.235	18.71
409.598	18.94
409.961	18.84
410.323	18.98
410.686	18.82
411.049	18.83
411.411	18.96
411.774	18.97
412.136	19
412.499	19.15
412.861	19.14
413.223	19.36
413.586	19.49
413.948	19.29
414.31	19.32
414.672	19.57
415.035	19.68
415.397	19.7
415.759	19.57
416.121	19.51
416.483	19.69
416.845	19.46
417.206	19.53
417.568	19.7
417.93	19.6
418.292	19.85
418.653	19.87
419.015	19.73
419.377	19.87
419.738	19.52
420.1	19.79
420.461	19.96
420.822	19.94
421.184	20.01
421.545	20.06
421.906	20.06
422.267	19.81
422.629	19.62
422.99	19.91
423.351	20.09
423.712	20.18
424.073	20.27
424.434	20.52
424.795	20.36
425.155	20.35
425.516	20.2
425.877	20.2
426.238	20.44
426.598	20.41
426.959	20.67
427.32	20.85
427.68	20.85
428.041	21.1
428.401	21.26
428.761	21.45
429.122	21.2
429.482	21.5
429.842	21.55
430.202	21.65
430.563	21.79
430.923	21.41
431.283	21.22
431.643	21.66
432.003	21.79
432.363	21.98
432.722	21.94
433.082	21.73
433.442	22.07
433.802	22.15
434.161	21.94
434.521	21.92
434.881	21.83
435.24	21.89
435.6	21.92
435.959	22.18
436.319	22.22
436.678	22.45
437.037	22.34
437.396	22.55
437.756	22.54
438.115	22.51
438.474	22.58
438.833	22.71
439.192	22.58
439.551	22.58
439.91	22.85
440.269	22.6
440.628	22.77
440.987	22.75
441.345	22.81
441.704	22.82
442.063	22.79
442.421	22.79
442.78	22.67
443.138	23.03
443.497	23
443.855	23.33
444.214	23.25
444.572	23.48
444.93	23.37
445.288	23.25
445.647	23.53
446.005	23.39
446.363	23.59
446.721	23.29
447.079	23.4
447.437	23.17
447.795	23.24
448.153	23.18
448.51	23.26
448.868	23.45
449.226	23.58
449.584	23.73
449.941	23.97
450.299	24.07
450.656	24.09
451.014	23.99
451.371	24.26
451.729	24.25
452.086	24.33
452.443	24.44
452.801	24.52
453.158	24.56
453.515	24.55
453.872	24.62
454.229	24.49
454.586	24.47
454.943	24.6
455.3	24.75
455.657	25.02
456.014	24.84
456.371	25.19
456.727	25.23
457.084	25.15
457.441	25.02
457.797	25.25
458.154	25.1
458.51	25.35
458.867	25.3
459.223	25.27
459.58	25.15
459.936	25.39
460.292	25.1
460.648	25.12
461.005	24.96
461.361	24.81
461.717	24.78
462.073	25.12
462.429	25.29
462.785	25.61
463.141	25.73
463.496	25.91
463.852	26.02
464.208	25.93
464.564	26.06
464.919	26.27
465.275	26.18
465.631	26.17
465.986	26.34
466.342	26.34
466.697	26.16
467.052	26.34
467.408	26.2
467.763	26.29
468.118	26.32
468.473	26.31
468.829	26.5
469.184	26.48
469.539	26.65
469.894	26.7
470.249	26.8
470.603	26.9
470.958	26.85
471.313	26.58
471.668	26.75
472.023	26.91
472.377	27.06
472.732	27.05
473.086	26.75
473.441	26.94
473.795	26.96
474.15	27.14
474.504	27.13
474.859	27.09
475.213	27.24
475.567	27.3
475.921	27.51
476.275	27.41
476.63	27.42
476.984	27.61
477.338	27.67
477.692	27.55
478.045	27.34
478.399	27.45
478.753	27.47
479.107	27.62
479.461	27.52
479.814	27.61
480.168	27.61
480.521	27.86
480.875	27.73
481.228	27.79
481.582	27.99
481.935	28.02
482.289	27.83
482.642	27.84
482.995	27.72
483.348	27.54
483.701	27.51
484.055	27.53
484.408	27.54
484.761	26.98
485.114	26.55
485.466	26.32
485.819	26.66
486.172	27.08
486.525	27.51
486.878	27.67
487.23	27.83
487.583	27.94
487.936	27.83
488.288	27.55
488.641	27.41
488.993	27.22
489.345	27.26
489.698	27.49
490.05	27.59
490.402	27.82
490.754	28.16
491.107	28.44
491.459	28.56
491.811	28.59
492.163	28.62
492.515	28.45
492.866	27.98
493.218	27.68
493.57	27.77
493.922	28.21
494.274	28.67
494.625	28.87
494.977	29.11
495.328	29.2
495.68	29.37
496.031	29.52
496.383	29.68
496.734	29.58
497.086	29.59
497.437	29.55
497.788	29.51
498.139	29.55
498.49	29.3
498.842	29.29
499.193	29.51
499.544	29.62
499.894	29.73
500.245	29.7
500.596	29.64
500.947	29.85
501.298	30.12
501.648	29.92
501.999	30.21
502.35	30.23
502.7	30.33
503.051	30.2
503.401	30.42
503.752	30.36
504.102	30.53
504.452	30.37
504.803	30.43
505.153	30.38
505.503	30.32
505.853	30.46
506.203	30.57
506.553	30.7
506.903	30.65
507.253	30.66
507.603	30.79
507.953	30.91
508.303	30.71
508.652	30.77
509.002	30.82
509.352	30.65
509.701	30.68
510.051	30.78
510.4	30.62
510.75	30.56
511.099	30.65
511.449	30.71
511.798	30.75
512.147	30.7
512.496	30.87
512.846	30.94
513.195	31.04
513.544	30.99
513.893	30.94
514.242	31.07
514.591	30.96
514.939	31.06
515.288	31.38
515.637	31.45
515.986	31.4
516.334	31.61
516.683	31.66
517.032	31.61
517.38	31.67
517.729	31.5
518.077	31.74
518.426	31.56
518.774	31.54
519.122	31.35
519.47	31.31
519.819	31.08
520.167	31.18
520.515	31.01
520.863	31.29
521.211	31.51
521.559	31.59
521.907	31.78
522.255	31.7
522.602	31.8
522.95	32.21
523.298	32.16
523.645	32.15
523.993	32.07
524.341	32.17
524.688	32.44
525.036	32.11
525.383	32.36
525.73	32.26
526.078	32.29
526.425	32.11
526.772	31.84
527.119	31.71
527.466	31.61
527.814	31.68
528.161	31.99
528.508	31.86
528.854	32.03
529.201	31.92
529.548	31.59
529.895	30.96
530.242	30.81
530.588	31.17
530.935	31.59
531.282	31.83
531.628	32.04
531.975	32.17
532.321	32.49
532.667	32.54
533.014	32.55
533.36	32.55
533.706	32.55
534.052	32.38
534.399	32.27
534.745	31.78
535.091	31.73
535.437	31.98
535.783	32.45
536.129	32.76
536.474	32.78
536.82	32.99
537.166	33.01
537.512	33.06
537.857	32.81
538.203	32.49
538.549	32.55
538.894	32.92
539.239	33.18
539.585	33.24
539.93	33.47
540.276	33.61
540.621	33.66
540.966	33.57
541.311	33.62
541.656	33.61
542.001	33.12
542.346	32.88
542.691	32.44
543.036	32.15
543.381	32.54
543.726	32.79
544.071	33.2
544.415	33.39
544.76	33.43
545.105	33.43
545.449	33.65
545.794	33.83
546.138	33.84
546.483	33.92
546.827	33.89
547.171	33.87
547.516	33.87
547.86	34.04
548.204	33.85
548.548	33.67
548.892	33.86
549.236	34.03
549.58	34.41
549.924	34.46
550.268	34.5
550.612	34.61
550.956	34.9
551.3	34.84
551.643	35.1
551.987	34.99
552.33	34.9
552.674	35.07
553.017	34.93
553.361	35.17
553.704	35.07
554.048	34.73
554.391	34.64
554.734	34.86
555.077	35
555.42	34.82
555.764	35.1
556.107	35.13
556.45	35.2
556.793	35.4
557.135	35.33
557.478	35.22
557.821	35.45
558.164	35.21
558.507	35.67
558.849	35.51
559.192	35.71
559.534	35.67
559.877	35.65
560.219	35.63
560.562	35.48
560.904	35.75
561.246	35.71
561.589	35.64
561.931	35.67
562.273	35.74
562.615	35.59
562.957	35.64
563.299	35.79
563.641	35.91
563.983	35.83
564.325	36.01
564.667	35.99
565.008	36.19
565.35	36.06
565.692	36.06
566.033	35.81
566.375	35.98
566.716	36.18
567.058	35.86
567.399	35.94
567.741	35.99
568.082	35.64
568.423	35.84
568.764	35.94
569.105	36.06
569.447	36.13
569.788	36.32
570.129	36.54
570.47	36.36
570.811	36.54
571.151	36.28
571.492	36.52
571.833	36.41
572.174	36.59
572.514	36.57
572.855	36.21
573.195	36.34
573.536	36.23
573.876	36.31
574.217	36.39
574.557	36.4
574.898	36.6
575.238	36.64
575.578	36.68
575.918	36.65
576.258	36.73
576.598	36.74
576.938	36.64
577.278	36.83
577.618	36.53
577.958	36.98
578.298	37.09
578.638	37.09
578.977	37
579.317	37.1
579.657	36.91
579.996	37.49
580.336	37.41
580.675	37.48
581.014	37.29
581.354	37.53
581.693	37.48
582.032	37.46
582.372	37.35
582.711	37.54
583.05	37.59
583.389	37.61
583.728	37.71
584.067	37.85
584.406	37.99
584.745	37.53
585.083	37.54
585.422	37.65
585.761	37.57
586.1	37.86
586.438	38.02
586.777	37.63
587.115	38.1
587.454	38.18
587.792	38.03
588.13	37.89
588.469	37.67
588.807	37.74
589.145	38.04
589.483	38.33
589.821	37.99
590.159	38.03
590.497	38.04
590.835	38.2
591.173	37.8
591.511	37.93
591.849	37.91
592.187	38.05
592.524	37.75
592.862	38.28
593.2	38.03
593.537	38.31
593.875	38.63
594.212	38.52
594.55	38.64
594.887	38.47
595.224	38.49
595.561	38.29
595.899	38.21
596.236	38.45
596.573	38.25
596.91	38.35
597.247	38.63
597.584	38.28
597.921	38.27
598.258	38.23
598.594	37.65
598.931	38.01
599.268	38.27
599.604	38.64
599.941	38.57
600.277	38.34
600.614	38.74
600.95	38.76
601.287	39.09
601.623	38.95
601.959	38.82
602.296	39.07
602.632	38.97
602.968	38.67
603.304	38.98
603.64	38.92
603.976	38.88
604.312	38.98
604.648	38.52
604.984	38.91
605.319	38.79
605.655	38.85
605.991	38.51
606.326	38.47
606.662	38.67
606.998	38.83
607.333	38.81
607.668	39.03
608.004	39.26
608.339	39.46
608.674	39.44
609.01	39.58
609.345	39.39
609.68	39.27
610.015	39.18
610.35	39.34
610.685	38.98
611.02	38.95
611.355	38.72
611.689	39.02
612.024	39.24
612.359	39.21
612.694	39.39
613.028	39.6
613.363	39.29
613.697	39.72
614.032	39.82
614.366	39.87
614.7	39.81
615.035	39.81
615.369	39.95
615.703	40.03
616.037	39.74
616.371	39.72
616.705	39.77
617.039	39.96
617.373	39.87
617.707	40.23
618.041	40.34
618.375	39.87
618.709	40.1
619.042	40.36
619.376	39.98
619.71	39.95
620.043	39.6
620.377	40.13
620.71	40.27
621.043	40.19
621.377	40.49
621.71	40
622.043	40.22
622.376	40.36
622.709	40.46
623.043	39.87
623.376	40.73
623.709	40.39
624.041	39.98
624.374	40.11
624.707	40.54
625.04	40.67
625.373	40.69
625.705	40.53
626.038	40.5
626.37	40.6
626.703	40.5
627.035	41.02
627.368	40.77
627.7	40.37
628.032	40.31
628.365	40.34
628.697	40.3
629.029	40.14
629.361	40.45
629.693	40.45
630.025	40.17
630.357	40.53
630.689	40.6
631.021	40.5
631.353	40.68
631.684	40.7
632.016	40.71
632.348	41.22
632.679	40.87
633.011	40.96
633.342	41.31
633.674	40.52
634.005	40.8
634.336	40.42
634.668	40.6
634.999	40.54
635.33	40.86
635.661	40.53
635.992	40.49
636.323	40.67
636.654	41.22
636.985	40.94
637.316	41.08
637.647	40.7
637.977	41.73
638.308	41.45
638.639	41.37
638.969	41.43
639.3	41.71
639.63	41.5
639.961	41.03
640.291	41.38
640.622	41.49
640.952	41
641.282	41
641.612	41.18
641.943	41.45
642.273	41.16
642.603	41.89
642.933	41.84
643.263	41.95
643.592	41.28
643.922	41.68
644.252	41.53
644.582	42.22
644.911	41.86
645.241	41.12
645.571	41.66
645.9	41.58
646.23	41.9
646.559	41.89
646.888	41.66
647.218	42.02
647.547	41.83
647.876	42.22
648.205	41.51
648.534	42.04
648.863	42.03
649.192	41.68
649.521	41.74
649.85	41.92
650.179	41.73
650.508	41.94
650.837	41.79
651.165	42.14
651.494	41.31
651.822	42.16
652.151	41.7
652.479	41.77
652.808	41.69
653.136	41.67
653.465	42.11
653.793	42.17
654.121	41.91
654.449	42.24
654.777	41.93
655.105	42.08
655.433	42.33
655.761	42.19
656.089	42
656.417	41.95
656.745	42.48
657.073	42.03
657.4	42.51
657.728	42.41
658.056	42.75
658.383	42.72
658.711	42.48
659.038	42.3
659.365	42.17
659.693	41.93
660.02	41.82
660.347	41.95
660.674	41.75
661.001	41.98
661.329	41.86
661.656	42.3
661.982	41.84
662.309	42.53
662.636	42.83
662.963	43.09
663.29	42.22
663.616	42.41
663.943	42.59
664.27	42.6
664.596	42.95
664.923	42.29
665.249	42.86
665.576	42.17
665.902	42.89
666.228	42.91
666.554	43.27
666.881	43.01
667.207	42.65
667.533	42.54
667.859	42.96
668.185	43.09
668.511	43.2
668.837	43.46
669.162	42.98
669.488	42.77
669.814	42.96
670.139	43.18
670.465	42.81
670.791	43.07
671.116	42.28
671.442	42.25
671.767	42.88
672.092	42.97
672.418	43.55
672.743	43.77
673.068	43.52
673.393	43.46
673.718	43.6
674.043	43.19
674.368	42.5
674.693	43.66
675.018	42.66
675.343	42.23
675.667	42.76
675.992	42.96
676.317	43.57
676.641	43.52
676.966	43.39
677.29	42.93
677.615	43.07
677.939	43.09
678.264	43.56
678.588	44.09
678.912	42.35
679.236	43.26
679.56	42.91
679.885	42.73
680.209	42.6
680.532	42.67
680.856	43.11
681.18	42.95
681.504	42.99
681.828	43.32
682.152	43.29
682.475	44.06
682.799	43.07
683.122	43.97
683.446	43.91
683.769	43.83
684.093	43.48
684.416	43.31
684.739	43.43
685.062	43.38
685.386	43.17
685.709	43.68
686.032	43.04
686.355	44.11
686.678	43.84
687.001	43.59
687.324	43.64
687.646	43.27
687.969	43.62
688.292	43.54
688.614	43.32
688.937	42.94
689.26	44.56
689.582	43.25
689.904	43.36
690.227	43.37
690.549	43.56
690.871	44.13
691.194	43.99
691.516	44.15
691.838	43.6
692.16	44.25
692.482	44.29
692.804	43.59
693.126	44.43
693.448	44.43
693.769	43.55
694.091	43.25
694.413	43.6
694.735	43.7
695.056	43.76
695.378	43.37
695.699	44.24
696.021	44.29
696.342	43.78
696.663	44.67
696.984	45.19
697.306	44.04
697.627	43.97
697.948	45.1
698.269	44.71
698.59	44.74
698.911	44.11
699.232	44.68
699.553	44.08
699.873	44.51
700.194	44.17
700.515	43.88
700.835	43.89
701.156	44.23
701.477	44.16
701.797	44.65
702.117	45.06
702.438	44.51
702.758	45.06
703.078	44.85
703.398	44.82
703.719	44.13
704.039	43.81
704.359	44.08
704.679	44.64
704.999	44.38
705.319	44.63
705.638	45.26
705.958	43.72
706.278	44.02
706.597	43.64
706.917	44.93
707.237	43.37
707.556	45.15
707.876	43.94
708.195	44.3
708.514	44.55
708.834	44.87
709.153	45.33
709.472	44.12
709.791	44.4
710.11	44.82
710.429	45.31
710.748	45.59
711.067	44.05
711.386	44.17
711.705	44.7
712.023	44.45
712.342	44.56
712.661	45.2
712.979	45.4
713.298	45.34
713.616	44.39
713.935	45.68
714.253	45.25
714.572	46.24
714.89	46.62
715.208	44.98
715.526	45.68
715.844	44.08
716.162	45.39
716.48	44.96
716.798	45.99
717.116	44.49
717.434	45.19
717.752	44.8
718.069	44.12
718.387	44.88
718.705	45.58
719.022	45.4
719.34	45.7
719.657	44.81
719.975	44.7
720.292	45.31
720.609	44.27
720.927	44.2
721.244	45.31
721.561	45.52
721.878	45.48
722.195	45.61
722.512	45.35
722.829	46.02
723.146	45.91
723.463	45.69
723.779	44.46
724.096	45.63
724.413	45.78
724.729	45.38
725.046	45.43
725.362	47
725.679	44.34
725.995	43.24
726.311	45.59
726.628	46.43
726.944	45.82
727.26	45.5
727.576	46.37
727.892	44.65
728.208	43.83
728.524	44.84
728.84	44.8
729.156	45.33
729.472	45.5
729.787	45.83
730.103	46.15
730.419	46.55
730.734	44.67
731.05	45.41
731.365	46
731.681	44.81
731.996	46.83
732.311	46.47
732.626	45.03
732.942	45.93
733.257	46.36
733.572	47.43
733.887	46.5
734.202	45.28
734.517	46.15
734.832	46.89
735.146	45.05
735.461	46.15
735.776	46.52
736.091	45.6
736.405	45.54
736.72	45.12
737.034	47.49
737.349	45.75
737.663	46.07
737.977	45.49
738.292	46.85
738.606	46.64
738.92	47.07
739.234	45.5
739.548	47.17
739.862	46.39
740.176	46.5
740.49	47.45
740.804	45.94
741.117	46.08
741.431	45.57
741.745	46.54
742.058	46.1
742.372	46.94
742.685	45.45
742.999	46.5
743.312	47.95
743.626	46.39
743.939	46.06
744.252	48.97
744.565	45.69
744.878	45.97
745.191	46.91
745.505	44.98
745.817	45.69
746.13	46.61
746.443	46.24
746.756	46.92
747.069	43.83
747.381	46.7
747.694	47.07
748.007	46.39
748.319	47.21
748.632	46.99
748.944	46.41
749.256	47.6
749.569	47.47
749.881	45.27
750.193	46.76
750.505	46.3
750.817	45.67
751.129	47.42
751.441	46.4
751.753	47
752.065	46.57
752.377	48.08
752.689	46.22
753	46.18
753.312	46.71
753.624	47.7
753.935	45.93
754.247	47
754.558	46.1
754.869	48.37
755.181	45.55
755.492	47.1
755.803	46.1
756.114	44.7
756.425	47.22
756.736	47.11
757.047	47.95
757.358	46.67
757.669	46.34
757.98	48.07
758.291	46.91
758.601	47.73
758.912	49.33
759.223	46.96
759.533	48.22
759.844	47.14
760.154	46.79
760.464	47.36
760.775	46.9
761.085	46.71
761.395	48.29
761.705	45.84
762.016	46.86
762.326	47.41
762.636	45.52
762.945	47.1
763.255	47.32
763.565	48.76
763.875	47.55
764.185	47.87
764.494	45.69
764.804	47.2
765.113	47.25
765.423	45.49
765.732	47.12
766.042	46.62
766.351	47.17
766.66	47.54
766.97	47.65
767.279	47.15
767.588	47.1
767.897	47.11
768.206	47.63
768.515	48.18
768.824	47.58
769.133	48.96
769.441	47.29
769.75	48.82
770.059	50.49
770.367	50.84
770.676	47.36
770.984	45.11
771.293	47.71
771.601	46.53
771.91	48.47
772.218	48.33
772.526	47.58
772.834	46.92
773.142	46.91
773.45	48.09
773.758	48.09
774.066	47.05
774.374	45.67
774.682	46.6
774.99	46.46
775.298	48.05
775.605	46.89
775.913	49.46
776.22	46.69
776.528	44.85
776.835	46.79
777.143	46.5
777.45	48.68
777.757	48.87
778.065	46.6
778.372	48.79
778.679	45.22
778.986	50.25
779.293	48.93
779.6	45.53
779.907	45.81
780.214	46.03
780.52	47.29
780.827	50.04
781.134	49.22
781.44	50.24
781.747	46.92
782.053	47.58
782.36	46.59
782.666	47.67
782.973	46.1
783.279	50.03
783.585	46.26
783.891	47.82
784.197	46.79
784.503	46
784.809	47.6
785.115	47.59
785.421	53.46
785.727	45.56
786.033	49.25
786.339	45.91
786.644	45.58
786.95	47.36
787.255	48.84
787.561	47.81
787.866	45.77
788.172	45.01
788.477	47.8
788.782	48.73
789.088	42.85
789.393	47.69
789.698	51.37
790.003	47.33
790.308	46.7
790.613	48.45
790.918	53.1
791.223	44.93
791.527	45.71
791.832	48.46
792.137	47.1
792.441	49.39
792.746	47.28
793.05	49.95
793.355	48.16
793.659	47.1
793.963	49.51
794.268	41.45
794.572	49.01
794.876	49.02
795.18	45.98
795.484	45.1
795.788	46.72
796.092	48.87
796.396	50.32
796.7	46.98
797.004	48.57
797.307	46.7
797.611	45.57
797.915	49.69
798.218	48.12
798.522	49.31
798.825	50.62
799.128	49.31
799.432	47.91
799.735	46.66
800.038	47.9
800.341	51.63
800.644	52.76
800.947	47.39
801.25	46.8
801.553	47.92
801.856	49.34
802.159	48.71
802.462	47.52
802.764	46.27
803.067	48.92
803.37	46.31
803.672	48.04
803.975	49.59
804.277	48.79
804.579	47.84
804.882	51.51
805.184	48.58
805.486	51.1
805.788	49.48
806.09	50.17
806.392	49.01
806.694	53.73
806.996	46.55
807.298	49.23
807.6	47.08
807.902	52.09
808.203	51.12
808.505	51.87
808.807	52.95
809.108	47.97
809.409	45.86
809.711	51.35
810.012	48.09
810.313	49.96
810.615	50.27
810.916	50.27
811.217	48.88
811.518	45.91
811.819	47.39
812.12	50.66
812.421	52.48
812.722	50.49
813.023	48.03
813.323	51.33
813.624	49.18
813.925	48.83
814.225	41.39
814.526	45.52
814.826	49.75
815.126	50.18
815.427	52.48
815.727	52.32
816.027	49.19
816.327	46.41
816.627	55.31
816.927	44.98
817.227	46.22
817.527	47.28
817.827	47.14
818.127	52.01
818.427	48.25
818.727	53.98
819.026	52.39
819.326	50.52
819.625	50.98
819.925	52.55
820.224	48.95
820.524	49.82
820.823	49
821.122	48.51
821.421	50.94
821.72	50.78
822.019	47.93
822.318	51.65
822.617	50.15
822.916	47.3
823.215	49.57
823.514	49.64
823.813	47.87
824.111	49.65
824.41	49.23
824.709	48.86
825.007	49
825.306	49.66
825.604	49.86
825.902	50.09
826.201	49.75
826.499	49.4
826.797	48.84
827.095	49.27
827.393	50.78
827.691	50.19
827.989	47.73
828.287	51.14
828.585	50.83
828.882	51.42
829.18	49.01
829.478	51.17
829.775	49.72
830.073	49.88
830.37	50.86
830.668	50.96
830.965	50.9
831.263	52.35
831.56	52.29
831.857	51.62
832.154	51.35
832.451	51.87
832.748	49.9
833.045	47.67
833.342	56.9
833.639	58.15
833.936	47.92
834.232	52.69
834.529	41.99
834.826	44.72
835.122	48.34
835.419	52.47
835.715	50.23
836.012	47.08
836.308	51.69
836.604	50.8
836.901	52.94
837.197	50.93
837.493	52.35
837.789	49.96
838.085	50.73
838.381	53.66
838.677	50.94
838.972	46.05
839.268	49.28
839.564	46.74
839.86	49.7
840.155	47.55
840.451	48.26
840.746	50.14
841.042	45.61
841.337	54.34
841.632	64.14
841.928	51.72
842.223	53.79
842.518	58.73
842.813	58.61
843.108	45.26
843.403	52.7
843.698	50.3
843.993	50.14
844.287	56.5
844.582	53.63
844.877	62.58
845.171	58.56
845.466	47.57
845.761	54.11
846.055	46.13
846.349	44.24
846.644	40.69
846.938	43.29
847.232	59.43
847.526	46.92
847.82	48.82
848.114	50.33
848.408	57.76
848.702	42.64
848.996	50.4
849.29	62
849.584	52.95
849.877	51.74
850.171	70.97
850.465	51.3
850.758	49.95
851.052	49.43
851.345	54.82
851.638	35.81
851.932	63.83
852.225	55.07
852.518	42.76
852.811	28.79
853.104	46.22
853.397	71.85
853.69	51.83
853.983	41.6
854.276	46.39
854.569	52.29
854.861	52.06
855.154	62.98
855.447	39.55
855.739	64.24
856.032	45.04
856.324	51.65
856.616	54.68
856.909	55.74
857.201	46.1
857.493	41.23
857.785	57.27
858.077	61.25
858.369	62.76
858.661	66.85
858.953	44.73
859.245	61.01
859.537	42.31
859.829	58.18
860.12	50.19
860.412	46.04
860.703	37.49
860.995	26.65
861.286	51.01
861.578	39.45
861.869	48.18
862.16	62.93
862.452	51.15
862.743	44.04
863.034	38.74
863.325	22.8
863.616	77.8
863.907	43.81
864.198	53.05
864.488	78.2
864.779	34.33
865.07	67.52
865.36	50.71
865.651	48.17
865.941	70.64
866.232	61.37
866.522	51.09
866.813	58.93
867.103	36.88
867.393	67.86
867.683	66.19
867.973	63.32
868.263	41.55
868.553	63.38
868.843	76.8
869.133	51.45
869.423	59.85
869.713	62.87
870.002	71.87
870.292	55.68
870.582	55.84
870.871	47.76
871.161	45.13
871.45	62.42
871.739	55.3
872.029	43.79
872.318	52.93
872.607	65.5
872.896	46.33
873.185	57.16
873.474	42.49
873.763	58.13
874.052	27.18
874.341	32.81
874.63	60.26
874.918	49.72
875.207	43.07
875.496	51.68
875.784	67.63
876.073	38.68
876.361	44.43
876.649	53.24
876.938	57.47
877.226	66.91
877.514	31.96
877.802	62.81
878.09	61.99
878.378	42.03
878.666	61.18
878.954	46.66
879.242	58.29
879.53	50.27
879.817	75.7
880.105	64.83
880.392	64.89
880.68	34.87
880.967	61.55
881.255	43.65
881.542	42.89
881.83	59.76
882.117	49.96
882.404	42.15
882.691	53.9
882.978	55.58
883.265	37.62
883.552	43.07
883.839	58.43
884.126	55.12
884.413	53.71
884.699	54.25
884.986	57.09
885.273	55.04
885.559	55.04
885.846	55.04
