Data from 21-4_forehead_Reflection__1__146.txt Node

Date: Thu Dec 15 17:37:54 CST 2022
User: ToomeyLab
Spectrometer: FLMS14357
Trigger mode: 0
Integration Time (sec): 1.000000E-2
Scans to average: 100
Electric dark correction enabled: true
Nonlinearity correction enabled: false
Boxcar width: 0
XAxis mode: Wavelengths
Number of Pixels in Spectrum: 2048
>>>>>Begin Spectral Data<<<<<
189.047	48.5
189.435	48.5
189.823	48.5
190.211	23.4
190.599	92.23
190.987	-95.19
191.375	50.44
191.763	57.41
192.151	189.29
192.538	329.83
192.926	75.96
193.314	60.17
193.702	-77.81
194.089	-147.29
194.477	217.08
194.864	-225.82
195.252	168.36
195.639	69.81
196.027	4.59
196.414	173.24
196.801	230.51
197.189	-140.03
197.576	63.15
197.963	-21.6
198.351	10.04
198.738	-64.2
199.125	39.46
199.512	36.81
199.899	-24.44
200.286	40.56
200.673	47.5
201.06	28.96
201.447	21.51
201.833	39.86
202.22	24.91
202.607	14.86
202.994	17.08
203.38	15.9
203.767	18.35
204.154	47.44
204.54	9.12
204.927	10.99
205.313	46.44
205.699	42.75
206.086	76.25
206.472	37.16
206.858	2.71
207.245	6.02
207.631	-13.54
208.017	22.14
208.403	6.6
208.789	23.26
209.175	25.12
209.561	-18.05
209.947	39.86
210.333	8.97
210.719	36.83
211.105	42.34
211.491	25.98
211.876	-5.29
212.262	20.04
212.648	30.59
213.034	8.92
213.419	-13.02
213.805	-16.69
214.19	4.07
214.576	15.23
214.961	21.31
215.346	34.97
215.732	17.57
216.117	36.96
216.502	-2.5
216.888	6.62
217.273	26.19
217.658	1.18
218.043	-39.96
218.428	-28.98
218.813	32.71
219.198	-5.12
219.583	14.75
219.968	24.97
220.353	20.57
220.738	11.14
221.122	1.23
221.507	-11.11
221.892	-21.98
222.276	6.92
222.661	-7.05
223.046	12.31
223.43	17.55
223.815	3.13
224.199	7.87
224.583	5.91
224.968	0.04
225.352	1.39
225.736	0.44
226.121	3.67
226.505	4.66
226.889	8.03
227.273	1.36
227.657	4.84
228.041	5.68
228.425	7.22
228.809	4.43
229.193	3.92
229.577	3.54
229.961	3.63
230.344	4.6
230.728	4.81
231.112	5.72
231.495	3.3
231.879	5.05
232.263	5.36
232.646	2.56
233.03	6.47
233.413	6.35
233.797	3.59
234.18	6.77
234.563	4.88
234.946	7.06
235.33	4.41
235.713	4.7
236.096	5.07
236.479	5.95
236.862	3.48
237.245	4.52
237.628	5.19
238.011	4.3
238.394	4.18
238.777	4.35
239.16	5.13
239.543	7.15
239.925	3.44
240.308	4.63
240.691	3.23
241.073	2.62
241.456	5.9
241.838	4.9
242.221	5.2
242.603	5.46
242.986	4.77
243.368	4.77
243.75	4.99
244.133	5.04
244.515	4.84
244.897	4.48
245.279	4.29
245.661	4.25
246.043	6.33
246.425	5.92
246.807	4.62
247.189	4.91
247.571	4.37
247.953	4.54
248.335	4.63
248.717	4.61
249.098	4.9
249.48	4.51
249.862	5.38
250.243	5.33
250.625	5.14
251.006	5.47
251.388	5.06
251.769	5.24
252.151	6.29
252.532	4.86
252.913	5.11
253.295	4.39
253.676	4.66
254.057	4.78
254.438	3.97
254.819	5.42
255.2	5.15
255.581	5.77
255.962	5.31
256.343	5.66
256.724	4.89
257.105	5.1
257.486	5.23
257.867	5.69
258.247	5.27
258.628	5.71
259.009	4.75
259.389	4.98
259.77	5.1
260.15	5.3
260.531	4.79
260.911	4.65
261.292	4.83
261.672	4.68
262.052	4.84
262.432	4.44
262.813	4.88
263.193	5.09
263.573	4.94
263.953	4.37
264.333	4.75
264.713	5.36
265.093	5.38
265.473	4.02
265.853	6.31
266.233	4.88
266.612	4.17
266.992	4.61
267.372	5.24
267.752	4.92
268.131	4.68
268.511	5.03
268.89	5.12
269.27	4.29
269.649	3.92
270.029	4.52
270.408	4.3
270.787	4.78
271.167	4.67
271.546	5.5
271.925	5.18
272.304	4.61
272.683	4.2
273.062	4.48
273.441	4.6
273.82	5.08
274.199	4.69
274.578	4.6
274.957	5.35
275.336	4.85
275.715	5.01
276.093	4.24
276.472	4.36
276.851	4.84
277.229	4.62
277.608	4.15
277.986	4.75
278.365	5.57
278.743	5.02
279.122	4.76
279.5	4.69
279.878	4.38
280.257	5.12
280.635	4.69
281.013	4.21
281.391	4.81
281.769	4.96
282.147	5.05
282.525	4.83
282.903	4.32
283.281	4.87
283.659	4.97
284.037	4.65
284.415	4.69
284.792	4.91
285.17	4.94
285.548	4.71
285.925	4.91
286.303	5.35
286.68	5.14
287.058	4.94
287.435	5.04
287.813	5
288.19	5.09
288.567	5.07
288.945	4.72
289.322	5.47
289.699	5.4
290.076	5.23
290.453	4.99
290.83	5.75
291.207	5.43
291.584	5.82
291.961	5.31
292.338	5.21
292.715	5.63
293.092	5.62
293.469	5.51
293.845	5.98
294.222	6.18
294.599	5.32
294.975	5.6
295.352	6.64
295.728	5.9
296.105	5.89
296.481	6.13
296.858	5.89
297.234	5.4
297.61	5.95
297.986	6.3
298.363	6.07
298.739	6.24
299.115	6.24
299.491	6.54
299.867	6.33
300.243	6.02
300.619	6.34
300.995	6.48
301.371	6.45
301.746	6.76
302.122	6.22
302.498	6.67
302.874	6.75
303.249	6.42
303.625	6.85
304	7.2
304.376	7.13
304.751	6.83
305.127	6.72
305.502	7.36
305.878	6.98
306.253	7.18
306.628	7.34
307.003	7.07
307.378	7.24
307.754	7.71
308.129	7.45
308.504	7.2
308.879	7.55
309.254	8.04
309.629	7.71
310.003	8.09
310.378	8.08
310.753	8.22
311.128	7.99
311.502	7.94
311.877	7.89
312.252	8.32
312.626	8.45
313.001	8.2
313.375	8.1
313.75	8.44
314.124	8.73
314.498	8.8
314.873	8.49
315.247	8.52
315.621	8.28
315.995	8.84
316.369	8.76
316.743	8.26
317.117	8.88
317.491	8.94
317.865	8.51
318.239	9.5
318.613	8.84
318.987	8.93
319.361	9.39
319.734	8.52
320.108	9.19
320.482	9.33
320.855	9.04
321.229	9.58
321.602	9.74
321.976	9.51
322.349	10.01
322.723	9.67
323.096	9.74
323.469	9.54
323.843	9.89
324.216	10.04
324.589	9.73
324.962	9.57
325.335	9.72
325.708	10.24
326.081	10.17
326.454	9.97
326.827	10.26
327.2	9.65
327.573	10.56
327.945	10.31
328.318	9.7
328.691	10.31
329.063	9.76
329.436	10.47
329.809	11.07
330.181	10.64
330.553	10.96
330.926	10.95
331.298	10.6
331.671	10.68
332.043	10.35
332.415	11.18
332.787	11.3
333.159	10.83
333.532	10.91
333.904	11.21
334.276	10.82
334.648	11.03
335.02	10.84
335.391	10.8
335.763	11.25
336.135	11.3
336.507	10.58
336.879	11.54
337.25	11.19
337.622	11.42
337.993	11.44
338.365	11.86
338.736	11.56
339.108	11.56
339.479	11.57
339.851	11.59
340.222	12.16
340.593	11.33
340.964	11.55
341.336	11.41
341.707	11.46
342.078	11.78
342.449	11.51
342.82	11.62
343.191	11.99
343.562	11.95
343.933	11.68
344.303	11.95
344.674	11.95
345.045	12.22
345.416	12.3
345.786	12.05
346.157	12.22
346.527	12.23
346.898	11.96
347.268	12.7
347.639	12.22
348.009	12.38
348.38	12.19
348.75	12.62
349.12	12.58
349.49	12.8
349.861	12.59
350.231	12.79
350.601	12.66
350.971	12.6
351.341	12.77
351.711	13
352.081	12.6
352.45	12.62
352.82	12.37
353.19	13.09
353.56	12.73
353.929	12.66
354.299	12.87
354.669	13.35
355.038	13.15
355.408	12.96
355.777	13.2
356.147	12.95
356.516	13.27
356.885	12.92
357.254	13.06
357.624	13.2
357.993	13.33
358.362	13.42
358.731	13.3
359.1	13.44
359.469	13.37
359.838	13.41
360.207	13.57
360.576	13.58
360.945	13.5
361.314	13.72
361.682	13.4
362.051	13.58
362.42	13.61
362.788	13.93
363.157	13.46
363.525	13.69
363.894	13.37
364.262	13.7
364.631	14.05
364.999	13.93
365.367	13.88
365.735	13.93
366.104	14.23
366.472	14.14
366.84	14.21
367.208	13.92
367.576	14.05
367.944	14.61
368.312	14.48
368.68	14.68
369.048	14.24
369.416	14.12
369.783	14.15
370.151	14.55
370.519	14.43
370.886	14.68
371.254	14.5
371.621	14.72
371.989	14.53
372.356	14.88
372.724	14.53
373.091	14.72
373.458	14.59
373.826	15
374.193	14.74
374.56	15.07
374.927	15.12
375.294	15.29
375.661	14.96
376.028	14.92
376.395	15
376.762	14.95
377.129	14.81
377.496	15.05
377.863	15.44
378.229	15.43
378.596	15.33
378.963	15.39
379.329	15.37
379.696	15.14
380.062	15.59
380.429	15.24
380.795	15.3
381.161	15.27
381.528	15.38
381.894	15.29
382.26	15.57
382.626	15.65
382.993	15.87
383.359	15.68
383.725	15.65
384.091	15.74
384.457	15.65
384.823	15.88
385.188	15.79
385.554	15.93
385.92	15.79
386.286	15.86
386.651	15.78
387.017	16.2
387.383	15.9
387.748	16.03
388.114	16.29
388.479	16.02
388.845	15.86
389.21	16.45
389.575	16.58
389.94	16.5
390.306	16.17
390.671	16.29
391.036	16.12
391.401	16.48
391.766	16.27
392.131	16.87
392.496	16.73
392.861	16.48
393.226	16.3
393.591	16.58
393.956	16.48
394.32	16.71
394.685	16.49
395.05	16.6
395.414	16.64
395.779	16.85
396.143	16.6
396.508	16.77
396.872	16.84
397.236	17.16
397.601	16.98
397.965	17.05
398.329	16.99
398.694	17.12
399.058	17.07
399.422	17.12
399.786	17.02
400.15	17.06
400.514	17.37
400.878	16.98
401.242	17.3
401.605	17.2
401.969	17.23
402.333	17.08
402.697	17.56
403.06	17.6
403.424	17.31
403.787	17.52
404.151	17.45
404.514	17.51
404.878	17.3
405.241	17.48
405.604	17.57
405.968	17.4
406.331	17.62
406.694	17.65
407.057	17.73
407.42	17.66
407.783	17.87
408.146	17.78
408.509	17.99
408.872	17.86
409.235	18.09
409.598	17.95
409.961	17.98
410.323	17.69
410.686	18.04
411.049	18.07
411.411	18.04
411.774	18.22
412.136	18.08
412.499	18.33
412.861	17.82
413.223	18.17
413.586	18.38
413.948	18.23
414.31	18.17
414.672	18.39
415.035	18.49
415.397	18.38
415.759	18.19
416.121	18.64
416.483	18.53
416.845	18.65
417.206	18.54
417.568	18.42
417.93	18.44
418.292	18.28
418.653	18.46
419.015	18.48
419.377	18.48
419.738	18.61
420.1	18.61
420.461	18.56
420.822	18.65
421.184	18.6
421.545	18.68
421.906	18.58
422.267	18.58
422.629	18.5
422.99	18.53
423.351	18.63
423.712	18.67
424.073	18.93
424.434	18.9
424.795	18.91
425.155	18.77
425.516	18.64
425.877	18.74
426.238	18.83
426.598	18.97
426.959	18.99
427.32	19.01
427.68	19.16
428.041	19.41
428.401	19.23
428.761	19.44
429.122	19.33
429.482	19.59
429.842	19.32
430.202	19.65
430.563	19.61
430.923	19.5
431.283	19.78
431.643	19.81
432.003	19.72
432.363	19.82
432.722	19.92
433.082	19.79
433.442	19.98
433.802	19.92
434.161	20.05
434.521	19.96
434.881	19.89
435.24	20.02
435.6	19.83
435.959	20.12
436.319	20.06
436.678	20.15
437.037	20.26
437.396	20.29
437.756	20.31
438.115	20.33
438.474	20.45
438.833	20.14
439.192	20.31
439.551	20.05
439.91	20.52
440.269	20.36
440.628	20.34
440.987	20.35
441.345	20.44
441.704	20.39
442.063	20.35
442.421	20.52
442.78	20.47
443.138	20.58
443.497	20.66
443.855	20.73
444.214	20.74
444.572	20.9
444.93	20.79
445.288	20.88
445.647	20.83
446.005	20.88
446.363	20.82
446.721	21.02
447.079	20.87
447.437	20.89
447.795	20.75
448.153	20.66
448.51	20.85
448.868	20.66
449.226	20.96
449.584	21.04
449.941	21.13
450.299	21.24
450.656	21.21
451.014	21.36
451.371	21.56
451.729	21.47
452.086	21.61
452.443	21.61
452.801	21.64
453.158	21.84
453.515	21.55
453.872	21.66
454.229	21.54
454.586	21.58
454.943	21.83
455.3	21.89
455.657	21.87
456.014	21.96
456.371	21.81
456.727	22.11
457.084	22.06
457.441	22.1
457.797	22.04
458.154	22.12
458.51	22.11
458.867	22.13
459.223	22
459.58	22.11
459.936	22.15
460.292	22.13
460.648	22.16
461.005	21.92
461.361	21.96
461.717	21.98
462.073	22.1
462.429	22.26
462.785	22.48
463.141	22.65
463.496	22.51
463.852	22.83
464.208	22.78
464.564	22.52
464.919	22.84
465.275	22.71
465.631	22.98
465.986	23.02
466.342	22.89
466.697	23.03
467.052	23.08
467.408	23.13
467.763	22.87
468.118	22.92
468.473	23.02
468.829	22.87
469.184	23.25
469.539	23.17
469.894	23.13
470.249	23.28
470.603	23.36
470.958	23.51
471.313	23.37
471.668	23.38
472.023	23.53
472.377	23.49
472.732	23.53
473.086	23.54
473.441	23.63
473.795	23.79
474.15	23.59
474.504	23.62
474.859	23.52
475.213	23.76
475.567	23.55
475.921	23.91
476.275	24.06
476.63	23.99
476.984	23.82
477.338	23.86
477.692	23.85
478.045	23.92
478.399	23.88
478.753	23.9
479.107	23.99
479.461	23.99
479.814	24.09
480.168	24.01
480.521	24.18
480.875	24.13
481.228	24.17
481.582	24.1
481.935	24.24
482.289	24.08
482.642	24.06
482.995	24.19
483.348	23.89
483.701	24.02
484.055	24.07
484.408	23.86
484.761	23.47
485.114	23.41
485.466	23.34
485.819	23.43
486.172	23.59
486.525	23.74
486.878	23.96
487.23	23.95
487.583	24.19
487.936	24.17
488.288	24.1
488.641	23.9
488.993	23.89
489.345	23.97
489.698	23.94
490.05	24.09
490.402	24.19
490.754	24.4
491.107	24.45
491.459	24.75
491.811	24.72
492.163	24.72
492.515	24.55
492.866	24.31
493.218	24.29
493.57	24.39
493.922	24.51
494.274	24.79
494.625	24.99
494.977	25.03
495.328	25.31
495.68	25.39
496.031	25.5
496.383	25.52
496.734	25.51
497.086	25.54
497.437	25.64
497.788	25.53
498.139	25.39
498.49	25.47
498.842	25.56
499.193	25.58
499.544	25.58
499.894	25.61
500.245	25.84
500.596	25.92
500.947	25.92
501.298	25.86
501.648	25.9
501.999	26.1
502.35	25.92
502.7	26.38
503.051	26.19
503.401	26.1
503.752	26.13
504.102	26.14
504.452	26.13
504.803	26.17
505.153	26.3
505.503	26.45
505.853	26.58
506.203	26.36
506.553	26.44
506.903	26.63
507.253	26.64
507.603	26.63
507.953	26.55
508.303	26.79
508.652	26.5
509.002	26.82
509.352	26.62
509.701	26.59
510.051	26.73
510.4	26.6
510.75	26.61
511.099	26.6
511.449	26.8
511.798	26.86
512.147	26.83
512.496	27
512.846	27.03
513.195	26.98
513.544	27.07
513.893	26.82
514.242	26.86
514.591	27.12
514.939	27.27
515.288	27.16
515.637	27.3
515.986	27.28
516.334	27.44
516.683	27.25
517.032	27.33
517.38	27.36
517.729	27.38
518.077	27.55
518.426	27.49
518.774	27.37
519.122	27.31
519.47	27.16
519.819	27.24
520.167	27.19
520.515	27.3
520.863	27.31
521.211	27.38
521.559	27.58
521.907	27.56
522.255	27.68
522.602	27.89
522.95	28.02
523.298	27.79
523.645	27.99
523.993	28
524.341	28.07
524.688	28.09
525.036	27.99
525.383	28.06
525.73	28.02
526.078	28.23
526.425	27.96
526.772	27.91
527.119	27.85
527.466	27.85
527.814	27.91
528.161	28.07
528.508	28.05
528.854	27.96
529.201	27.92
529.548	27.61
529.895	27.49
530.242	27.36
530.588	27.66
530.935	27.8
531.282	27.87
531.628	27.97
531.975	28.07
532.321	28.26
532.667	28.53
533.014	28.52
533.36	28.43
533.706	28.58
534.052	28.44
534.399	28.38
534.745	28.1
535.091	28.11
535.437	28.27
535.783	28.52
536.129	28.69
536.474	28.96
536.82	28.87
537.166	28.83
537.512	28.99
537.857	28.86
538.203	28.82
538.549	28.77
538.894	28.84
539.239	29.22
539.585	29.25
539.93	29.26
540.276	29.52
540.621	29.73
540.966	29.61
541.311	29.63
541.656	29.31
542.001	29.15
542.346	28.95
542.691	28.84
543.036	28.86
543.381	28.84
543.726	29.09
544.071	29.21
544.415	29.22
544.76	29.41
545.105	29.46
545.449	29.62
545.794	29.61
546.138	29.59
546.483	30
546.827	29.9
547.171	29.95
547.516	29.86
547.86	29.88
548.204	29.88
548.548	29.87
548.892	29.95
549.236	30.1
549.58	30.3
549.924	30.31
550.268	30.47
550.612	30.76
550.956	30.94
551.3	30.68
551.643	30.82
551.987	30.95
552.33	30.85
552.674	30.63
553.017	30.83
553.361	31.04
553.704	30.9
554.048	30.82
554.391	30.8
554.734	30.74
555.077	30.78
555.42	30.89
555.764	31.09
556.107	31.18
556.45	31.13
556.793	31.24
557.135	31.28
557.478	31.33
557.821	31.43
558.164	31.38
558.507	31.12
558.849	31.46
559.192	31.48
559.534	31.39
559.877	31.78
560.219	31.69
560.562	31.54
560.904	31.64
561.246	31.66
561.589	32.03
561.931	31.97
562.273	31.82
562.615	31.63
562.957	31.7
563.299	32.04
563.641	31.84
563.983	31.9
564.325	32.03
564.667	32.16
565.008	31.82
565.35	31.81
565.692	32.26
566.033	31.93
566.375	32.14
566.716	32.17
567.058	32.19
567.399	32.17
567.741	32.06
568.082	31.89
568.423	32.07
568.764	32.21
569.105	32.27
569.447	32.46
569.788	32.27
570.129	32.37
570.47	32.41
570.811	32.43
571.151	32.45
571.492	32.45
571.833	32.43
572.174	32.49
572.514	32.51
572.855	32.51
573.195	32.66
573.536	32.58
573.876	32.36
574.217	32.45
574.557	32.63
574.898	32.58
575.238	32.79
575.578	32.87
575.918	32.73
576.258	33.15
576.598	32.93
576.938	33.06
577.278	32.92
577.618	32.89
577.958	33.06
578.298	33.28
578.638	32.95
578.977	33.15
579.317	33.37
579.657	33.29
579.996	33.37
580.336	33.49
580.675	33.49
581.014	33.46
581.354	33.57
581.693	33.73
582.032	34
582.372	33.83
582.711	33.84
583.05	33.6
583.389	33.63
583.728	33.96
584.067	33.87
584.406	33.92
584.745	34.19
585.083	34.09
585.422	34.19
585.761	34.16
586.1	33.97
586.438	34.18
586.777	33.93
587.115	34.05
587.454	34.22
587.792	33.87
588.13	34.18
588.469	34.27
588.807	34.4
589.145	34.44
589.483	34.2
589.821	34.49
590.159	34.33
590.497	34.47
590.835	34.53
591.173	34.48
591.511	34.57
591.849	34.48
592.187	34.47
592.524	34.73
592.862	34.72
593.2	34.43
593.537	34.72
593.875	34.47
594.212	34.67
594.55	34.58
594.887	35.09
595.224	35.12
595.561	34.93
595.899	34.59
596.236	34.89
596.573	35.01
596.91	34.83
597.247	35.12
597.584	34.96
597.921	34.81
598.258	34.71
598.594	34.56
598.931	34.6
599.268	34.61
599.604	35.07
599.941	35.01
600.277	35.38
600.614	35.02
600.95	35.34
601.287	35.13
601.623	35
601.959	35.16
602.296	35.19
602.632	35.34
602.968	35.41
603.304	35.37
603.64	35.3
603.976	35.2
604.312	35.28
604.648	35.32
604.984	35.41
605.319	35.17
605.655	35.29
605.991	35.18
606.326	35.26
606.662	35.28
606.998	35.64
607.333	35.62
607.668	35.54
608.004	35.75
608.339	35.74
608.674	35.71
609.01	35.84
609.345	35.97
609.68	35.94
610.015	35.95
610.35	36.09
610.685	35.48
611.02	35.63
611.355	35.88
611.689	35.92
612.024	36.01
612.359	35.98
612.694	36.12
613.028	36.18
613.363	36.03
613.697	36.23
614.032	36.37
614.366	36.26
614.7	36.33
615.035	36.78
615.369	36.66
615.703	36.38
616.037	36.64
616.371	36.48
616.705	36.48
617.039	36.58
617.373	36.66
617.707	36.76
618.041	36.25
618.375	36.14
618.709	36.79
619.042	36.57
619.376	36.51
619.71	36.81
620.043	37.08
620.377	37.55
620.71	37.13
621.043	37.42
621.377	37.42
621.71	37.36
622.043	37.07
622.376	36.9
622.709	37.24
623.043	36.85
623.376	37
623.709	37.36
624.041	37.3
624.374	37.45
624.707	36.89
625.04	37.27
625.373	37.38
625.705	37.21
626.038	37.46
626.37	37.3
626.703	37.56
627.035	37.35
627.368	37.53
627.7	37.02
628.032	37.28
628.365	37.46
628.697	37.42
629.029	37.51
629.361	37.58
629.693	37.49
630.025	37.72
630.357	37.47
630.689	37.42
631.021	37.45
631.353	37.57
631.684	37.52
632.016	37.43
632.348	37.93
632.679	37.47
633.011	37.87
633.342	37.78
633.674	37.83
634.005	37.65
634.336	38
634.668	37.9
634.999	37.43
635.33	37.94
635.661	37.63
635.992	38.03
636.323	38.03
636.654	37.95
636.985	37.98
637.316	38.29
637.647	38.12
637.977	38.25
638.308	38.28
638.639	38.25
638.969	38.07
639.3	37.8
639.63	37.84
639.961	38.28
640.291	38.08
640.622	38.37
640.952	38.63
641.282	38.43
641.612	38.56
641.943	38.19
642.273	38.37
642.603	38.81
642.933	38.47
643.263	38.42
643.592	38.77
643.922	38.98
644.252	38.69
644.582	39.11
644.911	38.42
645.241	38.98
645.571	39.02
645.9	38.64
646.23	38.62
646.559	38.78
646.888	38.84
647.218	38.58
647.547	39.13
647.876	39.09
648.205	38.58
648.534	39.06
648.863	39.44
649.192	39.19
649.521	38.49
649.85	39.09
650.179	38.69
650.508	39.03
650.837	39.41
651.165	38.95
651.494	38.93
651.822	39.66
652.151	39.55
652.479	39.26
652.808	39.05
653.136	39.19
653.465	39.25
653.793	39.41
654.121	39.87
654.449	39.15
654.777	38.96
655.105	38.82
655.433	39.44
655.761	39.2
656.089	39.45
656.417	40.12
656.745	39.11
657.073	39.55
657.4	39.72
657.728	39.02
658.056	39.6
658.383	39.65
658.711	39.62
659.038	39.83
659.365	39.86
659.693	39.35
660.02	39.51
660.347	39.53
660.674	39.71
661.001	39.46
661.329	39.4
661.656	39.53
661.982	39.3
662.309	39.5
662.636	40.15
662.963	40.11
663.29	40.43
663.616	39.9
663.943	40.36
664.27	40.33
664.596	39.64
664.923	40.52
665.249	40.4
665.576	39.74
665.902	40.02
666.228	40.43
666.554	40.41
666.881	39.91
667.207	40.15
667.533	40.23
667.859	39.93
668.185	40.17
668.511	40.34
668.837	40.36
669.162	40.46
669.488	40.55
669.814	39.78
670.139	40.18
670.465	40.8
670.791	40.75
671.116	39.85
671.442	40.07
671.767	40.28
672.092	40.37
672.418	40.23
672.743	40.19
673.068	39.74
673.393	40.91
673.718	40.17
674.043	40.87
674.368	40.51
674.693	40.37
675.018	40.8
675.343	41.04
675.667	40.41
675.992	40.68
676.317	40.41
676.641	40.96
676.966	40.31
677.29	40.8
677.615	40.51
677.939	40.5
678.264	41.01
678.588	41.62
678.912	41.2
679.236	41.02
679.56	40.73
679.885	40.58
680.209	41.09
680.532	41.46
680.856	41.11
681.18	41.03
681.504	41.08
681.828	39.96
682.152	40.35
682.475	40.74
682.799	41.52
683.122	41.67
683.446	40.65
683.769	41.47
684.093	40.43
684.416	41.67
684.739	40.99
685.062	41.73
685.386	40.93
685.709	41.12
686.032	41.16
686.355	40.09
686.678	41.17
687.001	41.36
687.324	42.03
687.646	41.43
687.969	41.67
688.292	41.7
688.614	41.34
688.937	41.09
689.26	41.68
689.582	42.11
689.904	41.67
690.227	41.93
690.549	41.97
690.871	41.47
691.194	41.59
691.516	41.65
691.838	41.95
692.16	42.18
692.482	42.05
692.804	41.68
693.126	41.13
693.448	42.23
693.769	42.36
694.091	41.91
694.413	41.31
694.735	41.76
695.056	41.18
695.378	41.91
695.699	40.88
696.021	41.84
696.342	41.17
696.663	42.41
696.984	41.2
697.306	42.07
697.627	42.12
697.948	41.66
698.269	42.21
698.59	41.12
698.911	42.53
699.232	42.79
699.553	42.74
699.873	41.85
700.194	41.8
700.515	41.96
700.835	42.14
701.156	42.2
701.477	42.15
701.797	42.15
702.117	42.02
702.438	42.98
702.758	42.71
703.078	42.11
703.398	42.77
703.719	42.15
704.039	42.91
704.359	41.84
704.679	43.24
704.999	42.7
705.319	41
705.638	41.79
705.958	42.48
706.278	42.52
706.597	42.79
706.917	42.84
707.237	43.04
707.556	42.85
707.876	41.94
708.195	43.48
708.514	42.34
708.834	42.4
709.153	42.95
709.472	42.82
709.791	41.85
710.11	42.28
710.429	43.24
710.748	44.06
711.067	43.15
711.386	42.64
711.705	43.11
712.023	42.65
712.342	41.79
712.661	43.51
712.979	44.14
713.298	43.52
713.616	42.38
713.935	43.24
714.253	42.16
714.572	43.5
714.89	42.89
715.208	42.52
715.526	43.31
715.844	43.41
716.162	43.91
716.48	43.16
716.798	43.18
717.116	43.42
717.434	43.45
717.752	43.32
718.069	43.11
718.387	42.62
718.705	42.71
719.022	43.67
719.34	41.8
719.657	43.65
719.975	42.23
720.292	43.54
720.609	41.97
720.927	42.15
721.244	43.79
721.561	43.51
721.878	43.77
722.195	44.17
722.512	44.02
722.829	43.55
723.146	43.85
723.463	43.15
723.779	43.17
724.096	43.03
724.413	44.71
724.729	43.74
725.046	44.37
725.362	43.76
725.679	43.44
725.995	43.35
726.311	43.83
726.628	42.47
726.944	43.06
727.26	42.82
727.576	43.7
727.892	44.9
728.208	43.93
728.524	43.04
728.84	44.72
729.156	43.19
729.472	44.01
729.787	43.5
730.103	43.89
730.419	43.08
730.734	42.48
731.05	42.16
731.365	45.24
731.681	44.3
731.996	44.17
732.311	42.44
732.626	44.7
732.942	43.66
733.257	42.96
733.572	44.12
733.887	43.85
734.202	44.56
734.517	43.8
734.832	43.43
735.146	45.5
735.461	44.2
735.776	44.66
736.091	44.99
736.405	42.84
736.72	42.28
737.034	44.9
737.349	45.11
737.663	45.3
737.977	44.18
738.292	43.91
738.606	44.92
738.92	44.95
739.234	44.98
739.548	45.1
739.862	44.32
740.176	44.45
740.49	44.19
740.804	43.41
741.117	44.9
741.431	44.2
741.745	45.87
742.058	43.51
742.372	44.93
742.685	45.15
742.999	43.44
743.312	43.44
743.626	45.23
743.939	43.8
744.252	42.42
744.565	44.36
744.878	42.72
745.191	44.93
745.505	43.96
745.817	44.57
746.13	44.86
746.443	44.81
746.756	43.77
747.069	45.16
747.381	44.19
747.694	43.05
748.007	45.19
748.319	46.24
748.632	43.38
748.944	44.66
749.256	46.03
749.569	43.72
749.881	45.12
750.193	44.58
750.505	44.98
750.817	45.83
751.129	46.82
751.441	45.67
751.753	45.27
752.065	45.56
752.377	45.59
752.689	44.23
753	43.95
753.312	47.06
753.624	45.64
753.935	43.11
754.247	44.82
754.558	43.27
754.869	45.2
755.181	44.43
755.492	43.34
755.803	44.83
756.114	44.34
756.425	42.62
756.736	47.28
757.047	45.14
757.358	44.2
757.669	44.92
757.98	44.06
758.291	45.61
758.601	44.35
758.912	45.43
759.223	44.11
759.533	43.87
759.844	44.24
760.154	45.74
760.464	45.35
760.775	44.69
761.085	45.76
761.395	44.87
761.705	44.76
762.016	45.1
762.326	46.26
762.636	46.73
762.945	44.08
763.255	46.02
763.565	44.2
763.875	44.92
764.185	45.99
764.494	44.63
764.804	44.71
765.113	45.88
765.423	45.3
765.732	46.32
766.042	46.66
766.351	45.47
766.66	46.41
766.97	46.1
767.279	45.32
767.588	45.71
767.897	45.82
768.206	46.12
768.515	43.62
768.824	46.14
769.133	45.11
769.441	45.02
769.75	45.25
770.059	45.51
770.367	46.41
770.676	44.19
770.984	46.64
771.293	46.36
771.601	45.57
771.91	42.07
772.218	43.12
772.526	44.79
772.834	44.59
773.142	45.98
773.45	45.75
773.758	47.59
774.066	47.97
774.374	48.11
774.682	44.63
774.99	44.62
775.298	47.07
775.605	44.01
775.913	42.4
776.22	42.12
776.528	45.8
776.835	45.38
777.143	47
777.45	44.13
777.757	45.04
778.065	49.02
778.372	44.89
778.679	49.4
778.986	46.97
779.293	45.29
779.6	47.07
779.907	48.84
780.214	43.87
780.52	46.55
780.827	44.34
781.134	46.12
781.44	48.71
781.747	47.48
782.053	45.72
782.36	46.89
782.666	47.22
782.973	44.57
783.279	44.03
783.585	47.73
783.891	47.67
784.197	44.73
784.503	45.7
784.809	47.49
785.115	47.51
785.421	47.52
785.727	50.49
786.033	44.1
786.339	47.19
786.644	43.2
786.95	44.99
787.255	44.19
787.561	47.01
787.866	48.27
788.172	46.86
788.477	45.24
788.782	46.32
789.088	42.16
789.393	51.91
789.698	43.21
790.003	46.64
790.308	44.92
790.613	47.46
790.918	47.16
791.223	46.83
791.527	47.33
791.832	46.99
792.137	47.3
792.441	46.41
792.746	48.63
793.05	49.15
793.355	48.3
793.659	49.71
793.963	44.63
794.268	49.66
794.572	46.91
794.876	45.32
795.18	48.7
795.484	45.2
795.788	46.83
796.092	43.1
796.396	46.64
796.7	43.73
797.004	44.8
797.307	44.49
797.611	47.08
797.915	45.43
798.218	44.91
798.522	46.3
798.825	48.46
799.128	49.08
799.432	44.22
799.735	51.12
800.038	49.74
800.341	47.27
800.644	48.13
800.947	43.73
801.25	49.19
801.553	48.08
801.856	52.85
802.159	44.88
802.462	44.83
802.764	50
803.067	47.48
803.37	48.66
803.672	48.01
803.975	41.57
804.277	47.99
804.579	47.45
804.882	46.77
805.184	50.09
805.486	46.58
805.788	50.79
806.09	48.03
806.392	45.48
806.694	45.3
806.996	47.17
807.298	47.24
807.6	47.06
807.902	42.86
808.203	45.98
808.505	43.12
808.807	53.43
809.108	48.04
809.409	49.89
809.711	48.86
810.012	49.27
810.313	46.71
810.615	52.74
810.916	45.94
811.217	41.81
811.518	43.93
811.819	45.91
812.12	50.19
812.421	47.01
812.722	51.84
813.023	50.12
813.323	47.19
813.624	47.09
813.925	46.06
814.225	44.41
814.526	44.3
814.826	45.74
815.126	48.37
815.427	47.93
815.727	42.33
816.027	51.17
816.327	43.39
816.627	50.08
816.927	45.39
817.227	45.75
817.527	47.94
817.827	45.22
818.127	48.94
818.427	47.1
818.727	49.2
819.026	46.3
819.326	41.17
819.625	47.07
819.925	47.72
820.224	49.22
820.524	45.26
820.823	48.98
821.122	44.06
821.421	47.27
821.72	43.79
822.019	42.86
822.318	44.56
822.617	49.64
822.916	41.88
823.215	46.34
823.514	48.07
823.813	47.44
824.111	48.36
824.41	47.97
824.709	46.21
825.007	47.95
825.306	48.75
825.604	48.36
825.902	49.29
826.201	48.71
826.499	48.61
826.797	49.08
827.095	52.07
827.393	51.77
827.691	52.05
827.989	47.92
828.287	49.65
828.585	47.05
828.882	48.08
829.18	48.72
829.478	48
829.775	48.8
830.073	50.08
830.37	48.01
830.668	50.45
830.965	50.56
831.263	47.42
831.56	48.16
831.857	47.69
832.154	52.3
832.451	53.04
832.748	45.98
833.045	52.58
833.342	45.67
833.639	46.16
833.936	46.27
834.232	51.56
834.529	47.25
834.826	52.69
835.122	48.4
835.419	48.24
835.715	48.52
836.012	49.9
836.308	52.45
836.604	47.65
836.901	47.04
837.197	44.76
837.493	51.15
837.789	49.01
838.085	48.16
838.381	51.89
838.677	45.04
838.972	47.51
839.268	49.97
839.564	48.47
839.86	53.96
840.155	49.26
840.451	47.5
840.746	50.65
841.042	47.54
841.337	46.24
841.632	50.32
841.928	48.56
842.223	48.2
842.518	48.93
842.813	53.65
843.108	46.42
843.403	51.8
843.698	47.02
843.993	58.7
844.287	46.74
844.582	40.92
844.877	42.26
845.171	46.69
845.466	52.61
845.761	39.42
846.055	56.15
846.349	56.85
846.644	42.18
846.938	51.14
847.232	31.44
847.526	53.78
847.82	46.78
848.114	50.72
848.408	40.1
848.702	49.8
848.996	53.06
849.29	63.97
849.584	40.18
849.877	32.12
850.171	59.06
850.465	47.44
850.758	30.62
851.052	33.91
851.345	47.91
851.638	52.7
851.932	50.84
852.225	53.46
852.518	62.45
852.811	36.5
853.104	54.57
853.397	57.69
853.69	64.75
853.983	49.95
854.276	46.31
854.569	42.22
854.861	36.57
855.154	38.29
855.447	52.39
855.739	25.16
856.032	37.14
856.324	47.13
856.616	52.8
856.909	34.61
857.201	41.74
857.493	42.66
857.785	55.99
858.077	65.28
858.369	46.63
858.661	21.36
858.953	53.43
859.245	54.13
859.537	45.8
859.829	47.48
860.12	25.18
860.412	43.44
860.703	50.06
860.995	58.96
861.286	33.17
861.578	56.34
861.869	54.6
862.16	55.57
862.452	36.44
862.743	43.11
863.034	61.49
863.325	54.62
863.616	51.4
863.907	73.4
864.198	53.93
864.488	43.8
864.779	37.56
865.07	56.69
865.36	40
865.651	42.97
865.941	52.23
866.232	39.74
866.522	39.32
866.813	31.29
867.103	37.08
867.393	34.14
867.683	37.26
867.973	63.11
868.263	16.15
868.553	54.83
868.843	40.76
869.133	46.91
869.423	48.77
869.713	31.62
870.002	34.97
870.292	26.16
870.582	43.36
870.871	54.85
871.161	50.23
871.45	35.99
871.739	58.74
872.029	26
872.318	52.41
872.607	46.13
872.896	63.59
873.185	48.28
873.474	6.29
873.763	56.1
874.052	38.24
874.341	52.28
874.63	66.63
874.918	33.43
875.207	44.32
875.496	33.3
875.784	16.7
876.073	31.02
876.361	69.61
876.649	19.06
876.938	31.81
877.226	50.92
877.514	46.92
877.802	46.01
878.09	71.37
878.378	40.81
878.666	41.69
878.954	51.79
879.242	43.97
879.53	36.72
879.817	46.17
880.105	42.82
880.392	68.42
880.68	65.74
880.967	39.78
881.255	35.84
881.542	18.68
881.83	42.52
882.117	43.57
882.404	54.78
882.691	69.39
882.978	59.84
883.265	65.87
883.552	32.58
883.839	48.72
884.126	51.78
884.413	48.22
884.699	51.31
884.986	50.71
885.273	51.2
885.559	51.2
885.846	51.2
