Data from 21-4_chest_Reflection__2__137.txt Node

Date: Thu Dec 15 17:33:41 CST 2022
User: ToomeyLab
Spectrometer: FLMS14357
Trigger mode: 0
Integration Time (sec): 1.000000E-2
Scans to average: 100
Electric dark correction enabled: true
Nonlinearity correction enabled: false
Boxcar width: 0
XAxis mode: Wavelengths
Number of Pixels in Spectrum: 2048
>>>>>Begin Spectral Data<<<<<
189.047	45.52
189.435	45.52
189.823	45.52
190.211	19.71
190.599	149.37
190.987	-100.47
191.375	52.06
191.763	131.66
192.151	62.48
192.538	90.22
192.926	49.31
193.314	14.06
193.702	15.38
194.089	-55.36
194.477	-35.51
194.864	19.79
195.252	180.17
195.639	52.17
196.027	60.13
196.414	45.85
196.801	87.93
197.189	218.63
197.576	78.03
197.963	-432.75
198.351	40.15
198.738	-28.36
199.125	-20.87
199.512	30.26
199.899	-3.97
200.286	-21.07
200.673	51.06
201.06	14.31
201.447	4.76
201.833	-26.3
202.22	37.98
202.607	-5.81
202.994	25.44
203.38	-3.18
203.767	20.89
204.154	30.07
204.54	38.73
204.927	28.34
205.313	57.64
205.699	10.28
206.086	48.66
206.472	43.31
206.858	2.85
207.245	-21.88
207.631	-0.52
208.017	9.21
208.403	33.65
208.789	3.39
209.175	7.43
209.561	-71.05
209.947	24.07
210.333	15.6
210.719	39.37
211.105	21.84
211.491	41.02
211.876	-14.84
212.262	-1.05
212.648	24.64
213.034	-15.91
213.419	7.23
213.805	8.34
214.19	-33.33
214.576	-14.57
214.961	23.42
215.346	5.21
215.732	-20.32
216.117	7.94
216.502	-10.94
216.888	11.64
217.273	13.61
217.658	-0.49
218.043	-16.62
218.428	-2.83
218.813	14.16
219.198	-24.55
219.583	5.65
219.968	26.92
220.353	-10.39
220.738	11.08
221.122	-2.19
221.507	5.68
221.892	-10.74
222.276	-25.26
222.661	-2.74
223.046	4.52
223.43	18.88
223.815	0.83
224.199	16.52
224.583	6.95
224.968	6.27
225.352	-10.58
225.736	6.84
226.121	0.53
226.505	-2.9
226.889	4.5
227.273	-1.12
227.657	1.85
228.041	2.17
228.425	3.08
228.809	2.56
229.193	1.54
229.577	2.3
229.961	3.17
230.344	3.27
230.728	3.02
231.112	2.76
231.495	2.61
231.879	3.01
232.263	3.65
232.646	1.96
233.03	4.59
233.413	4.28
233.797	3.48
234.18	3.15
234.563	4.11
234.946	2.72
235.33	2.44
235.713	2.94
236.096	5.3
236.479	5.2
236.862	4.12
237.245	2.11
237.628	3.07
238.011	2.4
238.394	2.58
238.777	4.48
239.16	5.39
239.543	3.93
239.925	3.82
240.308	2.73
240.691	1.65
241.073	3.16
241.456	3.84
241.838	3
242.221	2.54
242.603	3.26
242.986	3.55
243.368	3.17
243.75	3.15
244.133	3.26
244.515	3.21
244.897	2.48
245.279	2.5
245.661	3.07
246.043	3.29
246.425	2.9
246.807	2.82
247.189	2.5
247.571	2.91
247.953	2.98
248.335	2.77
248.717	3.21
249.098	3.31
249.48	3.02
249.862	2.86
250.243	3.69
250.625	3.12
251.006	3.77
251.388	2.61
251.769	2.54
252.151	3.66
252.532	2.09
252.913	2.82
253.295	2.94
253.676	3.02
254.057	2.87
254.438	2.09
254.819	3.44
255.2	3.81
255.581	4.56
255.962	3.62
256.343	3.41
256.724	2.75
257.105	2.89
257.486	2.88
257.867	2.86
258.247	3.37
258.628	2.55
259.009	3.37
259.389	2.3
259.77	2.56
260.15	3.1
260.531	2.85
260.911	2.65
261.292	3
261.672	3.02
262.052	2.85
262.432	2.93
262.813	2.61
263.193	3.43
263.573	3.03
263.953	2.25
264.333	2.76
264.713	3.42
265.093	2.75
265.473	2.3
265.853	3.04
266.233	3.17
266.612	2.39
266.992	3.03
267.372	3.32
267.752	3.34
268.131	2.81
268.511	2.31
268.89	3.4
269.27	1.98
269.649	2.37
270.029	2.72
270.408	2.79
270.787	3.02
271.167	3
271.546	3.27
271.925	3.26
272.304	2.44
272.683	2.61
273.062	2.75
273.441	2.34
273.82	2.95
274.199	2.36
274.578	2.89
274.957	2.67
275.336	3.15
275.715	3.24
276.093	2.77
276.472	2.38
276.851	3.27
277.229	3.07
277.608	2.55
277.986	3
278.365	3.32
278.743	2.32
279.122	2.58
279.5	2.73
279.878	2.34
280.257	2.52
280.635	2.48
281.013	2.09
281.391	2.59
281.769	3.48
282.147	2.69
282.525	2.54
282.903	2.64
283.281	3.15
283.659	3.14
284.037	2.71
284.415	2.57
284.792	3.34
285.17	2.3
285.548	2.47
285.925	2.47
286.303	2.9
286.68	2.89
287.058	2.88
287.435	2.66
287.813	2.75
288.19	2.45
288.567	2.77
288.945	2.91
289.322	2.75
289.699	2.75
290.076	2.42
290.453	2.31
290.83	3.22
291.207	2.74
291.584	2.79
291.961	2.5
292.338	2.73
292.715	2.74
293.092	2.96
293.469	2.55
293.845	2.8
294.222	3.02
294.599	2.02
294.975	2.37
295.352	2.86
295.728	3.04
296.105	2.54
296.481	2.83
296.858	2.7
297.234	2.62
297.61	2.92
297.986	3.02
298.363	2.97
298.739	3.04
299.115	2.97
299.491	3.18
299.867	2.4
300.243	2.8
300.619	2.72
300.995	3.08
301.371	3
301.746	3.51
302.122	2.34
302.498	2.52
302.874	2.53
303.249	2.82
303.625	2.61
304	3.03
304.376	3.55
304.751	2.79
305.127	2.61
305.502	3.06
305.878	2.9
306.253	2.66
306.628	3.07
307.003	3.14
307.378	2.88
307.754	2.7
308.129	2.14
308.504	2.78
308.879	3.3
309.254	3.22
309.629	2.75
310.003	2.91
310.378	3.14
310.753	2.99
311.128	2.65
311.502	2.85
311.877	2.64
312.252	2.85
312.626	3.04
313.001	2.74
313.375	2.99
313.75	2.95
314.124	3.36
314.498	3.18
314.873	2.71
315.247	2.86
315.621	2.79
315.995	3.2
316.369	2.75
316.743	3.28
317.117	2.59
317.491	3.33
317.865	2.61
318.239	3.06
318.613	2.63
318.987	2.73
319.361	2.82
319.734	2.74
320.108	3.25
320.482	3.05
320.855	2.61
321.229	2.81
321.602	3.58
321.976	2.82
322.349	2.99
322.723	3.07
323.096	3.51
323.469	2.76
323.843	2.71
324.216	3.19
324.589	3.25
324.962	2.64
325.335	3.05
325.708	3.12
326.081	3.07
326.454	3.71
326.827	2.57
327.2	2.14
327.573	3.04
327.945	2.96
328.318	2.87
328.691	2.89
329.063	2.69
329.436	2.6
329.809	2.82
330.181	3.62
330.553	3.41
330.926	3.36
331.298	2.7
331.671	3.52
332.043	2.41
332.415	3.34
332.787	2.93
333.159	2.82
333.532	3.33
333.904	3.2
334.276	3.28
334.648	2.79
335.02	2.73
335.391	2.72
335.763	3.29
336.135	3.14
336.507	2.89
336.879	2.72
337.25	3.1
337.622	3.39
337.993	3.02
338.365	2.87
338.736	2.94
339.108	2.9
339.479	3.02
339.851	3.16
340.222	3.48
340.593	2.69
340.964	3.13
341.336	2.88
341.707	2.72
342.078	2.83
342.449	2.95
342.82	3.11
343.191	3.3
343.562	3.09
343.933	2.91
344.303	3.27
344.674	2.86
345.045	3.26
345.416	3.47
345.786	3.15
346.157	3.04
346.527	3.12
346.898	2.74
347.268	3.03
347.639	3.05
348.009	3.18
348.38	2.94
348.75	3
349.12	3.26
349.49	3.05
349.861	3.33
350.231	3.05
350.601	3.35
350.971	2.85
351.341	3.05
351.711	3.52
352.081	2.8
352.45	2.91
352.82	2.79
353.19	3.17
353.56	3
353.929	2.94
354.299	3.3
354.669	3.44
355.038	3.61
355.408	3.01
355.777	3.11
356.147	3.12
356.516	3.08
356.885	3.07
357.254	2.99
357.624	2.79
357.993	3.06
358.362	3.34
358.731	3.4
359.1	3.21
359.469	3.36
359.838	2.9
360.207	3.07
360.576	3.24
360.945	3.27
361.314	3.09
361.682	2.89
362.051	3.3
362.42	3.17
362.788	3.24
363.157	3.1
363.525	3.19
363.894	2.98
364.262	2.93
364.631	3.47
364.999	3.23
365.367	3.1
365.735	2.73
366.104	3.17
366.472	3.16
366.84	3.28
367.208	3.41
367.576	3.22
367.944	3.16
368.312	2.95
368.68	3.5
369.048	3.02
369.416	3.19
369.783	2.98
370.151	3.35
370.519	3.63
370.886	3.42
371.254	3.68
371.621	3.31
371.989	3.46
372.356	3.02
372.724	3.19
373.091	3.08
373.458	3.26
373.826	3.5
374.193	3.47
374.56	3.33
374.927	3.28
375.294	3.59
375.661	3.3
376.028	3.22
376.395	3.12
376.762	3.07
377.129	3.21
377.496	3.42
377.863	3.44
378.229	3.48
378.596	3.56
378.963	3.46
379.329	3.44
379.696	3.19
380.062	3.27
380.429	3.16
380.795	3.27
381.161	3.18
381.528	2.86
381.894	3.26
382.26	3.43
382.626	3.17
382.993	3.38
383.359	3.25
383.725	3.16
384.091	3.34
384.457	3.18
384.823	3.33
385.188	3.49
385.554	3.32
385.92	3.3
386.286	3.25
386.651	3.29
387.017	3.75
387.383	3.13
387.748	3.37
388.114	3.27
388.479	3.41
388.845	3.2
389.21	3.55
389.575	3.57
389.94	3.52
390.306	3.32
390.671	3.49
391.036	3.33
391.401	3.49
391.766	3.09
392.131	3.56
392.496	3.38
392.861	3.36
393.226	3.12
393.591	3.36
393.956	3.31
394.32	3.37
394.685	3.38
395.05	3.28
395.414	3.28
395.779	3.62
396.143	3.35
396.508	3.38
396.872	3.35
397.236	3.58
397.601	3.77
397.965	3.38
398.329	3.3
398.694	3.07
399.058	3.2
399.422	3.54
399.786	3.33
400.15	3.23
400.514	3.48
400.878	3.5
401.242	3.34
401.605	3.34
401.969	3.4
402.333	3.38
402.697	3.66
403.06	3.34
403.424	3.56
403.787	3.47
404.151	3.55
404.514	3.64
404.878	3.26
405.241	3.43
405.604	3.43
405.968	3.37
406.331	3.56
406.694	3.4
407.057	3.31
407.42	3.38
407.783	3.37
408.146	3.42
408.509	3.65
408.872	3.52
409.235	3.48
409.598	3.38
409.961	3.54
410.323	3.3
410.686	3.48
411.049	3.51
411.411	3.38
411.774	3.4
412.136	3.49
412.499	3.71
412.861	3.03
413.223	3.33
413.586	3.67
413.948	3.69
414.31	3.5
414.672	3.55
415.035	3.63
415.397	3.35
415.759	3.27
416.121	3.7
416.483	3.49
416.845	3.31
417.206	3.56
417.568	3.48
417.93	3.53
418.292	3.37
418.653	3.32
419.015	3.34
419.377	3.51
419.738	3.49
420.1	3.29
420.461	3.32
420.822	3.45
421.184	3.44
421.545	3.4
421.906	3.45
422.267	3.41
422.629	3.39
422.99	3.41
423.351	3.45
423.712	3.45
424.073	3.4
424.434	3.55
424.795	3.4
425.155	3.38
425.516	3.43
425.877	3.51
426.238	3.44
426.598	3.43
426.959	3.46
427.32	3.43
427.68	3.58
428.041	3.57
428.401	3.54
428.761	3.57
429.122	3.65
429.482	3.51
429.842	3.64
430.202	3.64
430.563	3.52
430.923	3.55
431.283	3.59
431.643	3.6
432.003	3.53
432.363	3.67
432.722	3.67
433.082	3.55
433.442	3.67
433.802	3.61
434.161	3.48
434.521	3.57
434.881	3.54
435.24	3.53
435.6	3.57
435.959	3.61
436.319	3.63
436.678	3.68
437.037	3.63
437.396	3.64
437.756	3.49
438.115	3.69
438.474	3.73
438.833	3.54
439.192	3.68
439.551	3.58
439.91	3.68
440.269	3.54
440.628	3.43
440.987	3.69
441.345	3.64
441.704	3.58
442.063	3.63
442.421	3.58
442.78	3.61
443.138	3.55
443.497	3.52
443.855	3.72
444.214	3.35
444.572	3.65
444.93	3.68
445.288	3.69
445.647	3.46
446.005	3.63
446.363	3.57
446.721	3.63
447.079	3.54
447.437	3.72
447.795	3.6
448.153	3.59
448.51	3.59
448.868	3.57
449.226	3.65
449.584	3.54
449.941	3.51
450.299	3.64
450.656	3.61
451.014	3.74
451.371	3.69
451.729	3.7
452.086	3.58
452.443	3.74
452.801	3.69
453.158	3.75
453.515	3.69
453.872	3.74
454.229	3.53
454.586	3.55
454.943	3.6
455.3	3.78
455.657	3.79
456.014	3.77
456.371	3.7
456.727	3.83
457.084	3.82
457.441	3.9
457.797	3.77
458.154	3.63
458.51	3.67
458.867	3.83
459.223	3.72
459.58	3.76
459.936	3.74
460.292	3.67
460.648	3.71
461.005	3.71
461.361	3.65
461.717	3.61
462.073	3.74
462.429	3.75
462.785	3.92
463.141	3.81
463.496	3.88
463.852	3.87
464.208	3.92
464.564	3.62
464.919	3.76
465.275	3.66
465.631	3.99
465.986	3.92
466.342	3.74
466.697	3.62
467.052	3.88
467.408	3.86
467.763	3.86
468.118	3.74
468.473	3.81
468.829	3.65
469.184	3.78
469.539	3.7
469.894	3.91
470.249	3.77
470.603	3.81
470.958	3.87
471.313	3.86
471.668	3.86
472.023	3.82
472.377	3.7
472.732	3.97
473.086	3.72
473.441	3.86
473.795	3.99
474.15	3.81
474.504	3.88
474.859	3.55
475.213	3.98
475.567	3.72
475.921	3.77
476.275	3.8
476.63	4.04
476.984	3.8
477.338	3.92
477.692	3.92
478.045	3.97
478.399	3.95
478.753	3.72
479.107	4.04
479.461	3.74
479.814	3.89
480.168	3.89
480.521	3.92
480.875	3.88
481.228	4
481.582	3.97
481.935	4
482.289	3.78
482.642	3.95
482.995	3.88
483.348	3.85
483.701	3.85
484.055	3.87
484.408	3.76
484.761	3.71
485.114	3.67
485.466	3.64
485.819	3.68
486.172	3.72
486.525	3.71
486.878	3.85
487.23	3.78
487.583	3.82
487.936	3.83
488.288	3.71
488.641	3.79
488.993	3.74
489.345	3.77
489.698	3.75
490.05	3.74
490.402	3.81
490.754	3.79
491.107	3.81
491.459	3.97
491.811	3.93
492.163	3.92
492.515	3.88
492.866	3.79
493.218	3.81
493.57	3.82
493.922	3.86
494.274	3.97
494.625	4.01
494.977	3.96
495.328	4
495.68	3.95
496.031	4.03
496.383	4.03
496.734	4.04
497.086	4.04
497.437	3.99
497.788	4.05
498.139	3.89
498.49	4.09
498.842	4.12
499.193	3.94
499.544	4.01
499.894	4.05
500.245	4.1
500.596	4.08
500.947	4.07
501.298	3.97
501.648	4.16
501.999	4.13
502.35	4.02
502.7	4.34
503.051	4.05
503.401	4.1
503.752	4.13
504.102	4.08
504.452	4.06
504.803	4.08
505.153	4.11
505.503	4.21
505.853	4.22
506.203	4.21
506.553	4.21
506.903	4.2
507.253	4.18
507.603	4.19
507.953	4.18
508.303	4.26
508.652	4.05
509.002	4.23
509.352	4.21
509.701	4.16
510.051	4.21
510.4	4.19
510.75	4.1
511.099	4.06
511.449	4.3
511.798	4.23
512.147	4.23
512.496	4.17
512.846	4.18
513.195	4.19
513.544	4.36
513.893	4.24
514.242	4.31
514.591	4.21
514.939	4.29
515.288	4.33
515.637	4.33
515.986	4.29
516.334	4.42
516.683	4.32
517.032	4.25
517.38	4.21
517.729	4.32
518.077	4.32
518.426	4.43
518.774	4.31
519.122	4.42
519.47	4.26
519.819	4.35
520.167	4.25
520.515	4.34
520.863	4.29
521.211	4.29
521.559	4.29
521.907	4.41
522.255	4.38
522.602	4.44
522.95	4.46
523.298	4.39
523.645	4.45
523.993	4.36
524.341	4.49
524.688	4.43
525.036	4.51
525.383	4.41
525.73	4.43
526.078	4.54
526.425	4.37
526.772	4.38
527.119	4.51
527.466	4.44
527.814	4.48
528.161	4.52
528.508	4.56
528.854	4.49
529.201	4.46
529.548	4.38
529.895	4.3
530.242	4.3
530.588	4.34
530.935	4.36
531.282	4.36
531.628	4.42
531.975	4.5
532.321	4.55
532.667	4.6
533.014	4.61
533.36	4.58
533.706	4.6
534.052	4.56
534.399	4.47
534.745	4.47
535.091	4.48
535.437	4.59
535.783	4.6
536.129	4.59
536.474	4.67
536.82	4.75
537.166	4.66
537.512	4.71
537.857	4.63
538.203	4.66
538.549	4.66
538.894	4.68
539.239	4.76
539.585	4.8
539.93	4.87
540.276	4.76
540.621	4.96
540.966	4.81
541.311	4.86
541.656	4.79
542.001	4.67
542.346	4.72
542.691	4.68
543.036	4.68
543.381	4.73
543.726	4.82
544.071	4.82
544.415	4.78
544.76	4.82
545.105	4.79
545.449	4.85
545.794	4.89
546.138	4.85
546.483	4.95
546.827	4.93
547.171	5
547.516	5.04
547.86	4.96
548.204	5.03
548.548	5
548.892	4.9
549.236	4.97
549.58	5.05
549.924	5.1
550.268	5.18
550.612	5.14
550.956	5.39
551.3	5.3
551.643	5.1
551.987	5.38
552.33	5.27
552.674	5.21
553.017	5.33
553.361	5.26
553.704	5.3
554.048	5.36
554.391	5.51
554.734	5.36
555.077	5.4
555.42	5.18
555.764	5.32
556.107	5.41
556.45	5.45
556.793	5.61
557.135	5.53
557.478	5.51
557.821	5.48
558.164	5.45
558.507	5.36
558.849	5.66
559.192	5.61
559.534	5.37
559.877	5.48
560.219	5.57
560.562	5.51
560.904	5.76
561.246	5.65
561.589	5.89
561.931	5.73
562.273	5.72
562.615	5.56
562.957	5.63
563.299	5.83
563.641	5.6
563.983	5.62
564.325	5.76
564.667	5.87
565.008	5.5
565.35	5.61
565.692	5.87
566.033	5.85
566.375	5.82
566.716	5.73
567.058	5.87
567.399	5.84
567.741	5.98
568.082	5.84
568.423	5.89
568.764	5.81
569.105	5.94
569.447	6.01
569.788	5.89
570.129	5.79
570.47	5.82
570.811	5.96
571.151	6.08
571.492	5.86
571.833	5.93
572.174	6.27
572.514	6.07
572.855	6.22
573.195	5.99
573.536	6.27
573.876	6.09
574.217	6.07
574.557	6.22
574.898	6.15
575.238	6.26
575.578	6.36
575.918	6.37
576.258	6.43
576.598	6.15
576.938	6.22
577.278	6.34
577.618	6.24
577.958	6.42
578.298	6.35
578.638	6.36
578.977	6.44
579.317	6.46
579.657	6.53
579.996	6.54
580.336	6.53
580.675	6.33
581.014	6.75
581.354	6.48
581.693	6.71
582.032	6.87
582.372	6.78
582.711	6.75
583.05	6.61
583.389	6.93
583.728	6.63
584.067	6.76
584.406	6.96
584.745	6.66
585.083	6.69
585.422	7.03
585.761	6.99
586.1	6.82
586.438	6.59
586.777	6.87
587.115	7.02
587.454	6.74
587.792	6.99
588.13	7
588.469	6.76
588.807	7.14
589.145	7.06
589.483	6.9
589.821	6.97
590.159	7.13
590.497	7.16
590.835	7.18
591.173	7.26
591.511	7.27
591.849	7.35
592.187	7.16
592.524	7.25
592.862	7.26
593.2	7.2
593.537	7.2
593.875	7.17
594.212	7.41
594.55	7.44
594.887	7.44
595.224	7.58
595.561	7.42
595.899	7.46
596.236	7.61
596.573	7.32
596.91	7.57
597.247	7.73
597.584	7.54
597.921	7.43
598.258	7.67
598.594	7.56
598.931	7.34
599.268	7.48
599.604	7.69
599.941	7.58
600.277	7.58
600.614	7.53
600.95	7.75
601.287	7.42
601.623	7.65
601.959	8.02
602.296	7.73
602.632	8.06
602.968	7.7
603.304	8
603.64	7.89
603.976	7.93
604.312	7.99
604.648	7.93
604.984	8.02
605.319	8.02
605.655	7.99
605.991	7.88
606.326	7.98
606.662	8
606.998	8.21
607.333	8.16
607.668	8.08
608.004	8.29
608.339	8.12
608.674	8.51
609.01	8.43
609.345	8.37
609.68	8.37
610.015	8.48
610.35	8.63
610.685	8.18
611.02	8.42
611.355	8.34
611.689	8.25
612.024	8.65
612.359	8.5
612.694	8.54
613.028	8.71
613.363	8.48
613.697	8.58
614.032	8.66
614.366	8.63
614.7	8.63
615.035	8.68
615.369	9.03
615.703	8.67
616.037	9.11
616.371	8.67
616.705	8.93
617.039	9.1
617.373	8.97
617.707	9
618.041	8.74
618.375	8.52
618.709	9.11
619.042	8.86
619.376	8.88
619.71	9.08
620.043	9.42
620.377	9.02
620.71	8.95
621.043	9.34
621.377	9.27
621.71	9.47
622.043	9.55
622.376	9.29
622.709	9.91
623.043	9.43
623.376	9.35
623.709	9.42
624.041	9.28
624.374	9.68
624.707	9.28
625.04	9.72
625.373	9.51
625.705	9.58
626.038	9.43
626.37	9.4
626.703	9.58
627.035	9.67
627.368	10.01
627.7	9.71
628.032	9.66
628.365	9.79
628.697	10.15
629.029	9.59
629.361	10.02
629.693	9.51
630.025	9.66
630.357	9.95
630.689	9.94
631.021	10.1
631.353	10.23
631.684	9.68
632.016	10
632.348	9.91
632.679	10.39
633.011	9.91
633.342	9.91
633.674	9.76
634.005	10.25
634.336	10.44
634.668	10.07
634.999	10.34
635.33	10.07
635.661	10.15
635.992	10.09
636.323	10.3
636.654	10.49
636.985	10.4
637.316	10.12
637.647	10.36
637.977	10.59
638.308	10.55
638.639	10.15
638.969	10.5
639.3	10.23
639.63	10.54
639.961	10.6
640.291	10.41
640.622	10.72
640.952	10.92
641.282	10.66
641.612	10.52
641.943	10.71
642.273	10.54
642.603	10.87
642.933	11.11
643.263	10.93
643.592	11.09
643.922	11.43
644.252	10.76
644.582	11.56
644.911	10.89
645.241	10.91
645.571	11.24
645.9	11.16
646.23	11.14
646.559	11.15
646.888	11.73
647.218	10.83
647.547	11.24
647.876	11.06
648.205	10.97
648.534	11.73
648.863	11.38
649.192	11.19
649.521	11.36
649.85	11.47
650.179	11.61
650.508	11.58
650.837	11.96
651.165	12.02
651.494	11.75
651.822	11.64
652.151	11.72
652.479	11.97
652.808	12
653.136	11.37
653.465	11.51
653.793	12.02
654.121	11.75
654.449	11.61
654.777	11.57
655.105	11.58
655.433	11.95
655.761	11.89
656.089	12.06
656.417	12.29
656.745	12.42
657.073	11.79
657.4	11.84
657.728	11.97
658.056	11.72
658.383	12.09
658.711	12.03
659.038	12.57
659.365	12.23
659.693	12.3
660.02	11.94
660.347	12.63
660.674	12.19
661.001	12.17
661.329	12.35
661.656	12.08
661.982	12.03
662.309	12.45
662.636	12.32
662.963	12.82
663.29	12.7
663.616	12.5
663.943	12.45
664.27	12.65
664.596	12.33
664.923	13.03
665.249	12.76
665.576	12.48
665.902	12.84
666.228	13.05
666.554	13.24
666.881	12.65
667.207	12.86
667.533	12.1
667.859	12.88
668.185	13.29
668.511	13.47
668.837	12.64
669.162	13.53
669.488	12.63
669.814	13.37
670.139	12.54
670.465	13.39
670.791	12.65
671.116	13.26
671.442	12.41
671.767	13.2
672.092	13.3
672.418	13.37
672.743	13.15
673.068	12.82
673.393	13.72
673.718	12.91
674.043	13.46
674.368	13.16
674.693	13.4
675.018	13.27
675.343	13.53
675.667	13.65
675.992	13.45
676.317	12.97
676.641	14.02
676.966	13.76
677.29	13.16
677.615	13.08
677.939	14.21
678.264	14.09
678.588	14.3
678.912	13.83
679.236	13.52
679.56	13.78
679.885	13.96
680.209	14.54
680.532	14.31
680.856	14.17
681.18	14.39
681.504	13.52
681.828	13.76
682.152	13.65
682.475	13.98
682.799	14.46
683.122	13.97
683.446	13.9
683.769	14.58
684.093	14.61
684.416	14.6
684.739	14.07
685.062	14.38
685.386	15
685.709	14.73
686.032	14.5
686.355	14.49
686.678	14.49
687.001	14.24
687.324	14.88
687.646	13.9
687.969	14.81
688.292	14.44
688.614	14.86
688.937	14.87
689.26	15.27
689.582	14.84
689.904	15.21
690.227	14.43
690.549	14.95
690.871	14.94
691.194	14.88
691.516	14.17
691.838	15.09
692.16	15
692.482	15.14
692.804	15.76
693.126	14.85
693.448	15.37
693.769	15.6
694.091	14.55
694.413	15.06
694.735	14.64
695.056	14.72
695.378	15.13
695.699	15.16
696.021	15.95
696.342	15.75
696.663	15.48
696.984	15.27
697.306	15.09
697.627	15.97
697.948	15.46
698.269	15.97
698.59	15.48
698.911	15.63
699.232	16.28
699.553	16.46
699.873	15.86
700.194	15.77
700.515	15.76
700.835	16.03
701.156	16.2
701.477	15.49
701.797	15.75
702.117	15.42
702.438	16.47
702.758	16.16
703.078	16.36
703.398	15.19
703.719	16.39
704.039	16.31
704.359	16.83
704.679	17.33
704.999	16.47
705.319	16.13
705.638	16.43
705.958	15.98
706.278	16
706.597	16.56
706.917	17.01
707.237	16.45
707.556	16.03
707.876	17.23
708.195	17.17
708.514	16.41
708.834	16.05
709.153	16.28
709.472	17.26
709.791	16.71
710.11	16.88
710.429	16.24
710.748	16.76
711.067	17.21
711.386	17.17
711.705	17.33
712.023	17.5
712.342	16.33
712.661	17.42
712.979	16.77
713.298	17.29
713.616	17
713.935	17.57
714.253	17.45
714.572	16.37
714.89	17.51
715.208	16.89
715.526	18.03
715.844	17.58
716.162	18.13
716.48	17.46
716.798	18.04
717.116	17.32
717.434	16.86
717.752	17.18
718.069	17.24
718.387	18.07
718.705	17.51
719.022	18.36
719.34	17.05
719.657	18.11
719.975	16.69
720.292	17.38
720.609	16.55
720.927	17.85
721.244	17.39
721.561	17.61
721.878	17.8
722.195	18.59
722.512	18.79
722.829	17.56
723.146	17.44
723.463	17.1
723.779	16.72
724.096	18.17
724.413	19.7
724.729	18.99
725.046	17.92
725.362	17.36
725.679	17.36
725.995	17.75
726.311	18.25
726.628	18.72
726.944	18.6
727.26	17.4
727.576	18.18
727.892	18.35
728.208	18
728.524	18.05
728.84	18.32
729.156	18.63
729.472	17.67
729.787	19.18
730.103	18.45
730.419	19.16
730.734	17.72
731.05	18.64
731.365	18.97
731.681	19.54
731.996	19.49
732.311	19.53
732.626	19.49
732.942	18.87
733.257	19.57
733.572	20.08
733.887	19.44
734.202	20.36
734.517	19.3
734.832	18.29
735.146	19.75
735.461	19.46
735.776	20.65
736.091	20.85
736.405	19.44
736.72	19.64
737.034	20.91
737.349	19.94
737.663	22.27
737.977	20.98
738.292	19.41
738.606	21.32
738.92	19
739.234	20.4
739.548	19.86
739.862	20.29
740.176	19.41
740.49	19.82
740.804	18.81
741.117	18.19
741.431	19.04
741.745	20.06
742.058	18.56
742.372	19.18
742.685	20.29
742.999	19.36
743.312	20.43
743.626	20.27
743.939	20.65
744.252	20.28
744.565	20.02
744.878	19.64
745.191	20.63
745.505	19.06
745.817	19.58
746.13	21.13
746.443	19.05
746.756	21.25
747.069	20.82
747.381	19.78
747.694	19.88
748.007	21.48
748.319	21.58
748.632	20.43
748.944	20.27
749.256	23.9
749.569	19.29
749.881	20.71
750.193	20.58
750.505	21.06
750.817	22.92
751.129	21.33
751.441	22.16
751.753	22.71
752.065	20.08
752.377	19.72
752.689	20.54
753	22.84
753.312	22.17
753.624	20.67
753.935	19.99
754.247	21.46
754.558	19.67
754.869	22.33
755.181	20.1
755.492	19.83
755.803	21.88
756.114	20.39
756.425	19.98
756.736	20.14
757.047	22.21
757.358	20.48
757.669	21.76
757.98	21.64
758.291	20.64
758.601	20.82
758.912	20.86
759.223	22.21
759.533	22.47
759.844	20.62
760.154	23.05
760.464	21
760.775	22.6
761.085	23.33
761.395	19.81
761.705	22.04
762.016	22.31
762.326	22.8
762.636	22.86
762.945	19.98
763.255	20.56
763.565	23.22
763.875	22.3
764.185	24.05
764.494	23.24
764.804	22.14
765.113	22.94
765.423	22.69
765.732	23.17
766.042	23.64
766.351	22.67
766.66	22.62
766.97	22.51
767.279	22.62
767.588	21.41
767.897	21.39
768.206	22.51
768.515	23.31
768.824	23.32
769.133	21.83
769.441	21.64
769.75	21.4
770.059	23.28
770.367	24.2
770.676	22.89
770.984	21.19
771.293	22.15
771.601	21.37
771.91	22.24
772.218	22.54
772.526	23.9
772.834	19.9
773.142	23.63
773.45	22.26
773.758	24.23
774.066	22.32
774.374	25.33
774.682	21.56
774.99	20.15
775.298	22.27
775.605	21.9
775.913	22.8
776.22	21.93
776.528	23.31
776.835	24.09
777.143	25.12
777.45	19.58
777.757	25.5
778.065	21.05
778.372	23.85
778.679	25.03
778.986	26.54
779.293	21.95
779.6	25.11
779.907	25.82
780.214	22.34
780.52	26.73
780.827	21.84
781.134	24.17
781.44	26.55
781.747	22.23
782.053	22.22
782.36	22.13
782.666	20.83
782.973	23.91
783.279	22.66
783.585	26.45
783.891	23.38
784.197	28.31
784.503	23.48
784.809	25.09
785.115	25.88
785.421	26.85
785.727	24.18
786.033	24.51
786.339	27.35
786.644	24.21
786.95	20.74
787.255	20.01
787.561	24.54
787.866	27.95
788.172	23.41
788.477	19.64
788.782	22.97
789.088	18.89
789.393	25.36
789.698	23.48
790.003	23.03
790.308	25.74
790.613	21.99
790.918	20.99
791.223	24.54
791.527	27.45
791.832	25.2
792.137	23.98
792.441	26.25
792.746	29.72
793.05	24.55
793.355	30.52
793.659	25.81
793.963	23.61
794.268	26.22
794.572	23.82
794.876	24.84
795.18	22.53
795.484	30.24
795.788	28.98
796.092	24.54
796.396	21.58
796.7	20.35
797.004	24.63
797.307	23.24
797.611	25.78
797.915	22.55
798.218	23.22
798.522	23.94
798.825	29.24
799.128	28.76
799.432	22.05
799.735	23.35
800.038	25.11
800.341	24.58
800.644	26.41
800.947	30.7
801.25	28.49
801.553	25.14
801.856	28.16
802.159	23.13
802.462	25.27
802.764	27.42
803.067	27.19
803.37	25.36
803.672	23.85
803.975	27.41
804.277	26.28
804.579	21.15
804.882	25.41
805.184	30.78
805.486	28.58
805.788	29.29
806.09	25.13
806.392	24.26
806.694	26.79
806.996	33.31
807.298	23.54
807.6	31.97
807.902	28.88
808.203	23.74
808.505	22.89
808.807	25.76
809.108	30.25
809.409	30.35
809.711	28.45
810.012	29.04
810.313	28.98
810.615	34.44
810.916	28.68
811.217	25.62
811.518	22.82
811.819	24.77
812.12	28.29
812.421	18.89
812.722	24.46
813.023	28.19
813.323	26.19
813.624	26.55
813.925	30.06
814.225	27.57
814.526	21.18
814.826	20.76
815.126	28.3
815.427	21.24
815.727	27.46
816.027	31.91
816.327	29.9
816.627	27.17
816.927	25.89
817.227	23.84
817.527	25.2
817.827	27.52
818.127	26.29
818.427	23.34
818.727	25.43
819.026	26.08
819.326	24.4
819.625	30.32
819.925	35.56
820.224	28.14
820.524	28.68
820.823	27.1
821.122	23.19
821.421	25.7
821.72	27.98
822.019	24.45
822.318	27.71
822.617	29.3
822.916	24.88
823.215	26.99
823.514	27.71
823.813	30.66
824.111	28.59
824.41	28.55
824.709	27.87
825.007	28.89
825.306	28.69
825.604	29.49
825.902	28.88
826.201	28.45
826.499	29.5
826.797	27.78
827.095	30.47
827.393	29.27
827.691	30.6
827.989	27.2
828.287	28.3
828.585	26.05
828.882	27.86
829.18	29.24
829.478	28.56
829.775	29.87
830.073	29.51
830.37	26.38
830.668	30.51
830.965	27.06
831.263	30.6
831.56	32.29
831.857	29.99
832.154	27.08
832.451	27.44
832.748	26.99
833.045	31.84
833.342	24.16
833.639	29.17
833.936	27
834.232	33.28
834.529	23.59
834.826	32.65
835.122	27.45
835.419	32.07
835.715	31.58
836.012	30.28
836.308	31.49
836.604	29.08
836.901	27.08
837.197	28.4
837.493	30.53
837.789	30.93
838.085	27.28
838.381	29.39
838.677	28.92
838.972	28.12
839.268	29.5
839.564	31.6
839.86	30.09
840.155	30.98
840.451	35.59
840.746	33.36
841.042	32.27
841.337	32.41
841.632	27.82
841.928	35.89
842.223	27.18
842.518	34.22
842.813	29.6
843.108	23.1
843.403	31.14
843.698	27.04
843.993	37.9
844.287	27.06
844.582	32.93
844.877	30.66
845.171	28.12
845.466	38.29
845.761	34.33
846.055	38.14
846.349	35.83
846.644	31.19
846.938	31.27
847.232	28.49
847.526	33
847.82	26.57
848.114	27.97
848.408	37.68
848.702	32.89
848.996	26.1
849.29	44.77
849.584	28.21
849.877	28.58
850.171	28.16
850.465	27.55
850.758	24.97
851.052	10.95
851.345	24.99
851.638	23.93
851.932	33.09
852.225	33.24
852.518	47.47
852.811	20.82
853.104	36.08
853.397	28.49
853.69	38.33
853.983	6.85
854.276	37.24
854.569	18.36
854.861	19.5
855.154	51.74
855.447	29.87
855.739	-3.09
856.032	27.45
856.324	21.29
856.616	39.27
856.909	15.2
857.201	10.74
857.493	39.69
857.785	16.62
858.077	26.08
858.369	23.43
858.661	31.32
858.953	34.24
859.245	56.38
859.537	12.27
859.829	58.91
860.12	26.95
860.412	29.3
860.703	30.24
860.995	40.03
861.286	21.25
861.578	37.83
861.869	17.9
862.16	36.89
862.452	9.32
862.743	23.93
863.034	42.97
863.325	39.32
863.616	40.43
863.907	43.6
864.198	4.64
864.488	31.39
864.779	39.61
865.07	22.93
865.36	66.98
865.651	40.53
865.941	28.52
866.232	26.25
866.522	16.06
866.813	14.19
867.103	23.67
867.393	46.51
867.683	26.85
867.973	16.05
868.263	10.43
868.553	32.32
868.843	3.02
869.133	44.09
869.423	47.35
869.713	21.84
870.002	19.16
870.292	27.13
870.582	45.7
870.871	50.39
871.161	3.47
871.45	30.94
871.739	45.83
872.029	45.83
872.318	30.67
872.607	42.8
872.896	18.73
873.185	54.32
873.474	33.95
873.763	32.61
874.052	37.1
874.341	42.89
874.63	17.64
874.918	37.78
875.207	23.13
875.496	29.97
875.784	37.49
876.073	34.57
876.361	54.9
876.649	18.67
876.938	58.84
877.226	55.18
877.514	24.01
877.802	34.03
878.09	34.73
878.378	30.47
878.666	33.38
878.954	18.28
879.242	43.73
879.53	17.65
879.817	6.24
880.105	28.65
880.392	34.85
880.68	40.89
880.967	9.14
881.255	37.89
881.542	27.5
881.83	39.85
882.117	29.96
882.404	13.86
882.691	29
882.978	30
883.265	45.72
883.552	30.57
883.839	39.18
884.126	39.33
884.413	30.76
884.699	41.2
884.986	37.75
885.273	33.57
885.559	33.57
885.846	33.57
