Data from 0057_forehead_Reflection__0__88.txt Node

Date: Fri Dec 16 14:36:00 CST 2022
User: ToomeyLab
Spectrometer: FLMS14357
Trigger mode: 0
Integration Time (sec): 1.000000E-2
Scans to average: 100
Electric dark correction enabled: true
Nonlinearity correction enabled: false
Boxcar width: 0
XAxis mode: Wavelengths
Number of Pixels in Spectrum: 2048
>>>>>Begin Spectral Data<<<<<
189.047	127.16
189.435	127.16
189.823	127.16
190.211	-69.42
190.599	132.61
190.987	92.85
191.375	125.96
191.763	-1.88
192.151	-7520.83
192.538	98.49
192.926	-439.1
193.314	118.19
193.702	-103.25
194.089	-174.15
194.477	-187.02
194.864	177.43
195.252	-126.16
195.639	158.24
196.027	1054.5
196.414	116.41
196.801	517.29
197.189	219.35
197.576	118.78
197.963	7832.5
198.351	30.23
198.738	1.68
199.125	52.85
199.512	2.65
199.899	-2.03
200.286	-37.52
200.673	22.6
201.06	16.88
201.447	20.55
201.833	17.29
202.22	78.32
202.607	13.02
202.994	3.94
203.38	-38.23
203.767	0.42
204.154	15.46
204.54	38.89
204.927	-9.55
205.313	28.51
205.699	-8.42
206.086	-9.92
206.472	1.98
206.858	15.34
207.245	2.7
207.631	-13.04
208.017	25.89
208.403	9.23
208.789	-9.89
209.175	63.88
209.561	16.77
209.947	14.49
210.333	17.57
210.719	3.1
211.105	-13.26
211.491	13.46
211.876	31.26
212.262	11.17
212.648	-18.63
213.034	3.31
213.419	21.26
213.805	-6.92
214.19	5.41
214.576	-29.38
214.961	9.06
215.346	-31.63
215.732	-1.52
216.117	3.33
216.502	10.03
216.888	-15.65
217.273	3.41
217.658	-5.59
218.043	-18.21
218.428	1.24
218.813	24.75
219.198	-32.68
219.583	-3.37
219.968	0.59
220.353	13.15
220.738	4.79
221.122	5.08
221.507	8.04
221.892	1.3
222.276	6.01
222.661	3.63
223.046	10.81
223.43	6.35
223.815	9.8
224.199	9.25
224.583	3.62
224.968	9.96
225.352	1.8
225.736	16.16
226.121	-1.06
226.505	15.65
226.889	10.31
227.273	6.52
227.657	7.06
228.041	10.31
228.425	4.18
228.809	4.9
229.193	3.97
229.577	3.48
229.961	5.3
230.344	5.19
230.728	5.49
231.112	5.49
231.495	4.24
231.879	5.62
232.263	3.23
232.646	4.6
233.03	4.2
233.413	5.09
233.797	4.34
234.18	2.77
234.563	4
234.946	4.49
235.33	5.88
235.713	5.28
236.096	4.96
236.479	5.63
236.862	6.27
237.245	6.9
237.628	6.51
238.011	5.95
238.394	5.06
238.777	5.79
239.16	3.35
239.543	4.57
239.925	4.76
240.308	5.25
240.691	3.78
241.073	4.63
241.456	4.18
241.838	4.12
242.221	4.55
242.603	5.42
242.986	5.34
243.368	4.7
243.75	4.08
244.133	4.22
244.515	4.82
244.897	4.51
245.279	4.18
245.661	4.85
246.043	5.61
246.425	4.11
246.807	3.82
247.189	4.68
247.571	4.66
247.953	4.62
248.335	4.7
248.717	4.78
249.098	4.43
249.48	4.38
249.862	4.58
250.243	4.8
250.625	4.6
251.006	4.7
251.388	5.11
251.769	4.62
252.151	5.45
252.532	4.22
252.913	4.47
253.295	4.39
253.676	4.97
254.057	4.57
254.438	3.99
254.819	4.63
255.2	5.47
255.581	5.02
255.962	4.84
256.343	4.33
256.724	4.41
257.105	4.83
257.486	4.61
257.867	3.54
258.247	5.03
258.628	4.82
259.009	4.56
259.389	5.55
259.77	4.46
260.15	4.71
260.531	4.71
260.911	4.38
261.292	4.59
261.672	4.46
262.052	4.43
262.432	4.09
262.813	4.46
263.193	3.86
263.573	4.47
263.953	4.54
264.333	4.49
264.713	3.57
265.093	3.71
265.473	5.14
265.853	4.42
266.233	4.53
266.612	4.83
266.992	3.84
267.372	4.75
267.752	4.3
268.131	4.72
268.511	4.73
268.89	4.64
269.27	4.8
269.649	4.55
270.029	4.4
270.408	4.12
270.787	4.25
271.167	4.92
271.546	3.51
271.925	4.39
272.304	4.7
272.683	3.93
273.062	4.44
273.441	4.33
273.82	4.4
274.199	4.64
274.578	3.89
274.957	4.27
275.336	4.34
275.715	4.6
276.093	4.54
276.472	4.73
276.851	4.44
277.229	4.54
277.608	3.9
277.986	4.82
278.365	4.42
278.743	4.49
279.122	3.72
279.5	4.56
279.878	3.8
280.257	4.44
280.635	4.12
281.013	4.89
281.391	3.8
281.769	4.1
282.147	4.54
282.525	4.27
282.903	4.82
283.281	4.19
283.659	4.25
284.037	4.74
284.415	4.31
284.792	4.37
285.17	4.31
285.548	4.09
285.925	3.85
286.303	4.21
286.68	4.42
287.058	3.8
287.435	4.42
287.813	4.44
288.19	4.66
288.567	4.18
288.945	4.23
289.322	3.87
289.699	4.57
290.076	4.55
290.453	4.1
290.83	4.4
291.207	4.51
291.584	4.01
291.961	4.37
292.338	4.35
292.715	4.43
293.092	4.7
293.469	4.78
293.845	4.79
294.222	4.4
294.599	4.73
294.975	4.78
295.352	4.56
295.728	4.59
296.105	4.19
296.481	4.82
296.858	4.93
297.234	4.78
297.61	4.6
297.986	4.56
298.363	4.37
298.739	4.8
299.115	4.06
299.491	4.44
299.867	4.44
300.243	4.46
300.619	4.36
300.995	4.72
301.371	4.97
301.746	4.53
302.122	4.63
302.498	4.89
302.874	4.86
303.249	5.16
303.625	5.03
304	4.63
304.376	4.53
304.751	4.83
305.127	4.43
305.502	4.64
305.878	4.77
306.253	4.6
306.628	4.99
307.003	5.15
307.378	5.03
307.754	4.74
308.129	4.3
308.504	4.95
308.879	4.75
309.254	5.3
309.629	4.82
310.003	5.27
310.378	5.18
310.753	5.13
311.128	4.87
311.502	5
311.877	5.19
312.252	4.99
312.626	4.99
313.001	5
313.375	5.5
313.75	4.93
314.124	5.68
314.498	4.98
314.873	5.07
315.247	5.04
315.621	5.3
315.995	5.27
316.369	5.55
316.743	5.6
317.117	5.45
317.491	5.7
317.865	4.44
318.239	5.51
318.613	5.49
318.987	5.36
319.361	5.13
319.734	5.34
320.108	5.85
320.482	5.53
320.855	5.86
321.229	5.91
321.602	5.81
321.976	5.61
322.349	4.92
322.723	5.14
323.096	5.41
323.469	5.25
323.843	6.12
324.216	5.59
324.589	5.78
324.962	5.85
325.335	5.91
325.708	5.52
326.081	5.98
326.454	5.88
326.827	5.81
327.2	6.24
327.573	5.79
327.945	5.88
328.318	5.3
328.691	5.92
329.063	5.64
329.436	5.39
329.809	5.74
330.181	5.89
330.553	5.9
330.926	6.19
331.298	5.76
331.671	6.37
332.043	6.44
332.415	6.44
332.787	6.57
333.159	5.95
333.532	6.17
333.904	6.46
334.276	5.8
334.648	6.39
335.02	5.67
335.391	6.04
335.763	6.28
336.135	6.34
336.507	6.57
336.879	6
337.25	6.32
337.622	6.3
337.993	6.01
338.365	6.64
338.736	6.62
339.108	6.15
339.479	6.17
339.851	6.61
340.222	6.44
340.593	6.05
340.964	6.77
341.336	6.41
341.707	6.18
342.078	5.93
342.449	6.77
342.82	6.68
343.191	6.27
343.562	6.47
343.933	6.58
344.303	6.48
344.674	6.47
345.045	6.78
345.416	6.58
345.786	6.43
346.157	6.86
346.527	6.65
346.898	6.54
347.268	6.47
347.639	6.57
348.009	6.66
348.38	7.05
348.75	6.91
349.12	7.03
349.49	6.5
349.861	6.99
350.231	7.39
350.601	7.02
350.971	6.86
351.341	7.07
351.711	6.96
352.081	7.08
352.45	7.02
352.82	7.05
353.19	7.14
353.56	6.97
353.929	7.22
354.299	7.04
354.669	6.83
355.038	7
355.408	7.51
355.777	6.73
356.147	7.42
356.516	7.35
356.885	7.19
357.254	7.46
357.624	7.25
357.993	7.13
358.362	7.2
358.731	7.37
359.1	7.86
359.469	7.25
359.838	7.05
360.207	7.5
360.576	7.16
360.945	7.49
361.314	7.44
361.682	7.25
362.051	7.52
362.42	7.6
362.788	7.48
363.157	7.41
363.525	7.34
363.894	7.15
364.262	7.47
364.631	7.99
364.999	7.43
365.367	7.72
365.735	7.37
366.104	7.66
366.472	7.68
366.84	7.7
367.208	7.16
367.576	7.49
367.944	8.08
368.312	7.77
368.68	8.04
369.048	8.06
369.416	7.92
369.783	7.87
370.151	8.19
370.519	7.87
370.886	8.14
371.254	8.09
371.621	8.05
371.989	8.28
372.356	8.05
372.724	8.29
373.091	7.98
373.458	8.31
373.826	8.01
374.193	8.38
374.56	7.86
374.927	8.06
375.294	8.1
375.661	8.55
376.028	8.09
376.395	8.26
376.762	8.41
377.129	8.71
377.496	8.24
377.863	8.41
378.229	8.7
378.596	8.54
378.963	8.23
379.329	8.53
379.696	8.42
380.062	8.75
380.429	8.62
380.795	8.54
381.161	8.51
381.528	8.29
381.894	9.06
382.26	8.65
382.626	8.51
382.993	8.81
383.359	8.57
383.725	9.12
384.091	8.9
384.457	9.12
384.823	8.8
385.188	9.1
385.554	8.9
385.92	9.06
386.286	9.24
386.651	9.22
387.017	9.46
387.383	9.3
387.748	9.17
388.114	9.2
388.479	9.34
388.845	9.48
389.21	9.3
389.575	9.16
389.94	9.18
390.306	9.31
390.671	9.13
391.036	9.48
391.401	9.66
391.766	9.52
392.131	9.46
392.496	9.29
392.861	9.49
393.226	9.59
393.591	9.5
393.956	9.7
394.32	9.53
394.685	9.85
395.05	9.36
395.414	9.46
395.779	9.7
396.143	9.69
396.508	9.5
396.872	9.66
397.236	9.4
397.601	9.62
397.965	9.53
398.329	10.12
398.694	9.73
399.058	10.07
399.422	9.84
399.786	9.95
400.15	9.88
400.514	10.03
400.878	9.76
401.242	10.16
401.605	9.96
401.969	9.94
402.333	9.85
402.697	10.23
403.06	10.26
403.424	10.03
403.787	10.29
404.151	10.13
404.514	10.59
404.878	10.37
405.241	10.24
405.604	10.2
405.968	10.33
406.331	10.37
406.694	10.31
407.057	10.8
407.42	10.46
407.783	10.42
408.146	10.43
408.509	10.39
408.872	10.63
409.235	10.71
409.598	10.86
409.961	10.69
410.323	10.71
410.686	10.61
411.049	10.63
411.411	10.49
411.774	10.73
412.136	10.87
412.499	10.69
412.861	10.66
413.223	11.05
413.586	10.69
413.948	10.83
414.31	11.06
414.672	11.05
415.035	11.17
415.397	11.25
415.759	11.04
416.121	11.33
416.483	11.37
416.845	11.13
417.206	11.23
417.568	11.25
417.93	11
418.292	11.13
418.653	11.23
419.015	11.33
419.377	11.28
419.738	11.1
420.1	11.14
420.461	11.08
420.822	11.21
421.184	11.25
421.545	11.11
421.906	11.11
422.267	11.28
422.629	11.12
422.99	11.14
423.351	11.29
423.712	11.27
424.073	11.37
424.434	11.27
424.795	11.29
425.155	11.39
425.516	11.24
425.877	11.41
426.238	11.34
426.598	11.49
426.959	11.42
427.32	11.58
427.68	11.67
428.041	11.72
428.401	11.69
428.761	11.65
429.122	11.77
429.482	11.61
429.842	11.8
430.202	12.07
430.563	12.14
430.923	11.98
431.283	12.05
431.643	12.07
432.003	12.23
432.363	12.45
432.722	12.22
433.082	12.25
433.442	12.24
433.802	12.11
434.161	12.22
434.521	12.21
434.881	12.28
435.24	12.1
435.6	12.29
435.959	12.04
436.319	12.26
436.678	12.55
437.037	12.48
437.396	12.61
437.756	12.49
438.115	12.6
438.474	12.63
438.833	12.7
439.192	12.73
439.551	12.66
439.91	12.8
440.269	12.71
440.628	12.64
440.987	12.54
441.345	12.54
441.704	12.86
442.063	12.6
442.421	12.77
442.78	12.64
443.138	12.78
443.497	12.75
443.855	12.77
444.214	12.81
444.572	12.85
444.93	12.95
445.288	13.13
445.647	13.1
446.005	12.99
446.363	13.13
446.721	13.04
447.079	13.04
447.437	12.86
447.795	13.09
448.153	13.02
448.51	12.92
448.868	13.13
449.226	13.14
449.584	13.18
449.941	13.38
450.299	13.32
450.656	13.41
451.014	13.37
451.371	13.52
451.729	13.56
452.086	13.37
452.443	13.64
452.801	13.78
453.158	13.62
453.515	13.62
453.872	13.74
454.229	13.68
454.586	13.69
454.943	13.67
455.3	13.91
455.657	13.74
456.014	13.86
456.371	13.98
456.727	13.97
457.084	13.87
457.441	13.93
457.797	14.19
458.154	14.11
458.51	14.09
458.867	13.9
459.223	14.16
459.58	14.17
459.936	14.19
460.292	14.08
460.648	14.07
461.005	13.95
461.361	13.92
461.717	13.91
462.073	14.01
462.429	14.07
462.785	14.2
463.141	14.47
463.496	14.36
463.852	14.61
464.208	14.61
464.564	14.36
464.919	14.56
465.275	14.76
465.631	14.69
465.986	14.44
466.342	14.8
466.697	14.68
467.052	14.96
467.408	14.93
467.763	14.86
468.118	14.9
468.473	14.92
468.829	14.89
469.184	14.92
469.539	15.06
469.894	15.08
470.249	15.11
470.603	15.16
470.958	15.25
471.313	15.25
471.668	15.28
472.023	15.44
472.377	15.24
472.732	15.18
473.086	15.11
473.441	15.45
473.795	15.46
474.15	15.43
474.504	15.5
474.859	15.62
475.213	15.44
475.567	15.63
475.921	15.64
476.275	15.87
476.63	15.58
476.984	15.55
477.338	15.72
477.692	15.54
478.045	15.72
478.399	15.88
478.753	15.57
479.107	15.87
479.461	15.8
479.814	15.84
480.168	15.98
480.521	15.9
480.875	16.06
481.228	16.14
481.582	15.98
481.935	15.93
482.289	15.97
482.642	16.03
482.995	16.02
483.348	15.88
483.701	15.9
484.055	15.82
484.408	15.54
484.761	15.41
485.114	15.33
485.466	15.33
485.819	15.31
486.172	15.36
486.525	15.43
486.878	15.53
487.23	15.69
487.583	15.95
487.936	15.97
488.288	15.9
488.641	15.77
488.993	15.67
489.345	15.76
489.698	15.87
490.05	15.92
490.402	16.04
490.754	16.21
491.107	16.34
491.459	16.45
491.811	16.52
492.163	16.47
492.515	16.38
492.866	16.13
493.218	16.16
493.57	16.26
493.922	16.24
494.274	16.49
494.625	16.64
494.977	16.72
495.328	17.03
495.68	17.21
496.031	17.3
496.383	17.19
496.734	17.3
497.086	17.39
497.437	17.41
497.788	17.28
498.139	17.29
498.49	17.36
498.842	17.32
499.193	17.36
499.544	17.48
499.894	17.46
500.245	17.59
500.596	17.55
500.947	17.47
501.298	17.58
501.648	17.84
501.999	17.93
502.35	17.93
502.7	18.07
503.051	17.91
503.401	17.99
503.752	18.04
504.102	17.99
504.452	18.08
504.803	18.01
505.153	17.99
505.503	18.11
505.853	18.22
506.203	18.21
506.553	18.31
506.903	18.17
507.253	18.33
507.603	18.42
507.953	18.61
508.303	18.43
508.652	18.57
509.002	18.48
509.352	18.45
509.701	18.45
510.051	18.52
510.4	18.53
510.75	18.47
511.099	18.43
511.449	18.49
511.798	18.61
512.147	18.61
512.496	18.63
512.846	18.66
513.195	18.75
513.544	18.59
513.893	18.63
514.242	18.83
514.591	18.85
514.939	18.81
515.288	18.82
515.637	18.95
515.986	18.98
516.334	19.3
516.683	19.24
517.032	19.08
517.38	19.28
517.729	19.04
518.077	19.22
518.426	19.22
518.774	19.22
519.122	19.07
519.47	19.13
519.819	19.09
520.167	19
520.515	19.05
520.863	19.12
521.211	19.16
521.559	19.26
521.907	19.46
522.255	19.57
522.602	19.51
522.95	19.72
523.298	19.64
523.645	19.75
523.993	19.79
524.341	19.82
524.688	19.82
525.036	19.87
525.383	20
525.73	19.96
526.078	19.89
526.425	19.76
526.772	19.72
527.119	19.54
527.466	19.63
527.814	19.68
528.161	19.69
528.508	19.67
528.854	19.73
529.201	19.63
529.548	19.49
529.895	19.37
530.242	19.35
530.588	19.38
530.935	19.33
531.282	19.45
531.628	19.62
531.975	19.87
532.321	19.97
532.667	20.09
533.014	20.17
533.36	20.21
533.706	20.36
534.052	20.23
534.399	20.01
534.745	20.01
535.091	20.08
535.437	20.12
535.783	20.28
536.129	20.3
536.474	20.55
536.82	20.64
537.166	20.81
537.512	20.7
537.857	20.68
538.203	20.64
538.549	20.72
538.894	20.85
539.239	20.95
539.585	20.99
539.93	21.14
540.276	21.1
540.621	21.26
540.966	21.23
541.311	21.29
541.656	20.96
542.001	21.14
542.346	20.83
542.691	20.74
543.036	20.76
543.381	20.75
543.726	20.82
544.071	20.99
544.415	20.95
544.76	21.07
545.105	21.27
545.449	21.26
545.794	21.39
546.138	21.63
546.483	21.64
546.827	21.64
547.171	21.66
547.516	21.9
547.86	21.84
548.204	21.76
548.548	21.82
548.892	21.8
549.236	22.17
549.58	22.19
549.924	22.16
550.268	22.28
550.612	22.6
550.956	22.48
551.3	22.57
551.643	22.64
551.987	22.79
552.33	22.77
552.674	22.71
553.017	22.77
553.361	22.86
553.704	22.75
554.048	22.72
554.391	22.71
554.734	22.6
555.077	22.84
555.42	22.82
555.764	22.97
556.107	22.9
556.45	23.13
556.793	23.21
557.135	23.49
557.478	23.3
557.821	23.08
558.164	23.47
558.507	23.35
558.849	23.47
559.192	23.45
559.534	23.25
559.877	23.63
560.219	23.52
560.562	23.56
560.904	23.6
561.246	23.81
561.589	23.9
561.931	23.99
562.273	23.61
562.615	23.79
562.957	23.89
563.299	23.94
563.641	23.97
563.983	24.06
564.325	23.88
564.667	24.05
565.008	23.74
565.35	24.18
565.692	23.98
566.033	24.23
566.375	23.99
566.716	24.11
567.058	24.05
567.399	24.12
567.741	24.24
568.082	24.05
568.423	23.95
568.764	24.09
569.105	24.35
569.447	24.26
569.788	24.42
570.129	24.42
570.47	24.45
570.811	24.46
571.151	24.51
571.492	24.62
571.833	24.49
572.174	24.63
572.514	24.8
572.855	24.82
573.195	24.64
573.536	24.55
573.876	24.59
574.217	24.6
574.557	24.84
574.898	24.7
575.238	24.8
575.578	24.92
575.918	24.94
576.258	24.73
576.598	24.83
576.938	25.16
577.278	25
577.618	25.13
577.958	25.1
578.298	25.22
578.638	25.32
578.977	25.42
579.317	25.4
579.657	25.46
579.996	25.54
580.336	25.64
580.675	25.62
581.014	25.65
581.354	26.1
581.693	25.68
582.032	25.8
582.372	25.93
582.711	25.79
583.05	26.07
583.389	25.93
583.728	26.05
584.067	26.45
584.406	26.25
584.745	26.29
585.083	26.09
585.422	26.43
585.761	26.21
586.1	26.48
586.438	26.38
586.777	26.24
587.115	26.41
587.454	26.29
587.792	26.3
588.13	26.59
588.469	26.52
588.807	26.81
589.145	26.47
589.483	26.62
589.821	26.41
590.159	26.51
590.497	26.6
590.835	26.77
591.173	27.16
591.511	26.86
591.849	26.68
592.187	26.69
592.524	26.58
592.862	26.66
593.2	26.66
593.537	27.24
593.875	27.05
594.212	27.2
594.55	26.97
594.887	27.41
595.224	27.26
595.561	27.25
595.899	27.22
596.236	27.22
596.573	27.05
596.91	27.3
597.247	27.15
597.584	27.22
597.921	27.01
598.258	27.09
598.594	27.23
598.931	27.22
599.268	27.02
599.604	27.2
599.941	27.29
600.277	27.66
600.614	27.4
600.95	28.07
601.287	27.6
601.623	28.09
601.959	27.77
602.296	27.93
602.632	28.03
602.968	27.77
603.304	27.75
603.64	27.86
603.976	27.7
604.312	28
604.648	27.96
604.984	27.83
605.319	27.73
605.655	28.08
605.991	27.87
606.326	27.79
606.662	27.64
606.998	27.9
607.333	27.97
607.668	28.16
608.004	28.25
608.339	28.35
608.674	28.3
609.01	28.27
609.345	28.64
609.68	28.39
610.015	28.4
610.35	28.61
610.685	28.53
611.02	28.59
611.355	28.46
611.689	28.37
612.024	28.47
612.359	28.59
612.694	28.72
613.028	28.79
613.363	28.43
613.697	29.09
614.032	28.97
614.366	28.68
614.7	29.17
615.035	28.92
615.369	29.32
615.703	29.35
616.037	28.84
616.371	28.99
616.705	29.26
617.039	29.55
617.373	29.12
617.707	29.06
618.041	29.17
618.375	29.07
618.709	29.7
619.042	29.43
619.376	29.27
619.71	29.43
620.043	29.5
620.377	29.92
620.71	29.27
621.043	29.42
621.377	29.45
621.71	29.77
622.043	29.74
622.376	29.58
622.709	30.19
623.043	29.76
623.376	29.81
623.709	30.02
624.041	29.74
624.374	29.44
624.707	29.99
625.04	30.18
625.373	29.86
625.705	30.47
626.038	30.14
626.37	30.21
626.703	30.54
627.035	30.32
627.368	30.44
627.7	29.93
628.032	30.18
628.365	29.95
628.697	30.15
629.029	30.21
629.361	30
629.693	30.39
630.025	30.58
630.357	30.28
630.689	30.61
631.021	30.36
631.353	30.86
631.684	30.49
632.016	30.61
632.348	30.61
632.679	30.34
633.011	30.37
633.342	30.96
633.674	30.46
634.005	30.85
634.336	31.12
634.668	30.89
634.999	30.84
635.33	31.01
635.661	31.44
635.992	30.56
636.323	31.12
636.654	31.37
636.985	30.77
637.316	31.08
637.647	30.89
637.977	31.07
638.308	30.94
638.639	31.06
638.969	30.88
639.3	31.13
639.63	30.95
639.961	31.07
640.291	31.53
640.622	31.76
640.952	31.81
641.282	31.08
641.612	31.41
641.943	31.85
642.273	31.79
642.603	31.51
642.933	31.92
643.263	31.83
643.592	31.7
643.922	32.1
644.252	31.69
644.582	31.67
644.911	31.89
645.241	31.52
645.571	32.04
645.9	32.46
646.23	32.05
646.559	31.92
646.888	31.74
647.218	31.88
647.547	32.59
647.876	32.36
648.205	31.47
648.534	32.13
648.863	32.46
649.192	32.19
649.521	31.93
649.85	32.96
650.179	31.99
650.508	32.77
650.837	32.27
651.165	32.7
651.494	32.54
651.822	32.41
652.151	32.72
652.479	32.59
652.808	32.7
653.136	32.32
653.465	32.4
653.793	32.14
654.121	32.75
654.449	32.43
654.777	32.99
655.105	33.08
655.433	32.76
655.761	32.16
656.089	33
656.417	32.39
656.745	33.22
657.073	33.24
657.4	33.11
657.728	33.1
658.056	33.08
658.383	33.25
658.711	32.5
659.038	33.34
659.365	32.94
659.693	33.06
660.02	32.58
660.347	32.99
660.674	33.13
661.001	32.98
661.329	33.28
661.656	33.45
661.982	33.1
662.309	33.06
662.636	33.31
662.963	33.41
663.29	33.3
663.616	33.78
663.943	33.42
664.27	33.59
664.596	32.81
664.923	33.99
665.249	34.04
665.576	33.59
665.902	33.53
666.228	33.72
666.554	33.58
666.881	33.77
667.207	33.1
667.533	33.75
667.859	34.05
668.185	34.03
668.511	33.96
668.837	33.83
669.162	33.6
669.488	33.49
669.814	34.58
670.139	34.19
670.465	33.88
670.791	34.62
671.116	33.67
671.442	34.53
671.767	34.59
672.092	34.54
672.418	34.39
672.743	34.1
673.068	34.13
673.393	34.4
673.718	33.33
674.043	34.51
674.368	34.55
674.693	34.72
675.018	34.34
675.343	34.48
675.667	34.15
675.992	34.18
676.317	34.84
676.641	34.98
676.966	34.3
677.29	34.17
677.615	34.53
677.939	34.62
678.264	35.24
678.588	35.1
678.912	34.97
679.236	34.33
679.56	34.6
679.885	35.34
680.209	33.95
680.532	35.22
680.856	35.28
681.18	35.56
681.504	35.15
681.828	35.06
682.152	34.6
682.475	34.93
682.799	35.48
683.122	34.77
683.446	35.02
683.769	35.26
684.093	35.29
684.416	34.97
684.739	35.63
685.062	35
685.386	35.28
685.709	35.55
686.032	34.96
686.355	35.45
686.678	35.28
687.001	35.01
687.324	35.01
687.646	35.42
687.969	35.82
688.292	36.11
688.614	35.49
688.937	35.29
689.26	34.82
689.582	35.4
689.904	35.69
690.227	35.33
690.549	35.96
690.871	35.46
691.194	36.14
691.516	36.36
691.838	35.9
692.16	35.79
692.482	35.47
692.804	35.57
693.126	35.84
693.448	36.15
693.769	36.26
694.091	36.3
694.413	36.38
694.735	36.06
695.056	35.72
695.378	36.49
695.699	36.65
696.021	36.41
696.342	35.21
696.663	36.09
696.984	36.05
697.306	35.76
697.627	35.69
697.948	37.06
698.269	36.22
698.59	36.74
698.911	35.92
699.232	37.33
699.553	36.47
699.873	36.44
700.194	36.55
700.515	36.09
700.835	36.01
701.156	36.51
701.477	36.18
701.797	36.27
702.117	36.56
702.438	37.12
702.758	37.04
703.078	36.08
703.398	36.2
703.719	36.74
704.039	36.8
704.359	37.2
704.679	36.81
704.999	36.58
705.319	36.83
705.638	36.69
705.958	37.16
706.278	37.61
706.597	37.55
706.917	37.02
707.237	37.21
707.556	38.32
707.876	36.17
708.195	37.25
708.514	36.97
708.834	36.88
709.153	37.3
709.472	37.53
709.791	37.67
710.11	36.75
710.429	36.82
710.748	36.73
711.067	37.29
711.386	38.16
711.705	37.68
712.023	36.39
712.342	38.37
712.661	38.49
712.979	38.98
713.298	38.11
713.616	37.74
713.935	37.49
714.253	37.57
714.572	37.01
714.89	37.2
715.208	38.88
715.526	38.19
715.844	39.29
716.162	36.79
716.48	38.05
716.798	37.94
717.116	37.97
717.434	37.94
717.752	37.45
718.069	37.63
718.387	38.21
718.705	37.68
719.022	37.15
719.34	37.19
719.657	38.65
719.975	36.79
720.292	38.74
720.609	36.57
720.927	38.51
721.244	38.1
721.561	37.69
721.878	38.59
722.195	38.35
722.512	38.34
722.829	38.42
723.146	37.51
723.463	38.95
723.779	38.28
724.096	38.08
724.413	39.08
724.729	39.32
725.046	38.36
725.362	37.32
725.679	37.95
725.995	37.5
726.311	38.33
726.628	37.58
726.944	38.93
727.26	39.34
727.576	38.82
727.892	37.53
728.208	39.1
728.524	37.91
728.84	39.19
729.156	38.28
729.472	39.86
729.787	38.35
730.103	38.97
730.419	38.18
730.734	39.12
731.05	39.54
731.365	39.4
731.681	38.92
731.996	37.94
732.311	37.41
732.626	38.56
732.942	39.2
733.257	39.53
733.572	39.47
733.887	40.3
734.202	38.29
734.517	37.82
734.832	38.99
735.146	37.22
735.461	38.68
735.776	39.48
736.091	39.37
736.405	38.67
736.72	39.79
737.034	37.69
737.349	37.65
737.663	39.58
737.977	39.95
738.292	40.59
738.606	40.46
738.92	41.39
739.234	39.05
739.548	38.84
739.862	38.92
740.176	38.58
740.49	40.6
740.804	40.18
741.117	38.63
741.431	39.06
741.745	38.91
742.058	40.41
742.372	39.65
742.685	38.3
742.999	40.3
743.312	39.18
743.626	38.72
743.939	40.73
744.252	40.48
744.565	40.86
744.878	41.35
745.191	38.7
745.505	38.82
745.817	40.2
746.13	41.69
746.443	37.26
746.756	40.01
747.069	39.56
747.381	40.94
747.694	40.07
748.007	40.88
748.319	40.32
748.632	39.43
748.944	39.98
749.256	40.13
749.569	39.32
749.881	39.47
750.193	40.34
750.505	39.6
750.817	40.9
751.129	41.8
751.441	39.28
751.753	41.67
752.065	39.47
752.377	40.9
752.689	40.59
753	39.55
753.312	40.86
753.624	40.8
753.935	39.3
754.247	41.72
754.558	40.52
754.869	40.61
755.181	40.72
755.492	41.79
755.803	40.41
756.114	41.2
756.425	41.33
756.736	40.65
757.047	40.36
757.358	40.03
757.669	40.82
757.98	41.6
758.291	40.99
758.601	39.24
758.912	41.91
759.223	40.68
759.533	39.99
759.844	39.74
760.154	43.07
760.464	41.1
760.775	42.24
761.085	39.61
761.395	41.22
761.705	41.65
762.016	43.33
762.326	39.57
762.636	42.52
762.945	38.96
763.255	42.05
763.565	41.7
763.875	41.4
764.185	43.19
764.494	40.18
764.804	41.45
765.113	41.44
765.423	41.54
765.732	42.05
766.042	41.41
766.351	42.27
766.66	40.05
766.97	40.96
767.279	42.06
767.588	41.56
767.897	41.78
768.206	42.23
768.515	40.17
768.824	42.11
769.133	42.09
769.441	43.33
769.75	42.06
770.059	42.24
770.367	44.86
770.676	38.67
770.984	41.78
771.293	40.89
771.601	40.46
771.91	41.7
772.218	40.39
772.526	43.51
772.834	43.46
773.142	38.96
773.45	37.89
773.758	39.32
774.066	41.04
774.374	40.46
774.682	39.62
774.99	40.46
775.298	43.28
775.605	39.83
775.913	41.53
776.22	42.52
776.528	42.26
776.835	42.67
777.143	42.22
777.45	43.63
777.757	40.89
778.065	41.01
778.372	38.58
778.679	42.24
778.986	41.76
779.293	39.09
779.6	40.62
779.907	39.67
780.214	43.13
780.52	45.28
780.827	43.3
781.134	40.46
781.44	40.97
781.747	39.31
782.053	44.81
782.36	43.19
782.666	43.94
782.973	41.45
783.279	44.44
783.585	42.48
783.891	43.08
784.197	42.63
784.503	44.19
784.809	44.36
785.115	40.36
785.421	44.03
785.727	45.57
786.033	44.35
786.339	46.04
786.644	41.2
786.95	40.82
787.255	41.3
787.561	42.73
787.866	37.94
788.172	39.83
788.477	42.36
788.782	44.79
789.088	41.04
789.393	42.72
789.698	41.94
790.003	45.27
790.308	43.02
790.613	40.75
790.918	42.59
791.223	42.59
791.527	42.63
791.832	42.05
792.137	41.09
792.441	42.47
792.746	43.11
793.05	46.81
793.355	40.74
793.659	40.39
793.963	42.54
794.268	41.77
794.572	46.98
794.876	42.92
795.18	43.03
795.484	39.07
795.788	43.95
796.092	44.22
796.396	41.71
796.7	42.83
797.004	43.99
797.307	43.99
797.611	42.35
797.915	40.23
798.218	43.22
798.522	40.37
798.825	45.34
799.128	42.38
799.432	42.21
799.735	39.43
800.038	44.16
800.341	40.66
800.644	43.5
800.947	42.59
801.25	39.66
801.553	43.69
801.856	39.98
802.159	39.58
802.462	45.2
802.764	40.25
803.067	41.3
803.37	42.26
803.672	46.19
803.975	43.52
804.277	41.47
804.579	45.18
804.882	47.06
805.184	43.55
805.486	42.54
805.788	41.4
806.09	41.48
806.392	42.19
806.694	42.2
806.996	39.61
807.298	45.03
807.6	38.5
807.902	45.42
808.203	43.57
808.505	34.98
808.807	48.41
809.108	47.8
809.409	45.18
809.711	40.45
810.012	41.27
810.313	47.82
810.615	41.33
810.916	44.57
811.217	45.54
811.518	47.31
811.819	39.27
812.12	43.41
812.421	38.7
812.722	41.87
813.023	46.88
813.323	51.7
813.624	44.31
813.925	46.29
814.225	42.13
814.526	48.18
814.826	41.82
815.126	43.33
815.427	47.31
815.727	43.36
816.027	41.06
816.327	41.12
816.627	35.89
816.927	35.81
817.227	39.81
817.527	42
817.827	43.5
818.127	48.29
818.427	39.97
818.727	44.21
819.026	45.43
819.326	40.98
819.625	42.72
819.925	43.34
820.224	40.6
820.524	43.35
820.823	40.89
821.122	42.33
821.421	42.77
821.72	46.88
822.019	44.86
822.318	46.34
822.617	43.62
822.916	46.36
823.215	46.29
823.514	42.62
823.813	46.59
824.111	46.28
824.41	46.28
824.709	46.7
825.007	46.02
825.306	44.62
825.604	46.49
825.902	45.83
826.201	46.18
826.499	45.72
826.797	46.16
827.095	43.88
827.393	44.08
827.691	45.36
827.989	46.59
828.287	43.79
828.585	43.45
828.882	45.84
829.18	43.46
829.478	44.89
829.775	44.61
830.073	45.41
830.37	47.52
830.668	44.42
830.965	44.67
831.263	43.59
831.56	43.99
831.857	44.77
832.154	45.77
832.451	42.93
832.748	44.12
833.045	44.26
833.342	44.01
833.639	46.36
833.936	41.87
834.232	40.26
834.529	41.78
834.826	45.44
835.122	42.76
835.419	51.64
835.715	47.99
836.012	44.95
836.308	45.07
836.604	43.8
836.901	46.82
837.197	49.36
837.493	42.65
837.789	46.65
838.085	42.86
838.381	42.48
838.677	42.04
838.972	46.39
839.268	38.58
839.564	45.42
839.86	44.85
840.155	36.82
840.451	44.33
840.746	41.89
841.042	27.39
841.337	46
841.632	48.19
841.928	43.25
842.223	38.06
842.518	47.8
842.813	40.5
843.108	36.03
843.403	47.96
843.698	47.71
843.993	42.45
844.287	46.42
844.582	51.87
844.877	47.29
845.171	42.32
845.466	41.8
845.761	40.4
846.055	38.65
846.349	42.02
846.644	48.04
846.938	46.5
847.232	25.35
847.526	32.88
847.82	49.46
848.114	45.02
848.408	40.92
848.702	48.09
848.996	49.04
849.29	42.13
849.584	51.47
849.877	35.5
850.171	49.33
850.465	55.67
850.758	31.37
851.052	37.78
851.345	44.93
851.638	44.35
851.932	30.12
852.225	51.52
852.518	41.1
852.811	53.97
853.104	39.2
853.397	47.34
853.69	46.04
853.983	35.35
854.276	56.31
854.569	30.99
854.861	30.91
855.154	44.4
855.447	49.97
855.739	40.6
856.032	16.79
856.324	32.83
856.616	59.83
856.909	59.53
857.201	50.26
857.493	32.08
857.785	55.88
858.077	15.99
858.369	24.2
858.661	46.34
858.953	30.7
859.245	44.65
859.537	47.67
859.829	39.24
860.12	28.16
860.412	29.46
860.703	59.65
860.995	50.38
861.286	31.94
861.578	34.18
861.869	43.49
862.16	37.93
862.452	44.5
862.743	44.55
863.034	29.63
863.325	35.22
863.616	40.51
863.907	51.64
864.198	37.65
864.488	39.22
864.779	35.58
865.07	32.58
865.36	37.06
865.651	48.83
865.941	56.15
866.232	20.49
866.522	44.93
866.813	37.78
867.103	36.19
867.393	25.8
867.683	21.1
867.973	21.42
868.263	18.71
868.553	41.2
868.843	11.35
869.133	42.79
869.423	27.23
869.713	39.64
870.002	-3.13
870.292	24.89
870.582	59.57
870.871	47.46
871.161	17.05
871.45	25.89
871.739	29.7
872.029	25.3
872.318	37.95
872.607	55.07
872.896	25.25
873.185	55.98
873.474	54.34
873.763	31.6
874.052	27.91
874.341	-6.06
874.63	28.72
874.918	35.4
875.207	28.04
875.496	41.25
875.784	33.07
876.073	15.46
876.361	39.01
876.649	46.12
876.938	21.84
877.226	36.77
877.514	55.81
877.802	60.21
878.09	24.37
878.378	41.48
878.666	16.27
878.954	54.52
879.242	19.07
879.53	31.05
879.817	49.42
880.105	38.74
880.392	17.39
880.68	27.02
880.967	55.72
881.255	30.39
881.542	38.73
881.83	36.76
882.117	32.3
882.404	40.19
882.691	29.68
882.978	24.36
883.265	58.88
883.552	43.63
883.839	35.78
884.126	42.85
884.413	54.06
884.699	46.1
884.986	44.07
885.273	42.69
885.559	42.69
885.846	42.69
