Data from 22-1_chest_Reflection__4__215.txt Node

Date: Thu Dec 15 18:10:19 CST 2022
User: ToomeyLab
Spectrometer: FLMS14357
Trigger mode: 0
Integration Time (sec): 1.000000E-2
Scans to average: 100
Electric dark correction enabled: true
Nonlinearity correction enabled: false
Boxcar width: 0
XAxis mode: Wavelengths
Number of Pixels in Spectrum: 2048
>>>>>Begin Spectral Data<<<<<
189.047	-67.49
189.435	-67.49
189.823	-67.49
190.211	-448.88
190.599	87.71
190.987	8.57
191.375	-101.16
191.763	-88.75
192.151	237.44
192.538	60.02
192.926	241.07
193.314	303.6
193.702	508.9
194.089	17.79
194.477	36.72
194.864	235.05
195.252	245.42
195.639	82.32
196.027	-24.86
196.414	-29.02
196.801	138.2
197.189	139.81
197.576	105.62
197.963	251.26
198.351	-47.72
198.738	-52.55
199.125	-221.08
199.512	3.25
199.899	-12.04
200.286	-7.01
200.673	-8.53
201.06	-27.03
201.447	-0.08
201.833	-45.66
202.22	-12.95
202.607	-64.44
202.994	-18.28
203.38	0.14
203.767	-5.56
204.154	13.59
204.54	5.06
204.927	42.72
205.313	-2.27
205.699	30.01
206.086	-5.73
206.472	-18.84
206.858	-0.48
207.245	-33.4
207.631	-22.65
208.017	42.67
208.403	16.49
208.789	0.53
209.175	-19.61
209.561	-138.05
209.947	-6.9
210.333	-46.71
210.719	16.26
211.105	4.72
211.491	44.82
211.876	-64.56
212.262	13.56
212.648	-12.24
213.034	-7.38
213.419	7.95
213.805	-21.6
214.19	-21.15
214.576	10.06
214.961	10
215.346	-55.11
215.732	-28.36
216.117	1.85
216.502	-0.96
216.888	-15.21
217.273	3.47
217.658	35.83
218.043	-24.39
218.428	-10.3
218.813	25.51
219.198	-25.87
219.583	-1.74
219.968	-10.21
220.353	-28.52
220.738	-7.82
221.122	11.58
221.507	-13.81
221.892	-15.46
222.276	-36.64
222.661	-5.99
223.046	-8.76
223.43	6.58
223.815	2.93
224.199	1.44
224.583	-2.08
224.968	7.52
225.352	-5.79
225.736	7.74
226.121	-2.14
226.505	-2.96
226.889	-0.93
227.273	-3.03
227.657	7.45
228.041	3.6
228.425	1.01
228.809	1.8
229.193	5.31
229.577	3.91
229.961	3.84
230.344	5.07
230.728	5.63
231.112	4.92
231.495	3.05
231.879	3.56
232.263	4.95
232.646	3.58
233.03	4.87
233.413	3.22
233.797	2.54
234.18	4.45
234.563	5.18
234.946	1.15
235.33	2.06
235.713	4.39
236.096	6.53
236.479	5.27
236.862	4.97
237.245	3.21
237.628	3.81
238.011	2.65
238.394	2.63
238.777	2.96
239.16	4.07
239.543	5.07
239.925	4.27
240.308	1.19
240.691	3.87
241.073	3.81
241.456	4.39
241.838	4.78
242.221	4.93
242.603	4.75
242.986	5.07
243.368	5.29
243.75	4.84
244.133	4.86
244.515	4.58
244.897	4.56
245.279	4.98
245.661	4.07
246.043	4.6
246.425	5.18
246.807	5.42
247.189	4.16
247.571	5.04
247.953	4.65
248.335	5
248.717	5.25
249.098	4.94
249.48	4.99
249.862	5.08
250.243	5.26
250.625	5.18
251.006	5.55
251.388	4.98
251.769	4.09
252.151	5.13
252.532	4.35
252.913	4.67
253.295	4.75
253.676	4.96
254.057	4.55
254.438	4.65
254.819	5.14
255.2	5.2
255.581	5.78
255.962	5.27
256.343	5.24
256.724	5.62
257.105	4.62
257.486	3.96
257.867	4.56
258.247	5.03
258.628	4.81
259.009	4.73
259.389	4.22
259.77	4.44
260.15	4.97
260.531	4.79
260.911	4.73
261.292	5.14
261.672	4.86
262.052	4.81
262.432	4.77
262.813	4.97
263.193	4.81
263.573	4.93
263.953	3.82
264.333	4.84
264.713	5.05
265.093	3.52
265.473	3.6
265.853	4.1
266.233	4.57
266.612	3.81
266.992	3.71
267.372	4.19
267.752	4.77
268.131	4.27
268.511	4.41
268.89	5.28
269.27	4.54
269.649	4.5
270.029	4.02
270.408	4.35
270.787	4.9
271.167	4.47
271.546	4.94
271.925	4.44
272.304	4.51
272.683	4.6
273.062	4.72
273.441	3.77
273.82	4.81
274.199	4.31
274.578	4.67
274.957	4.41
275.336	4.81
275.715	4.65
276.093	4.2
276.472	4.14
276.851	4.74
277.229	4.65
277.608	4.45
277.986	4.55
278.365	5.18
278.743	4.43
279.122	4.12
279.5	4.54
279.878	4.43
280.257	4
280.635	5.02
281.013	4.07
281.391	3.97
281.769	4.48
282.147	4.32
282.525	4.55
282.903	3.93
283.281	4.78
283.659	4.7
284.037	4.35
284.415	4.54
284.792	4.78
285.17	4.39
285.548	4.43
285.925	4.57
286.303	4.86
286.68	4.79
287.058	4.63
287.435	4.25
287.813	4.37
288.19	4.11
288.567	4.27
288.945	4.22
289.322	4.8
289.699	4.73
290.076	3.95
290.453	3.81
290.83	4.92
291.207	4.25
291.584	4.97
291.961	4.71
292.338	4.42
292.715	4.39
293.092	4.6
293.469	4.36
293.845	4.66
294.222	5.23
294.599	3.89
294.975	3.76
295.352	4.66
295.728	4.73
296.105	4.53
296.481	4.49
296.858	4.53
297.234	4.46
297.61	4.5
297.986	4.98
298.363	4.81
298.739	5.12
299.115	4.88
299.491	4.82
299.867	4.61
300.243	4.77
300.619	4.27
300.995	4.8
301.371	4.58
301.746	4.99
302.122	4.44
302.498	4.74
302.874	4.98
303.249	5.12
303.625	4.4
304	5.03
304.376	5.57
304.751	4.36
305.127	4.6
305.502	5.04
305.878	5.12
306.253	4.54
306.628	4.76
307.003	4.71
307.378	4.91
307.754	4.74
308.129	4.82
308.504	5
308.879	4.63
309.254	4.86
309.629	4.42
310.003	4.75
310.378	5.21
310.753	4.9
311.128	4.67
311.502	5.13
311.877	4.77
312.252	4.88
312.626	5.45
313.001	4.88
313.375	4.98
313.75	4.83
314.124	5.31
314.498	5.3
314.873	4.89
315.247	5.04
315.621	4.84
315.995	4.86
316.369	4.07
316.743	4.93
317.117	4.99
317.491	5.51
317.865	4.25
318.239	5.01
318.613	5.28
318.987	4.42
319.361	4.87
319.734	5.1
320.108	5.39
320.482	4.76
320.855	4.64
321.229	5.03
321.602	4.98
321.976	4.56
322.349	5.46
322.723	5.04
323.096	5.21
323.469	4.48
323.843	4.11
324.216	4.42
324.589	5.18
324.962	4.34
325.335	4.83
325.708	5.2
326.081	5.31
326.454	5.37
326.827	5.54
327.2	4.86
327.573	5.7
327.945	4.6
328.318	4.88
328.691	4.86
329.063	4.75
329.436	5.18
329.809	5.26
330.181	5.69
330.553	5.31
330.926	5.54
331.298	4.62
331.671	5.6
332.043	5.02
332.415	5.32
332.787	5.23
333.159	4.53
333.532	5.34
333.904	5.31
334.276	5.12
334.648	4.83
335.02	4.85
335.391	4.75
335.763	5.09
336.135	5.51
336.507	5.09
336.879	4.68
337.25	5.12
337.622	5.31
337.993	4.74
338.365	5.06
338.736	5.26
339.108	5.18
339.479	5.13
339.851	5.15
340.222	5.67
340.593	4.98
340.964	4.79
341.336	4.96
341.707	5.42
342.078	4.88
342.449	4.79
342.82	4.85
343.191	5.42
343.562	5.26
343.933	4.97
344.303	4.8
344.674	5.42
345.045	5.25
345.416	5.23
345.786	4.96
346.157	5.38
346.527	4.79
346.898	4.71
347.268	4.69
347.639	4.81
348.009	5.36
348.38	5.07
348.75	5.29
349.12	4.98
349.49	5.12
349.861	5.4
350.231	5.01
350.601	5.35
350.971	4.92
351.341	5.52
351.711	5.15
352.081	4.97
352.45	4.89
352.82	4.51
353.19	4.62
353.56	5.05
353.929	5.25
354.299	5.12
354.669	5.49
355.038	5.63
355.408	5.37
355.777	5.56
356.147	5.5
356.516	5.02
356.885	4.92
357.254	5.3
357.624	5.04
357.993	5.26
358.362	5.29
358.731	5.36
359.1	5.56
359.469	5.21
359.838	5.69
360.207	5.04
360.576	5.32
360.945	5.28
361.314	5.25
361.682	5.15
362.051	5.21
362.42	5.22
362.788	5.7
363.157	5.29
363.525	5.22
363.894	5.19
364.262	5.05
364.631	5.51
364.999	5.09
365.367	4.87
365.735	5.15
366.104	5.47
366.472	4.98
366.84	4.94
367.208	5.76
367.576	5.21
367.944	5.44
368.312	4.99
368.68	5.47
369.048	5.01
369.416	5.08
369.783	5.17
370.151	5.96
370.519	5.68
370.886	5.42
371.254	5.64
371.621	5.43
371.989	5.59
372.356	5.37
372.724	5.57
373.091	5.06
373.458	5.19
373.826	5.48
374.193	5.35
374.56	5.1
374.927	5.08
375.294	5.59
375.661	5.58
376.028	5.31
376.395	5.53
376.762	5.18
377.129	5.53
377.496	5.18
377.863	5.42
378.229	5.7
378.596	5.45
378.963	5.59
379.329	5.46
379.696	5.24
380.062	5.17
380.429	5.21
380.795	5.72
381.161	5.11
381.528	5.4
381.894	5.24
382.26	5.49
382.626	5.46
382.993	5.84
383.359	5.63
383.725	5.14
384.091	5.6
384.457	5.17
384.823	5.44
385.188	5.45
385.554	5.35
385.92	5.02
386.286	5.44
386.651	5.44
387.017	5.57
387.383	5.73
387.748	5.97
388.114	5.41
388.479	5.48
388.845	5.51
389.21	5.75
389.575	5.68
389.94	5.81
390.306	5.45
390.671	5.36
391.036	5.14
391.401	5.49
391.766	5.59
392.131	5.85
392.496	5.41
392.861	5.41
393.226	5.48
393.591	5.62
393.956	5.64
394.32	5.77
394.685	5.78
395.05	5.6
395.414	5.7
395.779	5.68
396.143	5.36
396.508	5.31
396.872	5.24
397.236	5.96
397.601	5.75
397.965	5.87
398.329	5.53
398.694	5.2
399.058	5.63
399.422	5.36
399.786	5.31
400.15	5.78
400.514	5.52
400.878	5.62
401.242	5.64
401.605	5.52
401.969	5.53
402.333	5.35
402.697	5.69
403.06	5.54
403.424	5.66
403.787	5.4
404.151	5.61
404.514	5.65
404.878	5.53
405.241	5.55
405.604	5.37
405.968	5.67
406.331	5.65
406.694	5.59
407.057	5.48
407.42	5.49
407.783	5.77
408.146	5.75
408.509	5.53
408.872	5.71
409.235	5.62
409.598	5.71
409.961	5.99
410.323	5.68
410.686	5.62
411.049	5.82
411.411	5.65
411.774	5.5
412.136	5.41
412.499	5.81
412.861	5.32
413.223	5.37
413.586	5.84
413.948	5.75
414.31	5.82
414.672	5.58
415.035	5.93
415.397	5.68
415.759	5.43
416.121	5.76
416.483	5.68
416.845	5.71
417.206	5.55
417.568	5.56
417.93	5.67
418.292	5.43
418.653	5.49
419.015	5.46
419.377	5.45
419.738	5.77
420.1	5.63
420.461	5.56
420.822	5.65
421.184	5.64
421.545	5.57
421.906	5.66
422.267	5.51
422.629	5.57
422.99	5.52
423.351	5.54
423.712	5.61
424.073	5.65
424.434	5.7
424.795	5.61
425.155	5.56
425.516	5.58
425.877	5.64
426.238	5.58
426.598	5.69
426.959	5.6
427.32	5.74
427.68	5.58
428.041	5.73
428.401	5.54
428.761	5.78
429.122	5.75
429.482	5.78
429.842	5.69
430.202	5.97
430.563	5.77
430.923	5.8
431.283	5.83
431.643	5.97
432.003	5.67
432.363	5.86
432.722	5.58
433.082	5.94
433.442	6.07
433.802	5.8
434.161	5.85
434.521	5.69
434.881	5.84
435.24	5.85
435.6	5.77
435.959	5.75
436.319	5.98
436.678	5.95
437.037	5.63
437.396	5.61
437.756	5.77
438.115	5.78
438.474	5.63
438.833	5.85
439.192	5.8
439.551	5.79
439.91	5.85
440.269	5.76
440.628	5.78
440.987	5.93
441.345	5.85
441.704	5.83
442.063	5.75
442.421	5.97
442.78	5.9
443.138	5.86
443.497	5.82
443.855	5.95
444.214	5.72
444.572	5.94
444.93	5.91
445.288	5.89
445.647	5.79
446.005	5.95
446.363	5.86
446.721	5.89
447.079	5.69
447.437	5.92
447.795	5.85
448.153	5.82
448.51	5.86
448.868	5.89
449.226	5.91
449.584	5.85
449.941	5.96
450.299	5.83
450.656	6
451.014	5.98
451.371	6.04
451.729	6.16
452.086	5.91
452.443	6.06
452.801	5.97
453.158	6.06
453.515	5.93
453.872	6.03
454.229	5.94
454.586	5.75
454.943	6.1
455.3	6.02
455.657	5.98
456.014	6.01
456.371	5.9
456.727	6.1
457.084	6.33
457.441	6.1
457.797	6.11
458.154	6.17
458.51	5.9
458.867	5.99
459.223	5.9
459.58	5.94
459.936	6.2
460.292	5.98
460.648	6.02
461.005	5.98
461.361	5.91
461.717	5.94
462.073	6.04
462.429	6.1
462.785	6.3
463.141	6.13
463.496	6.1
463.852	6.25
464.208	6.1
464.564	6.07
464.919	6.03
465.275	6.22
465.631	6.36
465.986	6.2
466.342	6.01
466.697	6.17
467.052	6.15
467.408	6.33
467.763	6.09
468.118	6.13
468.473	6.19
468.829	6.07
469.184	6.26
469.539	6.09
469.894	6.09
470.249	6.2
470.603	6.3
470.958	6.25
471.313	6.21
471.668	6.21
472.023	6.35
472.377	6.25
472.732	6.29
473.086	6.2
473.441	6.41
473.795	6.59
474.15	6.27
474.504	6.29
474.859	5.94
475.213	6.35
475.567	6.08
475.921	6.3
476.275	6.33
476.63	6.36
476.984	6.22
477.338	6.33
477.692	6.27
478.045	6.31
478.399	6.38
478.753	6.34
479.107	6.29
479.461	6.25
479.814	6.38
480.168	6.2
480.521	6.48
480.875	6.25
481.228	6.24
481.582	6.37
481.935	6.42
482.289	6.32
482.642	6.41
482.995	6.32
483.348	6.18
483.701	6.3
484.055	6.21
484.408	6.19
484.761	6.1
485.114	5.98
485.466	5.99
485.819	6.04
486.172	6.11
486.525	6.15
486.878	6.24
487.23	6.25
487.583	6.33
487.936	6.24
488.288	6.27
488.641	6.19
488.993	6.18
489.345	6.16
489.698	6.15
490.05	6.24
490.402	6.25
490.754	6.29
491.107	6.36
491.459	6.42
491.811	6.39
492.163	6.41
492.515	6.31
492.866	6.21
493.218	6.24
493.57	6.33
493.922	6.3
494.274	6.42
494.625	6.53
494.977	6.49
495.328	6.65
495.68	6.57
496.031	6.5
496.383	6.5
496.734	6.51
497.086	6.63
497.437	6.59
497.788	6.7
498.139	6.62
498.49	6.6
498.842	6.6
499.193	6.61
499.544	6.61
499.894	6.59
500.245	6.6
500.596	6.63
500.947	6.53
501.298	6.7
501.648	6.73
501.999	6.82
502.35	6.56
502.7	6.92
503.051	6.72
503.401	6.78
503.752	6.68
504.102	6.71
504.452	6.57
504.803	6.7
505.153	6.79
505.503	6.74
505.853	6.76
506.203	6.82
506.553	6.67
506.903	6.73
507.253	6.73
507.603	6.81
507.953	6.82
508.303	6.84
508.652	6.62
509.002	6.77
509.352	6.74
509.701	6.72
510.051	6.88
510.4	6.83
510.75	6.77
511.099	6.78
511.449	6.91
511.798	6.81
512.147	6.86
512.496	6.92
512.846	6.91
513.195	6.88
513.544	7
513.893	6.88
514.242	6.84
514.591	6.79
514.939	7.12
515.288	6.98
515.637	7.06
515.986	6.94
516.334	7.01
516.683	7.08
517.032	6.94
517.38	6.9
517.729	6.99
518.077	7.05
518.426	7.09
518.774	6.95
519.122	7.06
519.47	6.95
519.819	6.93
520.167	6.87
520.515	7.01
520.863	7
521.211	7
521.559	7.06
521.907	7.11
522.255	7.11
522.602	7.15
522.95	7.21
523.298	7.21
523.645	7.21
523.993	7.24
524.341	7.23
524.688	7.26
525.036	7.26
525.383	7.2
525.73	7.08
526.078	7.37
526.425	7.25
526.772	7.18
527.119	7.27
527.466	7.27
527.814	7.28
528.161	7.28
528.508	7.34
528.854	7.24
529.201	7.22
529.548	7.19
529.895	7.11
530.242	7.05
530.588	7.09
530.935	7.17
531.282	7.15
531.628	7.31
531.975	7.24
532.321	7.34
532.667	7.46
533.014	7.42
533.36	7.46
533.706	7.44
534.052	7.44
534.399	7.46
534.745	7.32
535.091	7.35
535.437	7.43
535.783	7.46
536.129	7.57
536.474	7.64
536.82	7.62
537.166	7.56
537.512	7.58
537.857	7.69
538.203	7.69
538.549	7.62
538.894	7.58
539.239	7.76
539.585	7.69
539.93	7.88
540.276	7.79
540.621	7.85
540.966	7.82
541.311	8.02
541.656	7.81
542.001	7.71
542.346	7.63
542.691	7.64
543.036	7.62
543.381	7.69
543.726	7.82
544.071	7.76
544.415	7.85
544.76	7.81
545.105	7.93
545.449	7.92
545.794	7.98
546.138	8.1
546.483	8.05
546.827	8.07
547.171	8.13
547.516	8.2
547.86	8.25
548.204	8.14
548.548	8.02
548.892	8.3
549.236	8.13
549.58	8.29
549.924	8.31
550.268	8.36
550.612	8.27
550.956	8.42
551.3	8.63
551.643	8.48
551.987	8.6
552.33	8.69
552.674	8.44
553.017	8.63
553.361	8.61
553.704	8.45
554.048	8.62
554.391	8.74
554.734	8.5
555.077	8.68
555.42	8.63
555.764	8.76
556.107	8.53
556.45	8.79
556.793	8.9
557.135	8.8
557.478	8.84
557.821	8.83
558.164	8.9
558.507	8.75
558.849	9.09
559.192	9
559.534	9.02
559.877	8.98
560.219	8.98
560.562	8.86
560.904	9.07
561.246	8.82
561.589	9.14
561.931	9.1
562.273	9.13
562.615	9.08
562.957	8.98
563.299	9.18
563.641	9.14
563.983	8.96
564.325	9.22
564.667	9.24
565.008	9.3
565.35	9.25
565.692	9.31
566.033	9.11
566.375	9.3
566.716	9.31
567.058	9.43
567.399	9.29
567.741	9.44
568.082	9.37
568.423	9.32
568.764	9.5
569.105	9.55
569.447	9.48
569.788	9.59
570.129	9.55
570.47	9.66
570.811	9.62
571.151	9.58
571.492	9.73
571.833	9.69
572.174	9.64
572.514	9.89
572.855	9.81
573.195	9.75
573.536	9.95
573.876	9.8
574.217	9.8
574.557	9.88
574.898	9.84
575.238	10.05
575.578	10.09
575.918	10.18
576.258	10.18
576.598	9.9
576.938	10.16
577.278	10.12
577.618	10.19
577.958	10.35
578.298	10.32
578.638	10.01
578.977	10.16
579.317	10.46
579.657	10.31
579.996	10.74
580.336	10.67
580.675	10.47
581.014	10.65
581.354	10.48
581.693	10.46
582.032	10.71
582.372	10.78
582.711	10.64
583.05	10.65
583.389	10.95
583.728	10.83
584.067	10.64
584.406	11.02
584.745	10.67
585.083	10.85
585.422	10.9
585.761	10.88
586.1	11.53
586.438	10.79
586.777	11.04
587.115	11.05
587.454	11.01
587.792	11.08
588.13	11.02
588.469	10.91
588.807	11.18
589.145	11.4
589.483	10.85
589.821	11.3
590.159	11.39
590.497	11.51
590.835	11.56
591.173	11.55
591.511	11.67
591.849	11.77
592.187	11.55
592.524	11.67
592.862	11.43
593.2	11.64
593.537	11.32
593.875	11.73
594.212	11.72
594.55	11.69
594.887	11.77
595.224	11.82
595.561	11.82
595.899	12.13
596.236	11.98
596.573	11.75
596.91	11.8
597.247	11.99
597.584	12.01
597.921	11.93
598.258	12.15
598.594	11.91
598.931	11.91
599.268	11.93
599.604	12.02
599.941	12.23
600.277	12.14
600.614	12.38
600.95	12.43
601.287	12.09
601.623	12.09
601.959	12.76
602.296	12.63
602.632	12.49
602.968	12.59
603.304	12.47
603.64	12.72
603.976	12.51
604.312	12.55
604.648	12.88
604.984	12.76
605.319	12.72
605.655	12.74
605.991	12.65
606.326	12.75
606.662	12.75
606.998	12.9
607.333	12.76
607.668	12.9
608.004	12.91
608.339	12.82
608.674	13.33
609.01	13.24
609.345	13.2
609.68	13.11
610.015	13.49
610.35	13.49
610.685	13.12
611.02	13.17
611.355	13.19
611.689	13.24
612.024	13.44
612.359	13.58
612.694	13.38
613.028	13.5
613.363	13.65
613.697	13.56
614.032	13.53
614.366	13.5
614.7	13.79
615.035	13.78
615.369	14.38
615.703	13.96
616.037	13.77
616.371	13.81
616.705	13.96
617.039	14.17
617.373	13.92
617.707	13.91
618.041	14.01
618.375	13.44
618.709	14.51
619.042	14.48
619.376	14.14
619.71	13.92
620.043	14.74
620.377	14.21
620.71	14.17
621.043	14.32
621.377	14.71
621.71	14.75
622.043	14.58
622.376	14.6
622.709	14.81
623.043	14.71
623.376	14.66
623.709	14.95
624.041	14.64
624.374	15.09
624.707	14.78
625.04	14.6
625.373	15.06
625.705	15.14
626.038	15.24
626.37	14.76
626.703	14.85
627.035	15.09
627.368	15.39
627.7	15.21
628.032	15.09
628.365	15.65
628.697	15.47
629.029	15.34
629.361	15.62
629.693	15.23
630.025	15.58
630.357	15.7
630.689	15.78
631.021	15.57
631.353	15.77
631.684	15.52
632.016	15.29
632.348	15.48
632.679	16.14
633.011	15.91
633.342	15.86
633.674	15.86
634.005	15.97
634.336	16.3
634.668	16.19
634.999	15.96
635.33	16
635.661	15.76
635.992	16.26
636.323	16.5
636.654	16.3
636.985	16.48
637.316	16.52
637.647	16.4
637.977	16.11
638.308	16.57
638.639	16.21
638.969	16.84
639.3	17.03
639.63	17
639.961	16.72
640.291	16.29
640.622	16.86
640.952	17.04
641.282	16.77
641.612	16.91
641.943	16.44
642.273	16.66
642.603	17.14
642.933	17.24
643.263	16.95
643.592	17.39
643.922	17.7
644.252	16.88
644.582	17.38
644.911	17.34
645.241	16.97
645.571	17.02
645.9	17.35
646.23	17.92
646.559	17.19
646.888	17.84
647.218	17.47
647.547	18.06
647.876	17.46
648.205	17.04
648.534	17.66
648.863	17.58
649.192	17.71
649.521	17.63
649.85	18.19
650.179	18.01
650.508	17.57
650.837	18.15
651.165	18.13
651.494	18.21
651.822	18.03
652.151	18.01
652.479	18.22
652.808	18.13
653.136	17.91
653.465	17.81
653.793	18.54
654.121	18.53
654.449	18.5
654.777	18.3
655.105	18.08
655.433	18.82
655.761	18.6
656.089	18.48
656.417	18.67
656.745	18.91
657.073	18.5
657.4	18.27
657.728	18.6
658.056	19.04
658.383	19.01
658.711	18.73
659.038	19.03
659.365	19.15
659.693	19.28
660.02	19.17
660.347	19.13
660.674	18.7
661.001	19.16
661.329	19.27
661.656	19.12
661.982	18.92
662.309	19.29
662.636	19.57
662.963	19.6
663.29	19.69
663.616	19.23
663.943	19.97
664.27	19.58
664.596	19.71
664.923	19.98
665.249	20.15
665.576	20.2
665.902	19.06
666.228	20
666.554	20.36
666.881	19.47
667.207	19.72
667.533	19.58
667.859	20.05
668.185	20.04
668.511	20.08
668.837	19.87
669.162	20.34
669.488	19.53
669.814	20.32
670.139	20.54
670.465	20.82
670.791	20.03
671.116	20.11
671.442	19.73
671.767	20.88
672.092	20.26
672.418	20.85
672.743	20.59
673.068	20.71
673.393	21.15
673.718	20.17
674.043	20.49
674.368	20.75
674.693	20.88
675.018	20.91
675.343	21.17
675.667	21.53
675.992	21.2
676.317	20.63
676.641	21.79
676.966	21.54
677.29	20.46
677.615	21.27
677.939	21.29
678.264	20.69
678.588	21.14
678.912	21.04
679.236	20.76
679.56	21.46
679.885	21.36
680.209	22.12
680.532	21.8
680.856	21.72
681.18	22.24
681.504	21.75
681.828	21.4
682.152	21.73
682.475	22.02
682.799	21.83
683.122	22.31
683.446	21.61
683.769	22.27
684.093	22.07
684.416	21.74
684.739	22.03
685.062	22.12
685.386	22.56
685.709	22.81
686.032	22.9
686.355	23.28
686.678	22.62
687.001	22.53
687.324	23.07
687.646	22.86
687.969	22.49
688.292	22.24
688.614	22.71
688.937	23.76
689.26	22.88
689.582	22.55
689.904	23.05
690.227	23.51
690.549	23.51
690.871	22.45
691.194	22.65
691.516	22.95
691.838	23.06
692.16	22.59
692.482	23.13
692.804	23.34
693.126	22.91
693.448	22.46
693.769	23.9
694.091	23.77
694.413	22.99
694.735	24.15
695.056	23.56
695.378	23.81
695.699	23.64
696.021	23.4
696.342	24.17
696.663	23.47
696.984	22.82
697.306	22.74
697.627	24.29
697.948	23.94
698.269	24.08
698.59	24.45
698.911	24.64
699.232	24.93
699.553	24.92
699.873	24.24
700.194	23.89
700.515	24.44
700.835	24.2
701.156	24.93
701.477	24.69
701.797	24.32
702.117	24.17
702.438	24.74
702.758	24.45
703.078	24.28
703.398	24.15
703.719	24.8
704.039	25.19
704.359	23.57
704.679	24.65
704.999	24.07
705.319	25.08
705.638	24.59
705.958	24.59
706.278	25.78
706.597	23.86
706.917	25.46
707.237	24.9
707.556	25.56
707.876	25.78
708.195	25.6
708.514	24.35
708.834	25.03
709.153	25.35
709.472	26.32
709.791	25.8
710.11	25.61
710.429	25.61
710.748	25.43
711.067	26.06
711.386	25.61
711.705	24.76
712.023	27.08
712.342	25.71
712.661	25.87
712.979	25.71
713.298	25.55
713.616	25.89
713.935	26.54
714.253	26.07
714.572	26.67
714.89	24.95
715.208	26.2
715.526	26.54
715.844	26.81
716.162	26.41
716.48	25.87
716.798	26.36
717.116	26.09
717.434	27.07
717.752	27.54
718.069	27.06
718.387	26.1
718.705	27.22
719.022	26.86
719.34	25.66
719.657	27.14
719.975	26.85
720.292	26.29
720.609	25.63
720.927	27.29
721.244	28.18
721.561	25.61
721.878	27.3
722.195	26.95
722.512	27.54
722.829	27.5
723.146	27.04
723.463	26.33
723.779	26.66
724.096	27.75
724.413	27.51
724.729	26.78
725.046	27.61
725.362	27.71
725.679	27.77
725.995	27.69
726.311	28.17
726.628	28.21
726.944	28.76
727.26	27.76
727.576	28.63
727.892	28.16
728.208	28.04
728.524	27.9
728.84	28
729.156	28
729.472	27.92
729.787	28.19
730.103	28.73
730.419	28.45
730.734	27.91
731.05	28.61
731.365	29.73
731.681	28.63
731.996	28.26
732.311	27.95
732.626	28.29
732.942	27.86
733.257	27.61
733.572	29.74
733.887	31.64
734.202	29.02
734.517	30.19
734.832	28.75
735.146	29.96
735.461	29.12
735.776	29.02
736.091	30.05
736.405	29.88
736.72	29.29
737.034	30.46
737.349	29.14
737.663	30.06
737.977	31.37
738.292	27.06
738.606	28.93
738.92	29.88
739.234	28.52
739.548	29.29
739.862	28.43
740.176	28.57
740.49	30.39
740.804	29.99
741.117	28.93
741.431	29.66
741.745	29.18
742.058	30.81
742.372	28.57
742.685	30.22
742.999	29.38
743.312	29.87
743.626	31.12
743.939	30
744.252	29.37
744.565	31.92
744.878	28.37
745.191	29.76
745.505	29.57
745.817	31.13
746.13	30.61
746.443	29.22
746.756	30.77
747.069	30.72
747.381	31.92
747.694	29.99
748.007	30.49
748.319	30.1
748.632	30.62
748.944	30.89
749.256	32.05
749.569	29.7
749.881	29.92
750.193	31.87
750.505	30.8
750.817	32.2
751.129	30.08
751.441	30.6
751.753	30.65
752.065	30.98
752.377	32.77
752.689	30.64
753	32.49
753.312	32.68
753.624	29.87
753.935	28.56
754.247	30.95
754.558	31.43
754.869	33.23
755.181	31.59
755.492	32.57
755.803	34.07
756.114	32.06
756.425	30.72
756.736	30.14
757.047	31.94
757.358	32.09
757.669	32.31
757.98	30.69
758.291	31.82
758.601	33.84
758.912	32.31
759.223	32.59
759.533	32.67
759.844	31.04
760.154	32.68
760.464	33.44
760.775	32.63
761.085	32.99
761.395	31.17
761.705	32.14
762.016	33.1
762.326	33.76
762.636	33.68
762.945	31.87
763.255	33.11
763.565	32.49
763.875	31.91
764.185	33.4
764.494	31.1
764.804	32.27
765.113	33.44
765.423	34.1
765.732	33.01
766.042	34.27
766.351	33.84
766.66	33.09
766.97	33.28
767.279	33.38
767.588	32.19
767.897	33.16
768.206	31.92
768.515	33.46
768.824	34.35
769.133	31.7
769.441	30.9
769.75	31.76
770.059	33.33
770.367	35.62
770.676	32.72
770.984	31.84
771.293	32.85
771.601	32.14
771.91	32.99
772.218	33.37
772.526	31.31
772.834	32.11
773.142	34.31
773.45	32.12
773.758	38.29
774.066	35.35
774.374	33.93
774.682	36.18
774.99	33.02
775.298	30.86
775.605	32.54
775.913	31.51
776.22	32.61
776.528	32.72
776.835	33.78
777.143	36.29
777.45	32.95
777.757	35.46
778.065	36.23
778.372	33.74
778.679	35.67
778.986	35.23
779.293	31.7
779.6	33.57
779.907	35.77
780.214	32.83
780.52	33.5
780.827	34.72
781.134	34.38
781.44	33.73
781.747	34.06
782.053	33.01
782.36	34.71
782.666	35.89
782.973	32.53
783.279	35.75
783.585	34.22
783.891	34.13
784.197	39.22
784.503	33.59
784.809	35.83
785.115	36.33
785.421	36.3
785.727	35.63
786.033	35.69
786.339	38.62
786.644	32.95
786.95	32.66
787.255	31.53
787.561	34.25
787.866	33.29
788.172	40.09
788.477	35.05
788.782	33.91
789.088	26.08
789.393	36.43
789.698	33.49
790.003	36.11
790.308	36
790.613	32.96
790.918	34.58
791.223	35.3
791.527	34.55
791.832	36.2
792.137	37.92
792.441	34.89
792.746	33.74
793.05	34.67
793.355	36.51
793.659	38.08
793.963	32.44
794.268	38.36
794.572	36.43
794.876	32.89
795.18	35.69
795.484	35.93
795.788	36.48
796.092	31.87
796.396	35.6
796.7	36.79
797.004	31.9
797.307	37.91
797.611	35.88
797.915	33.63
798.218	34.78
798.522	35.66
798.825	37.57
799.128	39.51
799.432	33.88
799.735	35.54
800.038	35.79
800.341	35.14
800.644	35.62
800.947	35.75
801.25	35.27
801.553	34.2
801.856	37.18
802.159	35.88
802.462	34.87
802.764	35.24
803.067	39.54
803.37	34.62
803.672	37.69
803.975	36.92
804.277	34.53
804.579	35.35
804.882	35.71
805.184	43.19
805.486	37.73
805.788	35.63
806.09	36.6
806.392	36.06
806.694	37.97
806.996	36.42
807.298	38.79
807.6	40.94
807.902	34.44
808.203	33.58
808.505	34.41
808.807	36.17
809.108	36
809.409	37
809.711	29.78
810.012	35.99
810.313	37.38
810.615	35.98
810.916	39.87
811.217	40.72
811.518	32.69
811.819	36.6
812.12	37.59
812.421	34.96
812.722	40.77
813.023	35.37
813.323	39.09
813.624	34.65
813.925	33.81
814.225	39.64
814.526	33.51
814.826	32.92
815.126	37.31
815.427	30.07
815.727	38.97
816.027	40.21
816.327	40.5
816.627	40.07
816.927	37.18
817.227	39.03
817.527	38.48
817.827	45.64
818.127	37.39
818.427	32.84
818.727	34.65
819.026	38.81
819.326	33.09
819.625	37.72
819.925	36.96
820.224	38.85
820.524	43.46
820.823	41.94
821.122	35.21
821.421	31.81
821.72	38.38
822.019	33.35
822.318	42.96
822.617	39.95
822.916	37.08
823.215	37.94
823.514	40.9
823.813	40.76
824.111	42.79
824.41	42.28
824.709	41.89
825.007	42.79
825.306	43.82
825.604	42.32
825.902	42.52
826.201	42.19
826.499	43.04
826.797	42.99
827.095	43.22
827.393	43.3
827.691	43.49
827.989	42.1
828.287	43.54
828.585	41.64
828.882	38.7
829.18	41.67
829.478	43.6
829.775	41.63
830.073	43.46
830.37	44.21
830.668	41.98
830.965	42.66
831.263	42.03
831.56	43.39
831.857	42.86
832.154	42.1
832.451	41.34
832.748	42.26
833.045	47.16
833.342	38.31
833.639	40.28
833.936	39.81
834.232	38.82
834.529	39.68
834.826	42.61
835.122	40.19
835.419	41.27
835.715	36.63
836.012	37.92
836.308	42.67
836.604	39.85
836.901	41.93
837.197	43.47
837.493	45.38
837.789	44.74
838.085	39.71
838.381	42.35
838.677	40.71
838.972	38.68
839.268	41.62
839.564	45.71
839.86	42.48
840.155	44.32
840.451	37.44
840.746	43.18
841.042	36.61
841.337	37.72
841.632	49.36
841.928	32.18
842.223	40.34
842.518	42.75
842.813	44.97
843.108	42.9
843.403	37.2
843.698	46.08
843.993	46.48
844.287	43.27
844.582	40.73
844.877	34.08
845.171	39.87
845.466	36.39
845.761	38.57
846.055	44.47
846.349	41.93
846.644	31.43
846.938	38.69
847.232	44
847.526	37.73
847.82	55.95
848.114	31.6
848.408	28.4
848.702	28.47
848.996	31.56
849.29	45.04
849.584	15.1
849.877	36.92
850.171	41.5
850.465	52.15
850.758	26.04
851.052	31.43
851.345	35.81
851.638	30.64
851.932	31.51
852.225	32.99
852.518	42.28
852.811	21.22
853.104	40.86
853.397	33.19
853.69	19.88
853.983	30.68
854.276	44.55
854.569	8.27
854.861	41.72
855.154	46.39
855.447	30.16
855.739	21.1
856.032	71.19
856.324	39.09
856.616	46.08
856.909	22.98
857.201	31.34
857.493	17.32
857.785	45.62
858.077	44.17
858.369	40.13
858.661	25.09
858.953	48.21
859.245	67.68
859.537	29.36
859.829	38.39
860.12	45.31
860.412	40.35
860.703	33.97
860.995	37.58
861.286	-7.1
861.578	26.88
861.869	63.27
862.16	51.18
862.452	9.56
862.743	9.24
863.034	32.98
863.325	53.4
863.616	47.26
863.907	31.96
864.198	19.41
864.488	40.33
864.779	33.99
865.07	29.64
865.36	52.83
865.651	37.92
865.941	35.05
866.232	43.84
866.522	18.31
866.813	22.21
867.103	6.87
867.393	59.32
867.683	40.76
867.973	58.6
868.263	16.63
868.553	45.75
868.843	32.56
869.133	46.97
869.423	26.35
869.713	56.81
870.002	32.85
870.292	41.09
870.582	43.8
870.871	50.11
871.161	31.09
871.45	31.87
871.739	48.16
872.029	26.29
872.318	61.01
872.607	43.44
872.896	54.27
873.185	73.89
873.474	15.27
873.763	58.04
874.052	36.01
874.341	45.99
874.63	37.73
874.918	53.55
875.207	7.58
875.496	37.99
875.784	22.17
876.073	31.18
876.361	47.58
876.649	21.15
876.938	23.53
877.226	53.34
877.514	43.13
877.802	27.21
878.09	21.17
878.378	46.37
878.666	43.19
878.954	29.46
879.242	44.25
879.53	28.69
879.817	5.26
880.105	29.54
880.392	10.56
880.68	28.2
880.967	24.36
881.255	33.27
881.542	39.83
881.83	53.12
882.117	30.32
882.404	15.71
882.691	32.37
882.978	36.6
883.265	48.13
883.552	28.74
883.839	50.92
884.126	48.7
884.413	42.19
884.699	47.33
884.986	45.39
885.273	50.46
885.559	50.46
885.846	50.46
