Data from 0044_forehead_Reflection__1__131.txt Node

Date: Fri Nov 04 15:55:02 CDT 2022
User: ToomeyLab
Spectrometer: FLMS14357
Trigger mode: 0
Integration Time (sec): 1.000000E-2
Scans to average: 100
Electric dark correction enabled: true
Nonlinearity correction enabled: false
Boxcar width: 0
XAxis mode: Wavelengths
Number of Pixels in Spectrum: 2048
>>>>>Begin Spectral Data<<<<<
189.047	-395.29
189.435	-395.29
189.823	-395.29
190.211	63.01
190.599	881.49
190.987	-41.38
191.375	153.79
191.763	168.19
192.151	198.03
192.538	922.42
192.926	47.29
193.314	-226.93
193.702	73.87
194.089	224.44
194.477	15.05
194.864	-51.68
195.252	96.95
195.639	-53.49
196.027	119.43
196.414	-294.79
196.801	294.38
197.189	-81.08
197.576	-169.12
197.963	223.87
198.351	-55.27
198.738	13.27
199.125	-26.1
199.512	-35.35
199.899	27.25
200.286	-32.41
200.673	20.32
201.06	8.73
201.447	16.51
201.833	14.48
202.22	9.44
202.607	-11.25
202.994	29.76
203.38	42.57
203.767	28.32
204.154	21.69
204.54	-1.48
204.927	14.5
205.313	9.54
205.699	21.7
206.086	23.8
206.472	1.72
206.858	-5.02
207.245	4.29
207.631	-5.67
208.017	54.12
208.403	23.1
208.789	27.55
209.175	-4.13
209.561	-46.51
209.947	-28.61
210.333	29.5
210.719	-10.6
211.105	-51.31
211.491	26.45
211.876	-0.07
212.262	-47.32
212.648	13.52
213.034	34.02
213.419	30.85
213.805	0.23
214.19	-16.9
214.576	19.36
214.961	37.8
215.346	6.55
215.732	35.03
216.117	-4.31
216.502	12.96
216.888	-18.39
217.273	31.39
217.658	19.79
218.043	-10.13
218.428	21.42
218.813	9.95
219.198	16.42
219.583	-20.87
219.968	26.92
220.353	-19.06
220.738	-11.29
221.122	-2.5
221.507	14.83
221.892	-6.39
222.276	-6.93
222.661	12.78
223.046	-0.08
223.43	8.75
223.815	0.84
224.199	16.51
224.583	0.4
224.968	-1.96
225.352	-1.16
225.736	-4.79
226.121	-11.14
226.505	7.03
226.889	3.05
227.273	-2.49
227.657	-1.02
228.041	2.27
228.425	2.67
228.809	7.06
229.193	-0.03
229.577	0.05
229.961	3.96
230.344	2.29
230.728	2.13
231.112	1.85
231.495	1.93
231.879	2.45
232.263	2.73
232.646	1.42
233.03	0.39
233.413	0.14
233.797	1.28
234.18	2.36
234.563	2.17
234.946	3.06
235.33	3.67
235.713	2.46
236.096	1.86
236.479	2.11
236.862	1.37
237.245	-0.01
237.628	2.08
238.011	-0.01
238.394	3.53
238.777	2.33
239.16	3.3
239.543	1.64
239.925	2.19
240.308	4.05
240.691	1.48
241.073	2.37
241.456	1.88
241.838	1
242.221	0.98
242.603	2.18
242.986	0.9
243.368	2.55
243.75	1.73
244.133	1.81
244.515	2.03
244.897	1.87
245.279	1.89
245.661	2.34
246.043	1.85
246.425	2.33
246.807	2.04
247.189	1.3
247.571	2.83
247.953	2.05
248.335	2.01
248.717	1.86
249.098	1.98
249.48	2.06
249.862	2.1
250.243	2.19
250.625	1.66
251.006	2.24
251.388	2.05
251.769	2.27
252.151	2.96
252.532	2.37
252.913	2.17
253.295	1.87
253.676	1.84
254.057	1.62
254.438	1.86
254.819	1.72
255.2	1.43
255.581	1.62
255.962	2.69
256.343	1.84
256.724	2.28
257.105	1.51
257.486	2.58
257.867	4.09
258.247	2.81
258.628	1.78
259.009	1.31
259.389	2.32
259.77	1.66
260.15	2.05
260.531	2.34
260.911	1.56
261.292	1.7
261.672	1.82
262.052	1.86
262.432	2.04
262.813	1.76
263.193	1.15
263.573	2.24
263.953	2.08
264.333	2.23
264.713	2.67
265.093	1.87
265.473	2.05
265.853	1.16
266.233	1.96
266.612	2.51
266.992	2.75
267.372	1.72
267.752	1.86
268.131	2.33
268.511	2.31
268.89	2.57
269.27	1.6
269.649	2.1
270.029	1.83
270.408	2.18
270.787	2.08
271.167	2.2
271.546	2.35
271.925	2.19
272.304	1.64
272.683	2.06
273.062	2.41
273.441	2.29
273.82	1.76
274.199	2.12
274.578	1.62
274.957	1.64
275.336	1.46
275.715	2.01
276.093	1.86
276.472	2.16
276.851	1.71
277.229	2.2
277.608	2.18
277.986	2.4
278.365	2.48
278.743	2.31
279.122	2.1
279.5	2.06
279.878	1.63
280.257	2.39
280.635	1.47
281.013	1.71
281.391	2.32
281.769	2.14
282.147	1.59
282.525	1.97
282.903	2.21
283.281	2.54
283.659	2.34
284.037	1.8
284.415	1.82
284.792	2.3
285.17	1.8
285.548	2.46
285.925	1.77
286.303	2.23
286.68	2.11
287.058	2
287.435	2.17
287.813	1.67
288.19	1.86
288.567	1.85
288.945	1.82
289.322	1.94
289.699	2.78
290.076	2.32
290.453	1.42
290.83	1.89
291.207	1.95
291.584	2.08
291.961	2.18
292.338	2.09
292.715	2.3
293.092	2.27
293.469	2.02
293.845	2.33
294.222	2.01
294.599	1.67
294.975	2.27
295.352	2.33
295.728	2.24
296.105	2.4
296.481	2.27
296.858	2.41
297.234	2.86
297.61	2.54
297.986	2.02
298.363	2.09
298.739	2.32
299.115	2.37
299.491	2.36
299.867	2.21
300.243	2.14
300.619	2.38
300.995	2.83
301.371	2.78
301.746	2.3
302.122	2.51
302.498	2.8
302.874	2.75
303.249	2.49
303.625	2.51
304	2.63
304.376	2.69
304.751	2.76
305.127	2.14
305.502	2.79
305.878	2.38
306.253	2.51
306.628	2.75
307.003	2.47
307.378	2.44
307.754	3.1
308.129	2.28
308.504	2.81
308.879	3.19
309.254	2.71
309.629	3.07
310.003	2.78
310.378	2.99
310.753	2.86
311.128	2.7
311.502	2.4
311.877	2.89
312.252	2.56
312.626	2.89
313.001	2.77
313.375	3.02
313.75	2.73
314.124	2.72
314.498	3.03
314.873	3.65
315.247	3.4
315.621	3.23
315.995	2.99
316.369	2.99
316.743	3.74
317.117	3.46
317.491	3.1
317.865	2.92
318.239	3.01
318.613	3.17
318.987	3.48
319.361	3.78
319.734	3.41
320.108	3.04
320.482	2.26
320.855	3.43
321.229	3.01
321.602	3.25
321.976	2.99
322.349	3.6
322.723	3.21
323.096	3.35
323.469	3.13
323.843	3.14
324.216	3.75
324.589	3.31
324.962	3.71
325.335	3.79
325.708	3.08
326.081	3.46
326.454	3.14
326.827	3.52
327.2	3.3
327.573	3.32
327.945	3.94
328.318	3.21
328.691	3.68
329.063	3.32
329.436	3.29
329.809	3.32
330.181	3.56
330.553	3.78
330.926	3.75
331.298	3.68
331.671	3.54
332.043	3.49
332.415	3.49
332.787	4.13
333.159	3.35
333.532	3.44
333.904	3.73
334.276	3.36
334.648	4.01
335.02	3.66
335.391	4.06
335.763	3.41
336.135	3.75
336.507	4.03
336.879	3.6
337.25	4.15
337.622	3.85
337.993	4.27
338.365	3.45
338.736	3.81
339.108	4.06
339.479	3.94
339.851	4
340.222	3.72
340.593	4.15
340.964	4.07
341.336	4
341.707	3.5
342.078	3.65
342.449	4.03
342.82	4.12
343.191	3.59
343.562	4.17
343.933	4.38
344.303	4.34
344.674	4.14
345.045	3.76
345.416	3.96
345.786	4.11
346.157	4.31
346.527	4.09
346.898	4.14
347.268	4.04
347.639	4
348.009	4.36
348.38	4.25
348.75	4.11
349.12	4.25
349.49	4.14
349.861	4.17
350.231	4.45
350.601	4.26
350.971	4.42
351.341	4.43
351.711	4.23
352.081	4.17
352.45	4.18
352.82	4.8
353.19	4.26
353.56	4.27
353.929	4.32
354.299	4.6
354.669	4.94
355.038	4.59
355.408	4.15
355.777	4.55
356.147	4.3
356.516	4.34
356.885	4.58
357.254	4.34
357.624	4.32
357.993	4.55
358.362	4.37
358.731	4.61
359.1	4.44
359.469	4.58
359.838	4.59
360.207	4.35
360.576	5
360.945	4.9
361.314	5.01
361.682	5.03
362.051	4.67
362.42	4.64
362.788	4.84
363.157	4.9
363.525	4.87
363.894	4.78
364.262	4.93
364.631	4.89
364.999	4.87
365.367	4.62
365.735	5.11
366.104	4.65
366.472	5.13
366.84	4.44
367.208	5.14
367.576	4.88
367.944	5.25
368.312	4.92
368.68	4.85
369.048	5
369.416	5.04
369.783	4.83
370.151	4.76
370.519	5.53
370.886	4.95
371.254	5.16
371.621	4.91
371.989	4.95
372.356	5.29
372.724	5.09
373.091	5.11
373.458	5.19
373.826	5.17
374.193	5.1
374.56	5.05
374.927	5.07
375.294	5.11
375.661	5.45
376.028	5.22
376.395	5.3
376.762	5.57
377.129	5.47
377.496	5.25
377.863	5.53
378.229	5.34
378.596	5.38
378.963	5.47
379.329	5.3
379.696	5.4
380.062	5.85
380.429	5.55
380.795	5.55
381.161	5.65
381.528	5.79
381.894	5.41
382.26	5.48
382.626	5.46
382.993	5.72
383.359	5.6
383.725	5.82
384.091	5.89
384.457	5.75
384.823	5.69
385.188	6.09
385.554	5.58
385.92	5.64
386.286	5.65
386.651	5.69
387.017	5.65
387.383	5.89
387.748	5.76
388.114	5.65
388.479	6.26
388.845	5.99
389.21	6.18
389.575	6.13
389.94	6.01
390.306	5.92
390.671	6.1
391.036	5.62
391.401	6
391.766	5.72
392.131	6.03
392.496	5.84
392.861	6.08
393.226	6.03
393.591	6.19
393.956	6.21
394.32	6.1
394.685	6.27
395.05	6.38
395.414	6.2
395.779	6.24
396.143	5.99
396.508	6.25
396.872	6.38
397.236	6.38
397.601	6.14
397.965	6.47
398.329	6.53
398.694	6.29
399.058	6.47
399.422	6.22
399.786	6.13
400.15	6.04
400.514	6.34
400.878	6.32
401.242	6.61
401.605	6.28
401.969	6.37
402.333	6.61
402.697	6.33
403.06	6.78
403.424	6.45
403.787	6.27
404.151	6.57
404.514	6.51
404.878	6.36
405.241	6.65
405.604	6.58
405.968	6.39
406.331	6.45
406.694	6.63
407.057	6.58
407.42	6.75
407.783	6.38
408.146	6.6
408.509	6.65
408.872	6.6
409.235	6.73
409.598	6.66
409.961	6.73
410.323	6.78
410.686	6.52
411.049	6.53
411.411	6.58
411.774	6.94
412.136	6.81
412.499	7.03
412.861	7.14
413.223	6.88
413.586	6.82
413.948	6.91
414.31	6.95
414.672	6.76
415.035	7.05
415.397	6.86
415.759	7.19
416.121	6.88
416.483	6.93
416.845	7.1
417.206	6.85
417.568	7.12
417.93	7.13
418.292	7.02
418.653	6.99
419.015	6.88
419.377	6.98
419.738	6.99
420.1	7.02
420.461	7.01
420.822	7.01
421.184	7.17
421.545	6.89
421.906	7
422.267	6.98
422.629	7.12
422.99	6.89
423.351	6.92
423.712	6.98
424.073	7.08
424.434	7.01
424.795	7.21
425.155	7.29
425.516	7.1
425.877	7.18
426.238	7.27
426.598	7.17
426.959	7.14
427.32	7.25
427.68	7.22
428.041	7.26
428.401	7.39
428.761	7.56
429.122	7.41
429.482	7.52
429.842	7.38
430.202	7.78
430.563	7.53
430.923	7.71
431.283	7.64
431.643	7.79
432.003	8.03
432.363	7.92
432.722	7.73
433.082	7.81
433.442	7.65
433.802	7.72
434.161	7.93
434.521	7.71
434.881	7.8
435.24	7.72
435.6	7.94
435.959	7.83
436.319	7.88
436.678	7.91
437.037	8.03
437.396	8.29
437.756	8.02
438.115	7.85
438.474	8.1
438.833	8.19
439.192	8.01
439.551	8.26
439.91	8.07
440.269	8.15
440.628	8.15
440.987	8.18
441.345	8.12
441.704	8.19
442.063	8.09
442.421	8.21
442.78	8.21
443.138	8.25
443.497	8.21
443.855	8.25
444.214	8.36
444.572	8.41
444.93	8.35
445.288	8.54
445.647	8.42
446.005	8.4
446.363	8.51
446.721	8.34
447.079	8.45
447.437	8.41
447.795	8.38
448.153	8.35
448.51	8.51
448.868	8.35
449.226	8.39
449.584	8.48
449.941	8.47
450.299	8.66
450.656	8.67
451.014	8.76
451.371	8.92
451.729	8.95
452.086	8.88
452.443	8.82
452.801	8.86
453.158	8.91
453.515	9.05
453.872	8.86
454.229	9.01
454.586	8.99
454.943	9.01
455.3	9.14
455.657	9.05
456.014	9.04
456.371	9.27
456.727	9.19
457.084	9.42
457.441	9.13
457.797	9.05
458.154	9.17
458.51	9.23
458.867	9.13
459.223	9.36
459.58	9.48
459.936	9.12
460.292	9.35
460.648	9.34
461.005	9.3
461.361	9.15
461.717	9.15
462.073	9.21
462.429	9.31
462.785	9.39
463.141	9.21
463.496	9.38
463.852	9.59
464.208	9.58
464.564	9.48
464.919	9.83
465.275	9.75
465.631	9.7
465.986	9.77
466.342	9.73
466.697	9.74
467.052	9.81
467.408	9.88
467.763	9.81
468.118	9.86
468.473	10.02
468.829	9.74
469.184	9.89
469.539	9.77
469.894	9.91
470.249	10.04
470.603	10.06
470.958	9.86
471.313	9.89
471.668	9.92
472.023	9.97
472.377	10.03
472.732	10.13
473.086	10.03
473.441	10.05
473.795	10.16
474.15	10.26
474.504	10.26
474.859	10.16
475.213	10.3
475.567	10.04
475.921	10.21
476.275	10.43
476.63	10.39
476.984	10.29
477.338	10.41
477.692	10.34
478.045	10.43
478.399	10.34
478.753	10.39
479.107	10.48
479.461	10.52
479.814	10.5
480.168	10.49
480.521	10.31
480.875	10.36
481.228	10.69
481.582	10.68
481.935	10.56
482.289	10.45
482.642	10.56
482.995	10.58
483.348	10.61
483.701	10.6
484.055	10.53
484.408	10.47
484.761	10.45
485.114	10.29
485.466	10.11
485.819	10.06
486.172	10.1
486.525	10.07
486.878	10.28
487.23	10.3
487.583	10.41
487.936	10.6
488.288	10.66
488.641	10.51
488.993	10.45
489.345	10.42
489.698	10.46
490.05	10.47
490.402	10.47
490.754	10.64
491.107	10.69
491.459	10.86
491.811	10.87
492.163	11.01
492.515	11.03
492.866	10.99
493.218	10.75
493.57	10.7
493.922	10.75
494.274	10.74
494.625	10.93
494.977	11.07
495.328	11.18
495.68	11.26
496.031	11.36
496.383	11.48
496.734	11.47
497.086	11.7
497.437	11.6
497.788	11.67
498.139	11.52
498.49	11.48
498.842	11.5
499.193	11.59
499.544	11.46
499.894	11.46
500.245	11.65
500.596	11.55
500.947	11.55
501.298	11.59
501.648	11.82
501.999	12.01
502.35	11.85
502.7	11.8
503.051	11.92
503.401	12.02
503.752	11.93
504.102	11.9
504.452	12.05
504.803	12.07
505.153	11.99
505.503	12.1
505.853	12.03
506.203	12.12
506.553	12.24
506.903	12.19
507.253	12.05
507.603	12.13
507.953	12.17
508.303	12.27
508.652	12.24
509.002	12.33
509.352	12.37
509.701	12.18
510.051	12.26
510.4	12.33
510.75	12.25
511.099	12.22
511.449	12.28
511.798	12.37
512.147	12.41
512.496	12.34
512.846	12.33
513.195	12.42
513.544	12.42
513.893	12.61
514.242	12.53
514.591	12.47
514.939	12.59
515.288	12.57
515.637	12.6
515.986	12.64
516.334	12.73
516.683	12.65
517.032	12.75
517.38	12.84
517.729	12.93
518.077	12.83
518.426	12.84
518.774	12.84
519.122	12.93
519.47	12.89
519.819	12.85
520.167	12.73
520.515	12.65
520.863	12.67
521.211	12.69
521.559	12.84
521.907	12.79
522.255	12.89
522.602	13.01
522.95	13.01
523.298	13.16
523.645	13.22
523.993	13.14
524.341	13.23
524.688	13.27
525.036	13.14
525.383	13.25
525.73	13.44
526.078	13.22
526.425	13.43
526.772	13.23
527.119	13.15
527.466	13.1
527.814	13.11
528.161	13.1
528.508	13.12
528.854	13.1
529.201	13.21
529.548	13.04
529.895	13.04
530.242	12.87
530.588	12.77
530.935	12.79
531.282	12.87
531.628	12.87
531.975	13.05
532.321	13.13
532.667	13.28
533.014	13.35
533.36	13.48
533.706	13.57
534.052	13.55
534.399	13.49
534.745	13.43
535.091	13.26
535.437	13.28
535.783	13.26
536.129	13.55
536.474	13.49
536.82	13.41
537.166	13.66
537.512	13.9
537.857	13.75
538.203	13.73
538.549	13.64
538.894	13.81
539.239	13.91
539.585	13.83
539.93	13.96
540.276	14.02
540.621	14.06
540.966	14.33
541.311	14.07
541.656	14.18
542.001	14.25
542.346	14.17
542.691	13.91
543.036	13.7
543.381	13.78
543.726	13.77
544.071	13.85
544.415	13.96
544.76	14.06
545.105	14.08
545.449	14.16
545.794	14.25
546.138	14.33
546.483	14.34
546.827	14.49
547.171	14.69
547.516	14.52
547.86	14.71
548.204	14.57
548.548	14.48
548.892	14.57
549.236	14.48
549.58	14.65
549.924	14.69
550.268	14.9
550.612	14.77
550.956	14.94
551.3	14.94
551.643	15.05
551.987	14.94
552.33	15.19
552.674	15.22
553.017	15.35
553.361	15.4
553.704	15.12
554.048	15.28
554.391	15.04
554.734	15.05
555.077	15.18
555.42	15.35
555.764	15.57
556.107	15.34
556.45	15.42
556.793	15.46
557.135	15.31
557.478	15.56
557.821	15.68
558.164	15.66
558.507	15.64
558.849	15.64
559.192	15.47
559.534	15.6
559.877	15.86
560.219	15.8
560.562	15.71
560.904	15.94
561.246	15.6
561.589	15.95
561.931	15.78
562.273	15.87
562.615	15.83
562.957	16.03
563.299	15.98
563.641	16.03
563.983	15.94
564.325	15.9
564.667	16.21
565.008	16.05
565.35	15.97
565.692	16.05
566.033	16.31
566.375	16.16
566.716	16.16
567.058	16.02
567.399	16.25
567.741	16.17
568.082	16.13
568.423	15.98
568.764	16.04
569.105	16.21
569.447	16.41
569.788	16.27
570.129	16.51
570.47	16.34
570.811	16.5
571.151	16.37
571.492	16.52
571.833	16.44
572.174	16.6
572.514	16.53
572.855	16.16
573.195	16.58
573.536	16.63
573.876	16.42
574.217	16.47
574.557	16.62
574.898	16.68
575.238	16.68
575.578	16.9
575.918	16.7
576.258	16.7
576.598	16.64
576.938	16.92
577.278	16.7
577.618	16.69
577.958	16.75
578.298	16.89
578.638	16.98
578.977	17.12
579.317	16.9
579.657	16.93
579.996	17.21
580.336	17.16
580.675	17.14
581.014	17.38
581.354	17.17
581.693	17.3
582.032	17.33
582.372	17.6
582.711	17.37
583.05	17.43
583.389	17.48
583.728	17.58
584.067	17.54
584.406	17.39
584.745	17.48
585.083	17.24
585.422	17.66
585.761	17.31
586.1	17.72
586.438	17.41
586.777	17.91
587.115	17.76
587.454	17.61
587.792	17.92
588.13	17.77
588.469	17.82
588.807	18.18
589.145	17.8
589.483	17.68
589.821	18.1
590.159	17.93
590.497	17.93
590.835	18.1
591.173	17.86
591.511	18.28
591.849	18
592.187	18.02
592.524	18.26
592.862	18.02
593.2	17.91
593.537	18.26
593.875	18.26
594.212	18.23
594.55	18.04
594.887	18.33
595.224	18.41
595.561	18.36
595.899	18.45
596.236	18.27
596.573	18.3
596.91	18.32
597.247	18.33
597.584	18.56
597.921	18.54
598.258	18.35
598.594	18.19
598.931	18.46
599.268	18.33
599.604	18.4
599.941	18.5
600.277	18.54
600.614	18.86
600.95	18.66
601.287	18.87
601.623	18.8
601.959	18.94
602.296	18.87
602.632	18.91
602.968	18.74
603.304	18.97
603.64	19.05
603.976	18.68
604.312	18.95
604.648	18.77
604.984	19.11
605.319	18.59
605.655	18.62
605.991	18.97
606.326	18.96
606.662	18.74
606.998	18.92
607.333	18.78
607.668	18.98
608.004	19.11
608.339	18.93
608.674	19.17
609.01	19.35
609.345	19.3
609.68	19.19
610.015	19.38
610.35	19.12
610.685	19.24
611.02	19.33
611.355	19.28
611.689	19.31
612.024	19.32
612.359	19.43
612.694	19.47
613.028	19.63
613.363	19.83
613.697	19.41
614.032	19.5
614.366	19.71
614.7	19.79
615.035	19.85
615.369	19.44
615.703	19.87
616.037	19.82
616.371	20.14
616.705	20.16
617.039	20.01
617.373	20.11
617.707	20.25
618.041	19.87
618.375	19.69
618.709	19.98
619.042	19.74
619.376	20.21
619.71	20.21
620.043	20.05
620.377	20.09
620.71	20.13
621.043	20.18
621.377	20.27
621.71	20.48
622.043	20.52
622.376	20.24
622.709	20.39
623.043	20.22
623.376	20.75
623.709	20.31
624.041	20.66
624.374	20.62
624.707	19.83
625.04	21.07
625.373	20.71
625.705	20.46
626.038	20.59
626.37	20.83
626.703	20.45
627.035	20.35
627.368	20.76
627.7	20.81
628.032	20.64
628.365	20.85
628.697	20.45
629.029	20.72
629.361	20.68
629.693	20.76
630.025	20.48
630.357	20.98
630.689	21.46
631.021	20.56
631.353	20.94
631.684	21.16
632.016	20.85
632.348	20.87
632.679	20.82
633.011	20.93
633.342	21.07
633.674	21.05
634.005	21.34
634.336	21.11
634.668	21.36
634.999	21.05
635.33	20.95
635.661	21.39
635.992	21.29
636.323	21.28
636.654	20.85
636.985	21.53
637.316	21.49
637.647	21.66
637.977	21.34
638.308	21.63
638.639	21.47
638.969	21.3
639.3	21.81
639.63	21.39
639.961	21.88
640.291	21.63
640.622	22.03
640.952	21.74
641.282	21.74
641.612	21.57
641.943	21.78
642.273	21.61
642.603	22.09
642.933	21.87
643.263	21.45
643.592	21.68
643.922	22.19
644.252	22.04
644.582	22.08
644.911	21.88
645.241	22
645.571	22.36
645.9	22.06
646.23	22.37
646.559	22.57
646.888	22.09
647.218	22.34
647.547	22.34
647.876	22.33
648.205	21.51
648.534	22.64
648.863	22.41
649.192	22.35
649.521	21.97
649.85	22.74
650.179	22.57
650.508	21.86
650.837	22.74
651.165	22.71
651.494	22.2
651.822	22.38
652.151	22.5
652.479	22.21
652.808	22.44
653.136	22.46
653.465	22.84
653.793	23.17
654.121	22.36
654.449	22.21
654.777	22.36
655.105	22.92
655.433	23.48
655.761	22.5
656.089	22.72
656.417	22.81
656.745	22.85
657.073	22.96
657.4	22.92
657.728	23.2
658.056	22.69
658.383	22.8
658.711	23.44
659.038	22.92
659.365	23.52
659.693	23.37
660.02	22.71
660.347	22.64
660.674	23.12
661.001	23.26
661.329	23.17
661.656	23.06
661.982	22.91
662.309	23.27
662.636	23.16
662.963	22.99
663.29	22.77
663.616	23.4
663.943	23.18
664.27	23.66
664.596	23.52
664.923	23.35
665.249	23.72
665.576	23.75
665.902	22.9
666.228	23.38
666.554	24.4
666.881	23.56
667.207	23.74
667.533	23.75
667.859	23.95
668.185	23.56
668.511	23.78
668.837	23.71
669.162	23.8
669.488	23.62
669.814	24
670.139	24.17
670.465	23.89
670.791	23.48
671.116	23.72
671.442	23.83
671.767	24
672.092	23.84
672.418	23.91
672.743	23.68
673.068	24.35
673.393	24.42
673.718	24.54
674.043	24.06
674.368	23.55
674.693	23.96
675.018	24.18
675.343	24.17
675.667	24.25
675.992	24.21
676.317	24.25
676.641	24.06
676.966	24
677.29	24.64
677.615	24.08
677.939	24.25
678.264	24.6
678.588	24.31
678.912	24.16
679.236	24.94
679.56	24.48
679.885	24.3
680.209	23.95
680.532	24.67
680.856	24.56
681.18	24.1
681.504	24.55
681.828	23.91
682.152	24.8
682.475	24.96
682.799	24.98
683.122	24.65
683.446	24.81
683.769	24.44
684.093	25
684.416	24.44
684.739	25.08
685.062	25.28
685.386	24.95
685.709	24.84
686.032	25.38
686.355	25.16
686.678	25.21
687.001	24.91
687.324	25.27
687.646	25.54
687.969	25.22
688.292	25.03
688.614	24.66
688.937	24.92
689.26	25.41
689.582	24.8
689.904	25.53
690.227	24.16
690.549	25.2
690.871	25.12
691.194	25.26
691.516	25.1
691.838	24.86
692.16	25.26
692.482	25.22
692.804	24.69
693.126	25.77
693.448	24.65
693.769	25.2
694.091	26.17
694.413	24.77
694.735	24.75
695.056	25.21
695.378	25.88
695.699	26.27
696.021	26.53
696.342	25.71
696.663	25.94
696.984	25.78
697.306	24.43
697.627	25.56
697.948	25.23
698.269	25.96
698.59	25.72
698.911	26.29
699.232	25.65
699.553	25.52
699.873	25.11
700.194	25.82
700.515	26.06
700.835	26.04
701.156	25.85
701.477	25.84
701.797	26.23
702.117	26.02
702.438	25.79
702.758	26.01
703.078	26.28
703.398	25.55
703.719	25.77
704.039	26.81
704.359	26.69
704.679	25.72
704.999	26.19
705.319	26.04
705.638	26.68
705.958	26.86
706.278	26.83
706.597	26.2
706.917	26.64
707.237	26.18
707.556	26.49
707.876	26.6
708.195	25.9
708.514	26.31
708.834	26.8
709.153	25.92
709.472	27.24
709.791	26.33
710.11	27.26
710.429	26.1
710.748	26.66
711.067	27.13
711.386	25.78
711.705	25.92
712.023	27.24
712.342	26.9
712.661	26.92
712.979	26.74
713.298	26.63
713.616	26.72
713.935	26.64
714.253	26.68
714.572	26.86
714.89	26.94
715.208	27.43
715.526	27.44
715.844	27.16
716.162	27.94
716.48	26.93
716.798	27.72
717.116	28.15
717.434	26.4
717.752	25.89
718.069	26.55
718.387	26.68
718.705	27.44
719.022	28
719.34	28.06
719.657	27.68
719.975	27.4
720.292	28.86
720.609	27.57
720.927	26.4
721.244	27.07
721.561	26.99
721.878	26.7
722.195	27.13
722.512	26.97
722.829	27.72
723.146	27.29
723.463	28.97
723.779	27.89
724.096	27.33
724.413	27.6
724.729	28.15
725.046	26.57
725.362	27.97
725.679	27.98
725.995	27.51
726.311	27.27
726.628	26.71
726.944	26.49
727.26	27.58
727.576	27.21
727.892	28.76
728.208	29.39
728.524	26.71
728.84	27.22
729.156	27.57
729.472	29.08
729.787	28.93
730.103	27.75
730.419	29.27
730.734	26.94
731.05	28.28
731.365	26.62
731.681	28.03
731.996	30.36
732.311	28.71
732.626	26.38
732.942	27.86
733.257	27.24
733.572	28.61
733.887	28.45
734.202	27.98
734.517	27.11
734.832	28.37
735.146	27.27
735.461	28.21
735.776	28.55
736.091	28.68
736.405	28.25
736.72	26.5
737.034	26.87
737.349	28.23
737.663	28.47
737.977	28.24
738.292	28.78
738.606	28.28
738.92	27.63
739.234	28.11
739.548	28.86
739.862	27.36
740.176	28.36
740.49	26.91
740.804	28.32
741.117	29.54
741.431	27.92
741.745	30.17
742.058	29.65
742.372	27.51
742.685	27.84
742.999	29.05
743.312	29.59
743.626	27.59
743.939	28.18
744.252	28.62
744.565	26.42
744.878	29.93
745.191	28.39
745.505	27.92
745.817	29.02
746.13	27.62
746.443	28.36
746.756	29.75
747.069	29.91
747.381	30.05
747.694	30.06
748.007	28.04
748.319	28.17
748.632	30.04
748.944	29.25
749.256	28.27
749.569	29.34
749.881	27.16
750.193	29.48
750.505	28.94
750.817	28.7
751.129	28.32
751.441	30.29
751.753	28.98
752.065	29.18
752.377	27.4
752.689	28.45
753	27.96
753.312	29.8
753.624	29.86
753.935	30.28
754.247	28.62
754.558	29.12
754.869	29.28
755.181	29.29
755.492	30.09
755.803	30.37
756.114	30.68
756.425	29.91
756.736	30.95
757.047	31.38
757.358	29.7
757.669	30.57
757.98	29.44
758.291	31.64
758.601	28.55
758.912	29.13
759.223	30.16
759.533	29.44
759.844	28.76
760.154	30.88
760.464	29.92
760.775	28.8
761.085	27.49
761.395	29.91
761.705	29.37
762.016	29.3
762.326	29.4
762.636	29.5
762.945	30.48
763.255	30.24
763.565	29.68
763.875	31.4
764.185	31.41
764.494	29.87
764.804	29.56
765.113	30.07
765.423	29.75
765.732	29.57
766.042	29.04
766.351	29.91
766.66	29.52
766.97	29.82
767.279	29.6
767.588	30.94
767.897	29.68
768.206	31.6
768.515	30.31
768.824	30.31
769.133	30.13
769.441	29.69
769.75	31.9
770.059	29.81
770.367	30.67
770.676	31.58
770.984	29.58
771.293	30.81
771.601	29.02
771.91	31.01
772.218	29.85
772.526	28.41
772.834	31.32
773.142	30.12
773.45	28.79
773.758	29.88
774.066	29.77
774.374	31.98
774.682	27.68
774.99	29.82
775.298	31.02
775.605	30.73
775.913	31.6
776.22	31.44
776.528	32.94
776.835	29.5
777.143	30.16
777.45	30.63
777.757	28.93
778.065	30.44
778.372	32.13
778.679	31.2
778.986	30.49
779.293	31.21
779.6	33.12
779.907	29.14
780.214	31.75
780.52	29.59
780.827	29.76
781.134	28.57
781.44	28.17
781.747	31.27
782.053	29.39
782.36	30.95
782.666	27.19
782.973	32.01
783.279	32.95
783.585	29.41
783.891	30.77
784.197	27.75
784.503	28.03
784.809	29.84
785.115	29.97
785.421	31.22
785.727	28.77
786.033	28.94
786.339	30.51
786.644	32.63
786.95	33.52
787.255	28.64
787.561	30.7
787.866	28.22
788.172	30.71
788.477	31.68
788.782	33.47
789.088	34.57
789.393	30.76
789.698	31.71
790.003	30.44
790.308	31.86
790.613	27.32
790.918	31.31
791.223	31.44
791.527	27.85
791.832	29.76
792.137	30.97
792.441	33.04
792.746	32.47
793.05	29.32
793.355	32.77
793.659	29.63
793.963	28.47
794.268	31.31
794.572	31.29
794.876	28.25
795.18	34.7
795.484	25.88
795.788	31.6
796.092	32.44
796.396	28.89
796.7	34.98
797.004	31.36
797.307	31.35
797.611	28.76
797.915	33.7
798.218	32.54
798.522	30.24
798.825	33.06
799.128	29.43
799.432	28.79
799.735	31.04
800.038	29.34
800.341	30.38
800.644	29.11
800.947	31.07
801.25	33.04
801.553	32.38
801.856	31.43
802.159	28.12
802.462	30.99
802.764	29.98
803.067	28.33
803.37	26.16
803.672	36.12
803.975	33.88
804.277	33.34
804.579	28.71
804.882	32.32
805.184	30.74
805.486	29.45
805.788	32.95
806.09	29.41
806.392	26.52
806.694	24.75
806.996	29.43
807.298	30.76
807.6	35.17
807.902	33.89
808.203	29.47
808.505	32.58
808.807	32.36
809.108	34.73
809.409	33.54
809.711	27.24
810.012	36.76
810.313	33.04
810.615	32.9
810.916	34.07
811.217	37.27
811.518	31.12
811.819	33.38
812.12	29.14
812.421	33.44
812.722	29.76
813.023	32.71
813.323	37.81
813.624	33.05
813.925	37.49
814.225	34.64
814.526	33.96
814.826	19.3
815.126	31.3
815.427	31.91
815.727	31.97
816.027	31.78
816.327	33.44
816.627	31.74
816.927	26.7
817.227	37.55
817.527	27.84
817.827	34.56
818.127	37.79
818.427	33.37
818.727	33.27
819.026	30.57
819.326	34.51
819.625	29.12
819.925	33.64
820.224	37.74
820.524	34.03
820.823	34.14
821.122	35.29
821.421	30.79
821.72	31.74
822.019	34.68
822.318	36.93
822.617	30.18
822.916	31.07
823.215	33.88
823.514	32
823.813	33.76
824.111	33.53
824.41	30.85
824.709	32.95
825.007	33.61
825.306	33.43
825.604	33.35
825.902	33.2
826.201	32.87
826.499	33.28
826.797	33.62
827.095	33.71
827.393	32.85
827.691	34.11
827.989	32
828.287	32.74
828.585	32.26
828.882	32.34
829.18	32.4
829.478	32.54
829.775	33.51
830.073	32.38
830.37	34.44
830.668	32.45
830.965	32.85
831.263	32.33
831.56	33.01
831.857	31.59
832.154	35.95
832.451	33.87
832.748	32.32
833.045	40.73
833.342	33.79
833.639	33.91
833.936	35.78
834.232	31.59
834.529	36.29
834.826	32.01
835.122	36.3
835.419	38.35
835.715	30.11
836.012	32.32
836.308	30.92
836.604	31.91
836.901	32.68
837.197	35.41
837.493	30.79
837.789	32.73
838.085	33.96
838.381	33.3
838.677	29.23
838.972	31.2
839.268	32.97
839.564	30.41
839.86	31.28
840.155	36.54
840.451	34.74
840.746	36.21
841.042	36.22
841.337	39.77
841.632	24.97
841.928	31.89
842.223	34.25
842.518	38.16
842.813	39.3
843.108	30.37
843.403	31.65
843.698	19.1
843.993	29.41
844.287	29.27
844.582	39.74
844.877	37.79
845.171	25.52
845.466	23.63
845.761	25.72
846.055	32.91
846.349	39.95
846.644	34.57
846.938	28.06
847.232	23.14
847.526	30.57
847.82	23.98
848.114	45.11
848.408	39.15
848.702	26.2
848.996	30.81
849.29	42.27
849.584	26.56
849.877	26.01
850.171	37.41
850.465	39.37
850.758	40.25
851.052	42.95
851.345	55.62
851.638	30.19
851.932	39.63
852.225	48.32
852.518	26.12
852.811	19.56
853.104	25.85
853.397	17.05
853.69	35.4
853.983	32.58
854.276	36.61
854.569	43.43
854.861	20.11
855.154	38.7
855.447	2.36
855.739	55.74
856.032	54.51
856.324	45.27
856.616	49.6
856.909	34.85
857.201	43.28
857.493	35.37
857.785	41.15
858.077	30.5
858.369	43.11
858.661	17.83
858.953	34.33
859.245	22.12
859.537	31.76
859.829	43.42
860.12	42.05
860.412	36.33
860.703	10.49
860.995	34.11
861.286	38.5
861.578	35.21
861.869	49.25
862.16	44.84
862.452	37.53
862.743	44.96
863.034	42.23
863.325	19.58
863.616	34.58
863.907	26.33
864.198	29.34
864.488	19.85
864.779	46.54
865.07	27.46
865.36	26.91
865.651	32.61
865.941	13.71
866.232	20.31
866.522	25.67
866.813	23.04
867.103	36.96
867.393	42.32
867.683	3.4
867.973	7.79
868.263	13.88
868.553	8.18
868.843	36.64
869.133	40.24
869.423	38.28
869.713	27.9
870.002	39.22
870.292	30.53
870.582	38.16
870.871	66.27
871.161	43.97
871.45	46.24
871.739	5.18
872.029	24.03
872.318	30.96
872.607	-11.1
872.896	19.98
873.185	38.88
873.474	23.95
873.763	27.37
874.052	40.25
874.341	40.22
874.63	33.11
874.918	36.07
875.207	31.02
875.496	3.29
875.784	33.89
876.073	10.12
876.361	29.61
876.649	36.81
876.938	11.13
877.226	47.65
877.514	60.36
877.802	27.3
878.09	23.19
878.378	52.95
878.666	31.27
878.954	45.81
879.242	12.42
879.53	23.91
879.817	16.64
880.105	12.21
880.392	52.49
880.68	-4.16
880.967	37.2
881.255	43.77
881.542	22.95
881.83	42.35
882.117	20.47
882.404	70.05
882.691	48.32
882.978	41.47
883.265	27.39
883.552	35.05
883.839	36.38
884.126	25.85
884.413	40.19
884.699	30.91
884.986	38.29
885.273	31.2
885.559	31.2
885.846	31.2
