Data from 0262_forehead_Reflection__4__137.txt Node

Date: Fri Oct 20 21:40:43 CDT 2023
User: ToomeyLab
Spectrometer: FLMS14357
Trigger mode: 0
Integration Time (sec): 1.000000E-2
Scans to average: 100
Electric dark correction enabled: true
Nonlinearity correction enabled: false
Boxcar width: 0
XAxis mode: Wavelengths
Number of Pixels in Spectrum: 2048
>>>>>Begin Spectral Data<<<<<
189.047	-24.21
189.435	-24.21
189.823	-24.21
190.211	123.88
190.599	59
190.987	85.43
191.375	-52.82
191.763	392.55
192.151	-124.66
192.538	32.11
192.926	-13.11
193.314	304.86
193.702	82.7
194.089	43.72
194.477	-31.01
194.864	-546.62
195.252	160.44
195.639	191.69
196.027	82.66
196.414	158.4
196.801	49.22
197.189	161.97
197.576	137.75
197.963	-1.09
198.351	33.62
198.738	44.51
199.125	23.07
199.512	30.85
199.899	30.41
200.286	-9.54
200.673	31.36
201.06	27.14
201.447	2.41
201.833	37.29
202.22	59.35
202.607	38.87
202.994	40.88
203.38	4.97
203.767	27.25
204.154	35.08
204.54	40.72
204.927	51.9
205.313	21.4
205.699	71.25
206.086	30.13
206.472	32.67
206.858	54.22
207.245	35.29
207.631	25.23
208.017	21.09
208.403	7.17
208.789	38.04
209.175	32.63
209.561	25.54
209.947	2.78
210.333	15.31
210.719	21.46
211.105	42.44
211.491	21.66
211.876	6.11
212.262	27.23
212.648	29.5
213.034	39.7
213.419	33.15
213.805	-10.69
214.19	15.02
214.576	1.94
214.961	30.48
215.346	22.71
215.732	17.05
216.117	-6.93
216.502	32.81
216.888	-6.58
217.273	18.54
217.658	12.89
218.043	7.04
218.428	7.7
218.813	10.77
219.198	33.07
219.583	15.8
219.968	9.36
220.353	8.36
220.738	18.95
221.122	17.21
221.507	0.37
221.892	8.27
222.276	26.66
222.661	25.07
223.046	15.15
223.43	17.82
223.815	6.25
224.199	20.68
224.583	2.45
224.968	9.33
225.352	2.35
225.736	5.26
226.121	13.18
226.505	5.81
226.889	17.16
227.273	13.63
227.657	6.44
228.041	5.94
228.425	5.19
228.809	8.6
229.193	3.83
229.577	6.52
229.961	3.48
230.344	3.64
230.728	2.86
231.112	3.98
231.495	2.56
231.879	3.98
232.263	4.19
232.646	3.23
233.03	3.29
233.413	3.41
233.797	2.83
234.18	5.28
234.563	4.07
234.946	5.66
235.33	3.07
235.713	4.52
236.096	4.88
236.479	4.63
236.862	4.59
237.245	4.15
237.628	3.25
238.011	3.43
238.394	3.37
238.777	5.1
239.16	4.89
239.543	5.75
239.925	4.75
240.308	3.51
240.691	4.69
241.073	4.63
241.456	4.6
241.838	4.4
242.221	5.05
242.603	4.62
242.986	3.93
243.368	4.58
243.75	3.57
244.133	3.37
244.515	3.13
244.897	3.43
245.279	3.42
245.661	3.7
246.043	3.56
246.425	4.1
246.807	3.13
247.189	3.64
247.571	3.29
247.953	3.87
248.335	3.88
248.717	3.26
249.098	3.27
249.48	3.41
249.862	3.39
250.243	4.02
250.625	3.4
251.006	3.72
251.388	3.93
251.769	4.36
252.151	4.12
252.532	4.47
252.913	3.99
253.295	3.59
253.676	4.11
254.057	3.78
254.438	3.71
254.819	3.9
255.2	3.52
255.581	3.58
255.962	4.35
256.343	4.3
256.724	3.59
257.105	4.55
257.486	4.43
257.867	4.06
258.247	3.13
258.628	3.52
259.009	3.23
259.389	3.41
259.77	3.61
260.15	4.22
260.531	4.04
260.911	4
261.292	3.41
261.672	3.53
262.052	3.73
262.432	3.64
262.813	3.59
263.193	3.76
263.573	3.65
263.953	3.5
264.333	3.97
264.713	4.16
265.093	3.92
265.473	3.95
265.853	3.48
266.233	3.59
266.612	3.99
266.992	4.63
267.372	3.94
267.752	3.74
268.131	4.25
268.511	3.8
268.89	3.9
269.27	3.37
269.649	3.07
270.029	3.13
270.408	3.89
270.787	4.39
271.167	3.9
271.546	4.15
271.925	4.37
272.304	4.06
272.683	3.86
273.062	4.15
273.441	3.66
273.82	3.43
274.199	3.67
274.578	3.63
274.957	3.7
275.336	3.61
275.715	3.63
276.093	3.21
276.472	3.57
276.851	3.98
277.229	4.28
277.608	3.6
277.986	3.63
278.365	4.04
278.743	3.73
279.122	3.78
279.5	3.58
279.878	3.02
280.257	3.65
280.635	3.9
281.013	3.48
281.391	4.31
281.769	3.27
282.147	3.94
282.525	3.86
282.903	3.36
283.281	3.7
283.659	3.73
284.037	3.59
284.415	2.97
284.792	3.63
285.17	4.11
285.548	3.34
285.925	3.17
286.303	3.75
286.68	3.61
287.058	4.07
287.435	4.06
287.813	3.18
288.19	3.85
288.567	3.59
288.945	4.18
289.322	4.2
289.699	3.36
290.076	4.15
290.453	3.97
290.83	4.01
291.207	4.27
291.584	3.72
291.961	4.02
292.338	3.73
292.715	3.86
293.092	4.18
293.469	4.36
293.845	4.36
294.222	3.93
294.599	4.72
294.975	5.45
295.352	4.5
295.728	4.32
296.105	4.07
296.481	4.64
296.858	4.03
297.234	4.73
297.61	3.96
297.986	4.13
298.363	4.44
298.739	4.43
299.115	4.34
299.491	4.32
299.867	4.44
300.243	4.44
300.619	4.75
300.995	4.49
301.371	4.48
301.746	4.77
302.122	4.84
302.498	4.1
302.874	5.07
303.249	4.79
303.625	5.38
304	5.31
304.376	4.84
304.751	4.84
305.127	4.87
305.502	5.7
305.878	5.32
306.253	5
306.628	5.55
307.003	5.39
307.378	5.2
307.754	5.21
308.129	5.52
308.504	5.7
308.879	6
309.254	6.34
309.629	5.76
310.003	4.88
310.378	6.05
310.753	6.02
311.128	5.64
311.502	5.77
311.877	5.73
312.252	5.74
312.626	6.17
313.001	5.83
313.375	5.63
313.75	5.58
314.124	5.5
314.498	5.69
314.873	5.52
315.247	6.4
315.621	6.48
315.995	6.41
316.369	6.3
316.743	6.09
317.117	6.17
317.491	5.72
317.865	6.84
318.239	7.15
318.613	6.5
318.987	6.54
319.361	6.14
319.734	6.86
320.108	6.68
320.482	6.79
320.855	6.34
321.229	6.88
321.602	6.45
321.976	6.33
322.349	7.44
322.723	6.27
323.096	6.63
323.469	6.61
323.843	6.9
324.216	7.05
324.589	7.76
324.962	7.81
325.335	7.4
325.708	6.89
326.081	6.98
326.454	7.34
326.827	7.41
327.2	7.67
327.573	7.19
327.945	7.2
328.318	7.08
328.691	7.49
329.063	8.08
329.436	7.18
329.809	7.31
330.181	7.64
330.553	7.71
330.926	7.69
331.298	7.26
331.671	7.62
332.043	7.97
332.415	7.61
332.787	8.57
333.159	7.72
333.532	7.96
333.904	7.84
334.276	8.04
334.648	8.5
335.02	8.79
335.391	7.91
335.763	8.26
336.135	8.63
336.507	8.33
336.879	8.02
337.25	8.29
337.622	8.6
337.993	7.8
338.365	8.12
338.736	8.86
339.108	8.41
339.479	7.91
339.851	8.48
340.222	8.08
340.593	8.19
340.964	8.38
341.336	8.67
341.707	8.59
342.078	9.16
342.449	8.21
342.82	8.4
343.191	8.28
343.562	8.81
343.933	8.52
344.303	8.93
344.674	8.64
345.045	8.86
345.416	8.98
345.786	8.75
346.157	9.2
346.527	8.85
346.898	8.89
347.268	9.06
347.639	9.34
348.009	9.31
348.38	9.25
348.75	8.91
349.12	9.28
349.49	8.87
349.861	9.54
350.231	8.68
350.601	9.22
350.971	9.49
351.341	9.52
351.711	9.57
352.081	9.44
352.45	9.52
352.82	9.54
353.19	10.07
353.56	9.77
353.929	9.69
354.299	9.41
354.669	9.35
355.038	10.07
355.408	9.96
355.777	9.76
356.147	9.71
356.516	9.47
356.885	9.46
357.254	10.07
357.624	9.88
357.993	10.13
358.362	9.8
358.731	9.78
359.1	9.51
359.469	10.01
359.838	10
360.207	9.67
360.576	10.21
360.945	9.96
361.314	9.91
361.682	10.41
362.051	10
362.42	9.74
362.788	10.06
363.157	10.17
363.525	9.72
363.894	10.12
364.262	10.1
364.631	10.2
364.999	10.26
365.367	10.3
365.735	10.34
366.104	10.64
366.472	10.33
366.84	11.07
367.208	10.44
367.576	10.48
367.944	10.76
368.312	10.93
368.68	10.86
369.048	10.73
369.416	11.04
369.783	11.01
370.151	11.03
370.519	10.74
370.886	10.85
371.254	11.45
371.621	11.03
371.989	10.91
372.356	11.35
372.724	11.25
373.091	11.1
373.458	10.96
373.826	11.12
374.193	10.77
374.56	11.04
374.927	11.28
375.294	11.26
375.661	11.18
376.028	11.61
376.395	11.67
376.762	11.2
377.129	11.43
377.496	11.56
377.863	11.81
378.229	11.9
378.596	11.74
378.963	11.94
379.329	11.59
379.696	11.68
380.062	11.75
380.429	11.55
380.795	11.4
381.161	11.48
381.528	12.08
381.894	11.94
382.26	11.89
382.626	11.99
382.993	12.23
383.359	11.78
383.725	11.92
384.091	12.19
384.457	12.07
384.823	12.16
385.188	12.35
385.554	12.33
385.92	12.28
386.286	12.37
386.651	11.91
387.017	12.24
387.383	12.31
387.748	12.09
388.114	12.09
388.479	12.41
388.845	12.54
389.21	12.57
389.575	12.16
389.94	12.59
390.306	12.42
390.671	12.55
391.036	12.79
391.401	13.05
391.766	12.68
392.131	12.77
392.496	12.95
392.861	12.92
393.226	12.88
393.591	12.93
393.956	12.88
394.32	13.02
394.685	12.88
395.05	13.01
395.414	13.03
395.779	12.75
396.143	13.06
396.508	12.93
396.872	13.12
397.236	13.21
397.601	13.12
397.965	13.22
398.329	12.97
398.694	13.39
399.058	13.4
399.422	13.49
399.786	13.22
400.15	13.41
400.514	13.44
400.878	13.5
401.242	13.55
401.605	13.47
401.969	13.51
402.333	13.57
402.697	13.6
403.06	13.59
403.424	13.61
403.787	13.66
404.151	13.65
404.514	13.69
404.878	13.76
405.241	13.74
405.604	13.79
405.968	13.79
406.331	13.71
406.694	13.74
407.057	13.65
407.42	14.16
407.783	13.79
408.146	13.87
408.509	13.9
408.872	14.34
409.235	14.08
409.598	14.14
409.961	14.16
410.323	14.03
410.686	14.03
411.049	14.4
411.411	14.29
411.774	14.37
412.136	14.29
412.499	14.47
412.861	14.48
413.223	14.69
413.586	14.36
413.948	14.49
414.31	14.64
414.672	14.62
415.035	14.76
415.397	14.66
415.759	14.73
416.121	14.74
416.483	14.85
416.845	14.66
417.206	14.95
417.568	14.91
417.93	14.88
418.292	14.43
418.653	14.86
419.015	14.78
419.377	14.53
419.738	14.62
420.1	14.72
420.461	14.69
420.822	14.73
421.184	14.79
421.545	14.81
421.906	14.83
422.267	14.9
422.629	14.83
422.99	14.79
423.351	14.82
423.712	14.89
424.073	14.87
424.434	14.98
424.795	15
425.155	15.09
425.516	15.04
425.877	15.08
426.238	15.04
426.598	14.99
426.959	14.99
427.32	15.2
427.68	15.18
428.041	15.29
428.401	15.39
428.761	15.68
429.122	15.59
429.482	15.71
429.842	15.67
430.202	15.68
430.563	15.75
430.923	15.96
431.283	15.75
431.643	16.04
432.003	15.98
432.363	15.96
432.722	16.15
433.082	15.9
433.442	15.91
433.802	16.14
434.161	15.95
434.521	16
434.881	16.09
435.24	15.96
435.6	15.9
435.959	15.94
436.319	16.11
436.678	16.3
437.037	16.16
437.396	16.42
437.756	16.51
438.115	16.35
438.474	16.51
438.833	16.34
439.192	16.22
439.551	16.3
439.91	16.66
440.269	16.7
440.628	16.49
440.987	16.49
441.345	16.34
441.704	16.53
442.063	16.54
442.421	16.52
442.78	16.45
443.138	16.68
443.497	16.68
443.855	16.72
444.214	16.69
444.572	16.83
444.93	17
445.288	17.03
445.647	17.16
446.005	16.97
446.363	16.84
446.721	16.81
447.079	17.01
447.437	16.89
447.795	16.95
448.153	16.82
448.51	16.89
448.868	16.93
449.226	16.74
449.584	16.97
449.941	17
450.299	17.2
450.656	17.26
451.014	17.27
451.371	17.34
451.729	17.47
452.086	17.55
452.443	17.48
452.801	17.6
453.158	17.62
453.515	17.63
453.872	17.75
454.229	17.85
454.586	17.81
454.943	17.74
455.3	17.64
455.657	17.84
456.014	17.71
456.371	17.82
456.727	17.99
457.084	18.03
457.441	17.78
457.797	17.99
458.154	17.93
458.51	18.05
458.867	18.18
459.223	18.28
459.58	18.11
459.936	18.08
460.292	18.09
460.648	18.13
461.005	18.05
461.361	18.08
461.717	17.94
462.073	17.98
462.429	18.08
462.785	18.12
463.141	18.3
463.496	18.27
463.852	18.52
464.208	18.73
464.564	18.59
464.919	18.66
465.275	18.75
465.631	18.53
465.986	18.99
466.342	18.83
466.697	18.84
467.052	18.69
467.408	18.74
467.763	18.99
468.118	19.02
468.473	19.03
468.829	18.93
469.184	18.82
469.539	19.12
469.894	18.98
470.249	18.98
470.603	19.05
470.958	19.16
471.313	19.28
471.668	19.24
472.023	19.26
472.377	19.29
472.732	19.35
473.086	19.5
473.441	19.49
473.795	19.44
474.15	19.28
474.504	19.57
474.859	19.52
475.213	19.63
475.567	19.68
475.921	19.69
476.275	19.78
476.63	19.72
476.984	19.84
477.338	19.9
477.692	19.88
478.045	19.76
478.399	19.7
478.753	19.77
479.107	19.99
479.461	20.03
479.814	19.95
480.168	19.9
480.521	20.03
480.875	20.07
481.228	20.09
481.582	20.06
481.935	20.08
482.289	20.26
482.642	20.15
482.995	20.06
483.348	20.13
483.701	20.07
484.055	20.07
484.408	19.95
484.761	19.86
485.114	19.73
485.466	19.53
485.819	19.37
486.172	19.37
486.525	19.36
486.878	19.5
487.23	19.55
487.583	19.77
487.936	19.84
488.288	20.01
488.641	20.04
488.993	19.83
489.345	19.9
489.698	19.8
490.05	19.8
490.402	19.85
490.754	19.91
491.107	20.1
491.459	20.2
491.811	20.44
492.163	20.48
492.515	20.63
492.866	20.58
493.218	20.5
493.57	20.21
493.922	20.22
494.274	20.28
494.625	20.4
494.977	20.51
495.328	20.77
495.68	20.97
496.031	20.98
496.383	21.24
496.734	21.26
497.086	21.37
497.437	21.36
497.788	21.39
498.139	21.58
498.49	21.55
498.842	21.3
499.193	21.32
499.544	21.34
499.894	21.39
500.245	21.4
500.596	21.51
500.947	21.6
501.298	21.74
501.648	21.77
501.999	21.78
502.35	22.03
502.7	22.15
503.051	21.96
503.401	22.04
503.752	22.32
504.102	22.24
504.452	22.17
504.803	22
505.153	22.21
505.503	22.28
505.853	22.27
506.203	22.09
506.553	22.11
506.903	22.24
507.253	22.36
507.603	22.28
507.953	22.56
508.303	22.35
508.652	22.47
509.002	22.34
509.352	22.53
509.701	22.57
510.051	22.64
510.4	22.52
510.75	22.5
511.099	22.56
511.449	22.41
511.798	22.63
512.147	22.52
512.496	22.61
512.846	22.65
513.195	22.77
513.544	22.86
513.893	22.64
514.242	22.8
514.591	22.63
514.939	22.8
515.288	22.84
515.637	22.95
515.986	22.91
516.334	23.14
516.683	23.23
517.032	23.21
517.38	23.14
517.729	23.32
518.077	23.35
518.426	23.31
518.774	23.29
519.122	23.38
519.47	23.47
519.819	23.27
520.167	23.12
520.515	23.18
520.863	23.07
521.211	23.11
521.559	23.27
521.907	23.3
522.255	23.39
522.602	23.47
522.95	23.57
523.298	23.68
523.645	23.73
523.993	23.85
524.341	24
524.688	23.92
525.036	24.12
525.383	23.76
525.73	24.22
526.078	24.08
526.425	24.08
526.772	24.01
527.119	23.91
527.466	23.78
527.814	23.77
528.161	23.73
528.508	23.93
528.854	23.83
529.201	23.74
529.548	23.9
529.895	23.8
530.242	23.5
530.588	23.36
530.935	23.49
531.282	23.59
531.628	23.61
531.975	23.71
532.321	23.83
532.667	23.98
533.014	24.26
533.36	24.19
533.706	24.45
534.052	24.34
534.399	24.35
534.745	24.32
535.091	24.29
535.437	24.16
535.783	24.16
536.129	24.33
536.474	24.49
536.82	24.64
537.166	24.75
537.512	24.81
537.857	24.89
538.203	24.91
538.549	24.87
538.894	24.88
539.239	24.87
539.585	24.83
539.93	25.16
540.276	25.1
540.621	25.33
540.966	25.48
541.311	25.51
541.656	25.54
542.001	25.52
542.346	25.53
542.691	25.31
543.036	25.07
543.381	24.87
543.726	24.83
544.071	24.92
544.415	25.03
544.76	25.14
545.105	25.26
545.449	25.48
545.794	25.58
546.138	25.52
546.483	25.68
546.827	25.7
547.171	25.92
547.516	25.9
547.86	26.01
548.204	25.87
548.548	26.01
548.892	25.88
549.236	26.04
549.58	26.01
549.924	26.1
550.268	26.24
550.612	26.46
550.956	26.55
551.3	26.68
551.643	26.65
551.987	26.74
552.33	26.86
552.674	26.87
553.017	26.84
553.361	26.8
553.704	26.95
554.048	26.98
554.391	27.02
554.734	26.93
555.077	26.82
555.42	27.07
555.764	27
556.107	26.88
556.45	27.09
556.793	27.1
557.135	27.32
557.478	27.4
557.821	27.34
558.164	27.73
558.507	27.7
558.849	27.53
559.192	27.69
559.534	27.64
559.877	27.46
560.219	27.8
560.562	27.86
560.904	27.75
561.246	27.84
561.589	27.74
561.931	27.99
562.273	27.9
562.615	27.96
562.957	27.89
563.299	27.94
563.641	28.12
563.983	27.96
564.325	28.06
564.667	28.36
565.008	28.11
565.35	28.17
565.692	28.21
566.033	28.15
566.375	28.35
566.716	28.32
567.058	28.26
567.399	28.3
567.741	28.16
568.082	28.38
568.423	28.24
568.764	28.08
569.105	28.55
569.447	28.21
569.788	28.59
570.129	28.63
570.47	28.55
570.811	28.6
571.151	28.53
571.492	28.99
571.833	29.04
572.174	29.07
572.514	28.76
572.855	28.73
573.195	28.85
573.536	28.9
573.876	29.06
574.217	28.76
574.557	28.77
574.898	28.76
575.238	28.95
575.578	29.2
575.918	29
576.258	29.05
576.598	29.14
576.938	29.33
577.278	29.16
577.618	29.11
577.958	29.35
578.298	29.46
578.638	29.35
578.977	29.43
579.317	29.39
579.657	29.45
579.996	29.87
580.336	29.83
580.675	29.67
581.014	29.71
581.354	30
581.693	29.97
582.032	29.91
582.372	30
582.711	30.18
583.05	30.62
583.389	30.17
583.728	29.98
584.067	30.29
584.406	30.34
584.745	30.03
585.083	30.54
585.422	30.43
585.761	30.55
586.1	30.4
586.438	30.2
586.777	30.6
587.115	30.74
587.454	31.04
587.792	30.36
588.13	30.64
588.469	30.78
588.807	30.58
589.145	30.99
589.483	30.82
589.821	30.74
590.159	30.72
590.497	31
590.835	31.02
591.173	30.72
591.511	30.97
591.849	30.77
592.187	31.26
592.524	30.93
592.862	30.97
593.2	31.02
593.537	30.92
593.875	31.17
594.212	31.37
594.55	31.25
594.887	31.28
595.224	31.17
595.561	31.19
595.899	31.49
596.236	31.45
596.573	31.54
596.91	31.74
597.247	31.72
597.584	31.35
597.921	31.77
598.258	31.69
598.594	31.48
598.931	31.54
599.268	31.44
599.604	31.47
599.941	31.54
600.277	31.7
600.614	31.9
600.95	31.49
601.287	31.84
601.623	31.64
601.959	32.01
602.296	32.02
602.632	32.23
602.968	31.79
603.304	32.11
603.64	32.17
603.976	32.05
604.312	32.26
604.648	32.15
604.984	31.99
605.319	32.46
605.655	32.23
605.991	32.05
606.326	32.3
606.662	31.96
606.998	31.98
607.333	32.09
607.668	32.13
608.004	32.23
608.339	32.27
608.674	32.35
609.01	32.4
609.345	32.93
609.68	32.96
610.015	32.79
610.35	33.09
610.685	32.82
611.02	32.61
611.355	32.63
611.689	32.54
612.024	32.75
612.359	33.08
612.694	32.78
613.028	33.06
613.363	33.13
613.697	33.1
614.032	33.24
614.366	33.35
614.7	33.4
615.035	33.39
615.369	33.47
615.703	33.26
616.037	33.35
616.371	33.12
616.705	33.15
617.039	33.73
617.373	33.51
617.707	33.53
618.041	33.41
618.375	33.64
618.709	33.7
619.042	33.67
619.376	33.77
619.71	34.12
620.043	34.12
620.377	33.59
620.71	34
621.043	34.01
621.377	33.92
621.71	34.11
622.043	33.82
622.376	34.1
622.709	33.92
623.043	34.26
623.376	33.85
623.709	33.73
624.041	34.15
624.374	34.3
624.707	34.43
625.04	34.18
625.373	34.4
625.705	33.99
626.038	34.48
626.37	34.25
626.703	34.7
627.035	34.2
627.368	34.53
627.7	34.66
628.032	34.39
628.365	34.44
628.697	34.63
629.029	34.74
629.361	34.54
629.693	34.42
630.025	34.72
630.357	34.89
630.689	34.57
631.021	34.95
631.353	35.16
631.684	34.93
632.016	35.4
632.348	34.62
632.679	34.99
633.011	34.96
633.342	34.88
633.674	34.84
634.005	34.99
634.336	34.91
634.668	34.94
634.999	35.44
635.33	34.77
635.661	35.34
635.992	35.66
636.323	35.61
636.654	35.66
636.985	35.53
637.316	35.54
637.647	34.93
637.977	35.12
638.308	35.31
638.639	35.28
638.969	35.87
639.3	35.19
639.63	35.64
639.961	35.62
640.291	35.85
640.622	35.48
640.952	35.51
641.282	35.68
641.612	36.12
641.943	35.85
642.273	35.54
642.603	36.31
642.933	35.66
643.263	36.42
643.592	35.77
643.922	35.78
644.252	36.1
644.582	35.64
644.911	36.14
645.241	36.36
645.571	36.91
645.9	36.22
646.23	36.47
646.559	36.28
646.888	35.95
647.218	36.27
647.547	36.31
647.876	36.02
648.205	36.58
648.534	36.72
648.863	36.8
649.192	36.79
649.521	36.91
649.85	36.68
650.179	36.8
650.508	36.37
650.837	36.64
651.165	36.49
651.494	36.26
651.822	37.06
652.151	36.98
652.479	37.01
652.808	37.19
653.136	36.86
653.465	36.89
653.793	37.29
654.121	36.92
654.449	37.06
654.777	37.43
655.105	37.11
655.433	37.46
655.761	37.22
656.089	37.07
656.417	37.26
656.745	37.24
657.073	36.88
657.4	38.01
657.728	37.64
658.056	37.17
658.383	37.2
658.711	37.23
659.038	37.72
659.365	37.03
659.693	36.75
660.02	37.96
660.347	37.31
660.674	36.89
661.001	37.24
661.329	37.27
661.656	37.68
661.982	37.56
662.309	37.95
662.636	37.46
662.963	37.27
663.29	37.74
663.616	37.64
663.943	37.31
664.27	37.64
664.596	37.69
664.923	37.6
665.249	37.58
665.576	37.35
665.902	37.77
666.228	37.55
666.554	37.63
666.881	37.96
667.207	37.71
667.533	37.68
667.859	37.91
668.185	38.3
668.511	38.5
668.837	38.03
669.162	38.17
669.488	38.51
669.814	37.92
670.139	38.28
670.465	38.31
670.791	38.68
671.116	38.24
671.442	38.19
671.767	38.46
672.092	38.27
672.418	38.45
672.743	38.52
673.068	38.9
673.393	38.47
673.718	38.37
674.043	38.32
674.368	38.15
674.693	39.23
675.018	39.35
675.343	38.89
675.667	38.98
675.992	39.18
676.317	38.98
676.641	39.41
676.966	39.64
677.29	38.66
677.615	39.23
677.939	39.13
678.264	38.75
678.588	38.36
678.912	39.42
679.236	39.54
679.56	38.92
679.885	40.13
680.209	39.11
680.532	38.62
680.856	38.89
681.18	39.38
681.504	39.46
681.828	38.89
682.152	39.09
682.475	39.24
682.799	39.68
683.122	39.42
683.446	38.79
683.769	39.49
684.093	39.88
684.416	40.28
684.739	39.32
685.062	39.6
685.386	39.37
685.709	39.73
686.032	39.61
686.355	40
686.678	40.13
687.001	40.01
687.324	39.59
687.646	40.08
687.969	40.28
688.292	39.41
688.614	40.7
688.937	39.74
689.26	39.88
689.582	39.97
689.904	40.04
690.227	39.7
690.549	40.13
690.871	40.46
691.194	40.15
691.516	39.89
691.838	40.57
692.16	39.96
692.482	40.97
692.804	40.25
693.126	40.26
693.448	40.97
693.769	40.48
694.091	40.52
694.413	39.97
694.735	39.7
695.056	40.33
695.378	40.38
695.699	40.84
696.021	40.33
696.342	40.39
696.663	40.04
696.984	40.09
697.306	40.84
697.627	40.21
697.948	40.6
698.269	40.13
698.59	40.6
698.911	40.75
699.232	40.85
699.553	41.39
699.873	40.95
700.194	40.84
700.515	40.36
700.835	41
701.156	40.7
701.477	40.6
701.797	40.83
702.117	40.45
702.438	41.09
702.758	40.96
703.078	40.5
703.398	41.27
703.719	41.39
704.039	41.18
704.359	40.91
704.679	41.29
704.999	40.46
705.319	40.76
705.638	40.3
705.958	41.41
706.278	40.34
706.597	42.02
706.917	40.99
707.237	41.72
707.556	40.94
707.876	40.65
708.195	40.89
708.514	41.63
708.834	41.94
709.153	41.03
709.472	42.26
709.791	42.03
710.11	41.85
710.429	41.45
710.748	42.12
711.067	41.7
711.386	41.95
711.705	42.05
712.023	42.37
712.342	41.74
712.661	41.64
712.979	41.67
713.298	40.88
713.616	41.46
713.935	42.25
714.253	41.23
714.572	41.26
714.89	40.83
715.208	42.29
715.526	41.95
715.844	41.51
716.162	42.33
716.48	42.17
716.798	41.7
717.116	41.69
717.434	42.41
717.752	40.94
718.069	42.56
718.387	41.29
718.705	41.51
719.022	42.07
719.34	43.81
719.657	42.67
719.975	42.75
720.292	42.33
720.609	42.09
720.927	41.62
721.244	41.7
721.561	42.83
721.878	42.92
722.195	42.93
722.512	42.49
722.829	42.57
723.146	42.63
723.463	43.1
723.779	42.66
724.096	42.13
724.413	42.5
724.729	41.77
725.046	43.59
725.362	43.11
725.679	41.15
725.995	44.37
726.311	42.69
726.628	44.18
726.944	42.58
727.26	42.48
727.576	42.55
727.892	41.4
728.208	43.57
728.524	41.12
728.84	43.84
729.156	43.08
729.472	42.18
729.787	42.64
730.103	42.12
730.419	43.1
730.734	42.67
731.05	43.08
731.365	42.68
731.681	43.28
731.996	43.86
732.311	43.67
732.626	42.14
732.942	42.65
733.257	43.11
733.572	43.98
733.887	42.57
734.202	43.1
734.517	42.91
734.832	44.75
735.146	44.2
735.461	41.99
735.776	43.92
736.091	44.01
736.405	43.35
736.72	43.52
737.034	43.5
737.349	43.32
737.663	43.54
737.977	44.71
738.292	43.78
738.606	43.95
738.92	43.57
739.234	42.87
739.548	42.77
739.862	43.22
740.176	42.71
740.49	42.76
740.804	43.92
741.117	43.75
741.431	42.88
741.745	43.01
742.058	43.31
742.372	44.67
742.685	42.03
742.999	43.99
743.312	43.85
743.626	44.25
743.939	44.7
744.252	44.1
744.565	43.78
744.878	41.61
745.191	45
745.505	45.52
745.817	44.54
746.13	43.36
746.443	44.9
746.756	46.02
747.069	45.42
747.381	45.26
747.694	44.09
748.007	44.37
748.319	43.87
748.632	41.97
748.944	44.65
749.256	44.81
749.569	45.75
749.881	46.86
750.193	44.35
750.505	43.66
750.817	44.48
751.129	43.25
751.441	42.39
751.753	42.85
752.065	46.92
752.377	45.37
752.689	45.5
753	43.86
753.312	44.27
753.624	41.82
753.935	44.79
754.247	43.56
754.558	44.47
754.869	45.91
755.181	43.88
755.492	44.69
755.803	43.98
756.114	44.33
756.425	47.45
756.736	44.85
757.047	43.44
757.358	47.29
757.669	43.14
757.98	43.44
758.291	44.89
758.601	44.9
758.912	45.43
759.223	44.98
759.533	46.54
759.844	45.47
760.154	45.13
760.464	44.03
760.775	43.64
761.085	44.24
761.395	44.6
761.705	45.3
762.016	45.88
762.326	46.57
762.636	44.67
762.945	44.52
763.255	46.93
763.565	46.27
763.875	47.62
764.185	45.71
764.494	46.56
764.804	46.11
765.113	44.83
765.423	44.2
765.732	45.03
766.042	46.11
766.351	46.47
766.66	45.03
766.97	44.94
767.279	45.67
767.588	45.12
767.897	47.33
768.206	43.87
768.515	44.77
768.824	44.39
769.133	44.64
769.441	45.68
769.75	45.75
770.059	46.06
770.367	46.5
770.676	48.2
770.984	44.47
771.293	43.65
771.601	44.95
771.91	45.03
772.218	44.37
772.526	46.45
772.834	46
773.142	45.67
773.45	43.96
773.758	44.83
774.066	47.61
774.374	45.43
774.682	42.99
774.99	45.37
775.298	43.93
775.605	49.4
775.913	49.19
776.22	44.14
776.528	45.26
776.835	43.35
777.143	42.74
777.45	45.66
777.757	48.76
778.065	48.95
778.372	47.3
778.679	47.58
778.986	45.64
779.293	43.71
779.6	47.19
779.907	45.86
780.214	45.49
780.52	44.88
780.827	46.53
781.134	44.08
781.44	46.04
781.747	47.23
782.053	47.73
782.36	47.46
782.666	41.69
782.973	48.5
783.279	44.82
783.585	45.59
783.891	44.63
784.197	44.97
784.503	46.99
784.809	40.07
785.115	42.79
785.421	45.29
785.727	47.64
786.033	46.03
786.339	49.14
786.644	46.66
786.95	47.84
787.255	51.22
787.561	43.79
787.866	47.22
788.172	46.11
788.477	50.11
788.782	45.95
789.088	42.68
789.393	42.48
789.698	41.65
790.003	46.87
790.308	48.17
790.613	45.89
790.918	48.46
791.223	48.38
791.527	42.35
791.832	50.02
792.137	45.7
792.441	42.79
792.746	49.83
793.05	47.01
793.355	47.75
793.659	47.94
793.963	53.29
794.268	46.28
794.572	45.87
794.876	41.85
795.18	45.11
795.484	45.8
795.788	48.28
796.092	45.35
796.396	42.34
796.7	47.75
797.004	45.65
797.307	46.01
797.611	50.91
797.915	44.62
798.218	44.14
798.522	43.32
798.825	52.28
799.128	48.02
799.432	47.52
799.735	48.81
800.038	46.81
800.341	43.3
800.644	48.35
800.947	48.21
801.25	46.76
801.553	53.21
801.856	50.49
802.159	44.92
802.462	44.4
802.764	46.84
803.067	49.05
803.37	46.08
803.672	49.03
803.975	48.69
804.277	42.32
804.579	42.99
804.882	50.7
805.184	44.12
805.486	45.05
805.788	48.43
806.09	45.79
806.392	42.27
806.694	45.76
806.996	46.17
807.298	46.2
807.6	44.31
807.902	40.3
808.203	43.95
808.505	44.59
808.807	44.28
809.108	51.39
809.409	44.51
809.711	43.18
810.012	49.42
810.313	44.86
810.615	49.17
810.916	50.63
811.217	46.52
811.518	38.87
811.819	49.02
812.12	49.69
812.421	41.62
812.722	43.72
813.023	45.51
813.323	46.24
813.624	50.16
813.925	46.28
814.225	46.89
814.526	45.22
814.826	49.57
815.126	48.13
815.427	45.37
815.727	52.92
816.027	48.88
816.327	45.29
816.627	50.62
816.927	45.34
817.227	49.53
817.527	51.88
817.827	43.65
818.127	47.25
818.427	45.77
818.727	49.5
819.026	43.44
819.326	48.62
819.625	57.41
819.925	50.13
820.224	51.05
820.524	54.22
820.823	45.08
821.122	43.68
821.421	44.69
821.72	53.45
822.019	47.98
822.318	47.36
822.617	45.47
822.916	49.63
823.215	50.04
823.514	48.01
823.813	51.5
824.111	50.38
824.41	47.2
824.709	47.02
825.007	47.01
825.306	49.3
825.604	47.85
825.902	48.15
826.201	48.87
826.499	48.98
826.797	48.47
827.095	47.62
827.393	47.69
827.691	47.58
827.989	47.42
828.287	50.12
828.585	47.75
828.882	48.07
829.18	47.77
829.478	50.92
829.775	48.89
830.073	47.31
830.37	47.79
830.668	50.02
830.965	48.34
831.263	45.58
831.56	47.64
831.857	48.38
832.154	48.64
832.451	50.74
832.748	45.37
833.045	46.72
833.342	50.52
833.639	49.59
833.936	50.39
834.232	48.98
834.529	51.4
834.826	47.94
835.122	49.74
835.419	54.6
835.715	45.75
836.012	51.23
836.308	52.03
836.604	49.71
836.901	46.55
837.197	49.78
837.493	50.67
837.789	47.03
838.085	49.37
838.381	48.43
838.677	50.62
838.972	45.17
839.268	53.82
839.564	51.42
839.86	44.48
840.155	52.62
840.451	49.32
840.746	47.62
841.042	43.89
841.337	46
841.632	56.3
841.928	45.67
842.223	58.66
842.518	49.3
842.813	51.12
843.108	49.29
843.403	46.08
843.698	52.74
843.993	57.21
844.287	52.48
844.582	46.72
844.877	51.81
845.171	46.83
845.466	48.44
845.761	45.56
846.055	40.79
846.349	54.62
846.644	56.47
846.938	46.79
847.232	48.34
847.526	54.12
847.82	29.82
848.114	54.62
848.408	51.19
848.702	45.8
848.996	63.79
849.29	35.27
849.584	50.64
849.877	52.78
850.171	61.98
850.465	27.81
850.758	37.16
851.052	43.92
851.345	62.76
851.638	49.72
851.932	51.81
852.225	55.6
852.518	66.09
852.811	59.48
853.104	58.08
853.397	56.31
853.69	43.43
853.983	51.78
854.276	37.73
854.569	55.54
854.861	45.35
855.154	51.63
855.447	55.25
855.739	49.13
856.032	65.21
856.324	54.75
856.616	40.15
856.909	54.34
857.201	52.62
857.493	39.38
857.785	62.07
858.077	71.94
858.369	56.19
858.661	79.03
858.953	47.74
859.245	51.1
859.537	41.48
859.829	53.54
860.12	54.52
860.412	46.27
860.703	37.83
860.995	58.88
861.286	58.84
861.578	51.04
861.869	46.95
862.16	50.46
862.452	23.99
862.743	50.45
863.034	58.75
863.325	43.83
863.616	93.41
863.907	55.45
864.198	45.25
864.488	53.04
864.779	39.81
865.07	44.17
865.36	55.38
865.651	42.62
865.941	58.33
866.232	63.48
866.522	12.7
866.813	29.22
867.103	19.11
867.393	61.9
867.683	56.66
867.973	63.98
868.263	52.38
868.553	40.95
868.843	20.75
869.133	33.55
869.423	41.94
869.713	47.72
870.002	43.92
870.292	66.18
870.582	51.31
870.871	59.16
871.161	46.31
871.45	55.97
871.739	68.28
872.029	39.35
872.318	63.02
872.607	72.13
872.896	41.94
873.185	63.13
873.474	50.24
873.763	61.6
874.052	68.92
874.341	81.81
874.63	29.62
874.918	43.17
875.207	78.94
875.496	47.78
875.784	50.98
876.073	28.31
876.361	43.63
876.649	46.3
876.938	35.97
877.226	51.99
877.514	56.42
877.802	68.33
878.09	41.28
878.378	50.76
878.666	44.51
878.954	43.85
879.242	98.36
879.53	55.66
879.817	54.63
880.105	57.98
880.392	42.59
880.68	52.86
880.967	55.37
881.255	47.88
881.542	35.28
881.83	32.53
882.117	57.24
882.404	71.93
882.691	94.06
882.978	64.74
883.265	46.22
883.552	46.15
883.839	44
884.126	49.73
884.413	25.13
884.699	45.46
884.986	50.74
885.273	43.16
885.559	43.16
885.846	43.16
