Data from 444_crown_Reflection__0__66.txt Node

Date: Tue Dec 12 18:46:09 CST 2023
User: ToomeyLab
Spectrometer: FLMS14357
Trigger mode: 0
Integration Time (sec): 1.000000E-2
Scans to average: 100
Electric dark correction enabled: true
Nonlinearity correction enabled: false
Boxcar width: 0
XAxis mode: Wavelengths
Number of Pixels in Spectrum: 2048
>>>>>Begin Spectral Data<<<<<
189.047	36.83
189.435	36.83
189.823	36.83
190.211	52.96
190.599	-167.23
190.987	101.51
191.375	-21.09
191.763	-5.72
192.151	19.08
192.538	27.93
192.926	27.39
193.314	108.74
193.702	34.66
194.089	85.07
194.477	190.64
194.864	349.31
195.252	-144.38
195.639	-102.01
196.027	9.83
196.414	91.71
196.801	67.72
197.189	841.52
197.576	-40.29
197.963	14.4
198.351	-1.71
198.738	39.46
199.125	8.81
199.512	-9.33
199.899	31.99
200.286	27.21
200.673	-31.36
201.06	8.41
201.447	-95.25
201.833	-20.71
202.22	-22.82
202.607	-190.82
202.994	7.16
203.38	16.33
203.767	-70.96
204.154	-0.2
204.54	39.33
204.927	15.47
205.313	11.16
205.699	10.93
206.086	-17.74
206.472	19.49
206.858	3.13
207.245	6.13
207.631	18.65
208.017	8.25
208.403	-39.48
208.789	18.17
209.175	-16.47
209.561	26.06
209.947	-5.46
210.333	20.56
210.719	0.89
211.105	4.58
211.491	29.76
211.876	-3.51
212.262	20.31
212.648	-26.67
213.034	-64.17
213.419	0
213.805	-17.24
214.19	16.04
214.576	6.89
214.961	1.87
215.346	8.24
215.732	30.84
216.117	12.5
216.502	-3.88
216.888	0.57
217.273	-34.3
217.658	-32.6
218.043	14.06
218.428	0.95
218.813	0.66
219.198	-44.49
219.583	-5.18
219.968	21.5
220.353	0.48
220.738	0.08
221.122	-4.22
221.507	-15.25
221.892	-10.58
222.276	-0.82
222.661	-6.74
223.046	-12.35
223.43	9.31
223.815	-9.24
224.199	2.18
224.583	5.83
224.968	-4.38
225.352	-13.46
225.736	6.4
226.121	0.22
226.505	0.83
226.889	-5.18
227.273	-1.29
227.657	4.6
228.041	0.29
228.425	1.36
228.809	1.25
229.193	-0.89
229.577	0.15
229.961	0.98
230.344	2.9
230.728	2.56
231.112	2.55
231.495	1.1
231.879	3.18
232.263	1.49
232.646	1.85
233.03	1.6
233.413	0.82
233.797	1.31
234.18	0.09
234.563	3.1
234.946	1.64
235.33	3.25
235.713	3.88
236.096	1.15
236.479	1.61
236.862	2.47
237.245	1.76
237.628	2.05
238.011	2.21
238.394	0.88
238.777	4.47
239.16	2.65
239.543	3.66
239.925	2.05
240.308	1.88
240.691	2.26
241.073	2.03
241.456	2.12
241.838	2.18
242.221	3.15
242.603	1.1
242.986	0.77
243.368	2.37
243.75	2.41
244.133	1.61
244.515	2.19
244.897	2.38
245.279	2.05
245.661	2.12
246.043	0.23
246.425	3.22
246.807	0.91
247.189	1.6
247.571	2.08
247.953	1.81
248.335	1.73
248.717	1.72
249.098	1.68
249.48	1.59
249.862	1.43
250.243	1.32
250.625	2.32
251.006	1.43
251.388	1.48
251.769	0.73
252.151	0.87
252.532	2.13
252.913	1.09
253.295	1.93
253.676	0.85
254.057	1.39
254.438	2.2
254.819	0.88
255.2	1.72
255.581	1.65
255.962	0.46
256.343	0.22
256.724	1.35
257.105	1.38
257.486	0.26
257.867	1.35
258.247	1.63
258.628	2.02
259.009	0.87
259.389	1.64
259.77	0.86
260.15	1.37
260.531	1.9
260.911	2.25
261.292	1.54
261.672	1.51
262.052	1.34
262.432	1.64
262.813	1.39
263.193	1.55
263.573	1.8
263.953	2.26
264.333	2.4
264.713	1.08
265.093	1.31
265.473	1.63
265.853	1.68
266.233	1.75
266.612	1.11
266.992	1.7
267.372	2.21
267.752	2.17
268.131	0.74
268.511	1.48
268.89	0.82
269.27	0.97
269.649	1.23
270.029	1.3
270.408	1.65
270.787	1.06
271.167	1.87
271.546	1.19
271.925	2.81
272.304	2.18
272.683	1.3
273.062	1.44
273.441	1.43
273.82	0.85
274.199	1.29
274.578	1.8
274.957	1.28
275.336	1.72
275.715	2.08
276.093	1.23
276.472	2.01
276.851	1.94
277.229	1.08
277.608	1.89
277.986	0.82
278.365	1.27
278.743	1.86
279.122	1.89
279.5	1.24
279.878	1.01
280.257	0.97
280.635	1.4
281.013	2.06
281.391	2.04
281.769	1.29
282.147	1.62
282.525	1.09
282.903	1.09
283.281	1.13
283.659	1.7
284.037	1.64
284.415	1.65
284.792	1.43
285.17	1
285.548	1.96
285.925	1.62
286.303	1.25
286.68	1.28
287.058	1.59
287.435	1.38
287.813	0.82
288.19	1.55
288.567	1.33
288.945	1.27
289.322	0.85
289.699	1.38
290.076	1.38
290.453	1.72
290.83	1.45
291.207	1.74
291.584	1.44
291.961	1.64
292.338	1.51
292.715	1.21
293.092	0.91
293.469	1.53
293.845	1.9
294.222	1.22
294.599	1.28
294.975	1.23
295.352	1.54
295.728	1.48
296.105	1.74
296.481	1.43
296.858	1.38
297.234	1.58
297.61	1.75
297.986	1.46
298.363	1.5
298.739	1.3
299.115	1.33
299.491	1.32
299.867	1.32
300.243	1.59
300.619	1.52
300.995	1.56
301.371	1.75
301.746	1.88
302.122	1.81
302.498	2.12
302.874	1.38
303.249	1.94
303.625	1.39
304	1.72
304.376	1.14
304.751	1.58
305.127	1.52
305.502	1.96
305.878	1.62
306.253	1.11
306.628	1.39
307.003	1.17
307.378	1.34
307.754	1.41
308.129	0.97
308.504	2.25
308.879	1.29
309.254	1.73
309.629	1.51
310.003	1.76
310.378	1.43
310.753	1.9
311.128	2.04
311.502	1.71
311.877	1.43
312.252	1.14
312.626	1.87
313.001	1.05
313.375	1.53
313.75	1.64
314.124	1.82
314.498	1.44
314.873	1.16
315.247	1.37
315.621	1.32
315.995	2.01
316.369	1.57
316.743	1.21
317.117	0.9
317.491	1.33
317.865	1.54
318.239	1.05
318.613	1.91
318.987	2.23
319.361	1.25
319.734	1.9
320.108	1.65
320.482	1.85
320.855	0.71
321.229	1.68
321.602	1.54
321.976	1.62
322.349	2.39
322.723	1.81
323.096	1.58
323.469	2
323.843	2.41
324.216	1.99
324.589	1.82
324.962	2.02
325.335	1.79
325.708	1.41
326.081	1.48
326.454	1.28
326.827	2.03
327.2	1.86
327.573	1.42
327.945	1.47
328.318	2.03
328.691	1.29
329.063	2.02
329.436	1.74
329.809	1.72
330.181	0.93
330.553	1.52
330.926	1.37
331.298	1.01
331.671	1.89
332.043	1.88
332.415	2.16
332.787	1.68
333.159	1.6
333.532	1.9
333.904	1.52
334.276	2.33
334.648	1.24
335.02	0.89
335.391	1.36
335.763	2.14
336.135	1.54
336.507	1.89
336.879	1.39
337.25	1.87
337.622	1.66
337.993	1.53
338.365	1.33
338.736	1.55
339.108	1.33
339.479	1.45
339.851	1.4
340.222	1.13
340.593	2.33
340.964	1.99
341.336	1.87
341.707	1.15
342.078	1.07
342.449	1.49
342.82	1.75
343.191	1.56
343.562	1.78
343.933	2.18
344.303	1.75
344.674	1.34
345.045	1.63
345.416	1.95
345.786	1.16
346.157	1.88
346.527	2.15
346.898	1.13
347.268	1.87
347.639	1.94
348.009	1.47
348.38	1.74
348.75	1.67
349.12	1.93
349.49	1.83
349.861	1.97
350.231	1.8
350.601	2.08
350.971	1.7
351.341	1.29
351.711	2.18
352.081	1.67
352.45	1.65
352.82	2.03
353.19	1.8
353.56	1.57
353.929	1.31
354.299	1.86
354.669	1.35
355.038	1.14
355.408	1.58
355.777	2.14
356.147	1.24
356.516	1.85
356.885	1.82
357.254	1.68
357.624	1.68
357.993	1.3
358.362	1.52
358.731	1.53
359.1	1.42
359.469	1.53
359.838	1.24
360.207	1.25
360.576	1.74
360.945	1.23
361.314	1.67
361.682	1.42
362.051	1.86
362.42	1.99
362.788	1.6
363.157	2.01
363.525	1.72
363.894	1.52
364.262	1.81
364.631	1.43
364.999	1.78
365.367	2.19
365.735	1.55
366.104	1.7
366.472	1.41
366.84	1.8
367.208	1.8
367.576	1.81
367.944	1.81
368.312	1.68
368.68	1.88
369.048	1.93
369.416	1.54
369.783	1.55
370.151	1.72
370.519	1.72
370.886	1.85
371.254	1.37
371.621	1.89
371.989	1.64
372.356	1.64
372.724	1.49
373.091	1.54
373.458	1.68
373.826	1.56
374.193	1.47
374.56	1.92
374.927	1.97
375.294	1.97
375.661	1.94
376.028	1.99
376.395	2.14
376.762	2.09
377.129	1.75
377.496	1.81
377.863	1.78
378.229	1.44
378.596	1.48
378.963	1.65
379.329	1.4
379.696	1.66
380.062	2.12
380.429	1.77
380.795	1.73
381.161	1.82
381.528	1.71
381.894	1.86
382.26	1.52
382.626	1.63
382.993	1.5
383.359	1.45
383.725	1.65
384.091	1.84
384.457	1.73
384.823	1.92
385.188	1.78
385.554	1.88
385.92	1.86
386.286	1.76
386.651	1.7
387.017	1.89
387.383	1.55
387.748	1.64
388.114	1.61
388.479	1.88
388.845	1.82
389.21	1.7
389.575	1.67
389.94	1.72
390.306	2
390.671	1.67
391.036	2.11
391.401	1.82
391.766	1.83
392.131	1.8
392.496	1.76
392.861	1.45
393.226	1.91
393.591	1.89
393.956	1.62
394.32	1.97
394.685	2.06
395.05	1.65
395.414	1.8
395.779	1.76
396.143	1.95
396.508	1.7
396.872	1.89
397.236	1.7
397.601	1.65
397.965	1.73
398.329	1.73
398.694	1.69
399.058	1.96
399.422	1.68
399.786	1.69
400.15	1.73
400.514	2.03
400.878	1.65
401.242	1.64
401.605	1.85
401.969	1.81
402.333	1.82
402.697	1.63
403.06	1.4
403.424	1.9
403.787	1.73
404.151	2.2
404.514	1.44
404.878	1.77
405.241	1.9
405.604	1.56
405.968	1.57
406.331	1.85
406.694	1.97
407.057	1.71
407.42	1.7
407.783	1.67
408.146	1.78
408.509	1.84
408.872	1.96
409.235	1.6
409.598	1.93
409.961	1.75
410.323	1.85
410.686	1.62
411.049	1.96
411.411	1.96
411.774	1.88
412.136	1.9
412.499	1.9
412.861	1.76
413.223	2.06
413.586	1.87
413.948	1.81
414.31	1.88
414.672	1.95
415.035	1.64
415.397	1.74
415.759	1.94
416.121	1.78
416.483	1.74
416.845	1.81
417.206	2
417.568	1.65
417.93	2.05
418.292	1.72
418.653	1.89
419.015	1.78
419.377	1.76
419.738	1.77
420.1	1.75
420.461	1.73
420.822	1.88
421.184	1.87
421.545	2.01
421.906	1.7
422.267	1.76
422.629	1.76
422.99	1.77
423.351	1.67
423.712	1.72
424.073	1.8
424.434	1.68
424.795	1.89
425.155	1.7
425.516	1.69
425.877	1.8
426.238	1.65
426.598	1.78
426.959	1.75
427.32	1.82
427.68	1.73
428.041	1.87
428.401	1.7
428.761	1.79
429.122	1.9
429.482	2.05
429.842	1.76
430.202	1.71
430.563	1.83
430.923	1.79
431.283	1.79
431.643	2
432.003	1.76
432.363	1.82
432.722	1.78
433.082	1.88
433.442	2
433.802	1.91
434.161	1.86
434.521	1.84
434.881	1.84
435.24	1.75
435.6	1.86
435.959	1.75
436.319	1.89
436.678	2.01
437.037	1.76
437.396	1.71
437.756	1.81
438.115	1.86
438.474	1.76
438.833	1.87
439.192	2.1
439.551	1.83
439.91	1.82
440.269	1.82
440.628	1.75
440.987	1.7
441.345	1.89
441.704	1.83
442.063	1.86
442.421	1.89
442.78	1.75
443.138	1.78
443.497	1.81
443.855	1.88
444.214	1.87
444.572	1.98
444.93	1.92
445.288	1.85
445.647	1.89
446.005	1.9
446.363	1.76
446.721	1.83
447.079	1.84
447.437	1.8
447.795	1.85
448.153	1.72
448.51	1.92
448.868	1.86
449.226	1.92
449.584	1.79
449.941	1.9
450.299	1.96
450.656	1.78
451.014	1.88
451.371	1.8
451.729	1.92
452.086	1.71
452.443	1.96
452.801	1.94
453.158	1.81
453.515	1.93
453.872	1.99
454.229	2.05
454.586	1.83
454.943	1.74
455.3	1.86
455.657	1.94
456.014	1.96
456.371	1.97
456.727	1.98
457.084	1.79
457.441	1.94
457.797	1.79
458.154	1.89
458.51	1.88
458.867	2.06
459.223	1.96
459.58	1.78
459.936	1.78
460.292	1.89
460.648	1.93
461.005	1.79
461.361	1.75
461.717	1.93
462.073	1.85
462.429	1.9
462.785	1.75
463.141	1.88
463.496	1.85
463.852	2.06
464.208	1.89
464.564	1.97
464.919	2.1
465.275	2.03
465.631	1.97
465.986	1.93
466.342	1.61
466.697	1.98
467.052	2.04
467.408	1.87
467.763	1.99
468.118	2.01
468.473	1.84
468.829	1.88
469.184	1.85
469.539	2.02
469.894	1.96
470.249	1.87
470.603	2.02
470.958	1.88
471.313	2.2
471.668	1.97
472.023	2.03
472.377	1.89
472.732	2
473.086	2
473.441	2.12
473.795	1.92
474.15	1.96
474.504	1.88
474.859	1.96
475.213	1.81
475.567	1.83
475.921	2.07
476.275	1.87
476.63	1.85
476.984	1.97
477.338	1.8
477.692	1.84
478.045	1.9
478.399	2
478.753	1.95
479.107	1.91
479.461	1.96
479.814	1.95
480.168	1.78
480.521	1.8
480.875	1.91
481.228	1.86
481.582	1.83
481.935	1.95
482.289	1.99
482.642	2.06
482.995	1.92
483.348	1.86
483.701	2.07
484.055	1.9
484.408	1.83
484.761	1.91
485.114	1.82
485.466	1.79
485.819	1.76
486.172	1.76
486.525	1.82
486.878	1.85
487.23	1.79
487.583	1.77
487.936	1.94
488.288	1.81
488.641	1.86
488.993	1.83
489.345	1.84
489.698	1.8
490.05	1.83
490.402	1.85
490.754	1.86
491.107	1.89
491.459	1.92
491.811	1.98
492.163	1.82
492.515	1.91
492.866	1.88
493.218	1.8
493.57	1.8
493.922	1.81
494.274	1.87
494.625	1.96
494.977	2.02
495.328	1.99
495.68	1.86
496.031	2.07
496.383	1.9
496.734	2
497.086	1.86
497.437	1.95
497.788	1.95
498.139	1.95
498.49	1.97
498.842	1.94
499.193	1.97
499.544	1.95
499.894	1.85
500.245	2.03
500.596	1.98
500.947	1.91
501.298	2.08
501.648	2.03
501.999	1.95
502.35	1.91
502.7	1.91
503.051	1.95
503.401	1.86
503.752	2.17
504.102	1.99
504.452	1.99
504.803	2.02
505.153	2.02
505.503	2.07
505.853	2.1
506.203	2.03
506.553	1.88
506.903	2.21
507.253	2.01
507.603	1.99
507.953	2
508.303	1.99
508.652	1.88
509.002	1.97
509.352	1.95
509.701	2
510.051	1.95
510.4	1.99
510.75	1.91
511.099	1.87
511.449	1.99
511.798	1.88
512.147	2
512.496	2.03
512.846	2.07
513.195	1.96
513.544	2.05
513.893	1.97
514.242	1.97
514.591	1.9
514.939	1.99
515.288	2.04
515.637	1.8
515.986	2.02
516.334	2.11
516.683	1.91
517.032	2.02
517.38	1.93
517.729	2.05
518.077	1.97
518.426	2.1
518.774	1.99
519.122	1.98
519.47	1.96
519.819	1.88
520.167	1.91
520.515	1.98
520.863	2
521.211	1.86
521.559	1.94
521.907	1.96
522.255	2.07
522.602	1.91
522.95	2
523.298	2.05
523.645	2.1
523.993	2.09
524.341	2.08
524.688	2.01
525.036	2.14
525.383	1.95
525.73	1.94
526.078	1.95
526.425	2.05
526.772	1.9
527.119	2.07
527.466	1.98
527.814	1.85
528.161	1.95
528.508	2.01
528.854	1.9
529.201	1.97
529.548	1.92
529.895	1.88
530.242	1.85
530.588	1.82
530.935	1.9
531.282	1.93
531.628	1.96
531.975	1.91
532.321	1.95
532.667	1.86
533.014	1.96
533.36	1.95
533.706	1.87
534.052	1.86
534.399	1.95
534.745	1.94
535.091	1.92
535.437	1.89
535.783	1.89
536.129	2.02
536.474	1.97
536.82	2.02
537.166	2.02
537.512	1.92
537.857	2.01
538.203	2.05
538.549	1.93
538.894	2.02
539.239	2.02
539.585	1.95
539.93	2.07
540.276	1.94
540.621	1.96
540.966	2.09
541.311	2
541.656	2.11
542.001	1.97
542.346	1.87
542.691	1.93
543.036	1.83
543.381	1.92
543.726	1.95
544.071	1.93
544.415	1.98
544.76	1.99
545.105	1.97
545.449	1.97
545.794	2.01
546.138	1.89
546.483	1.99
546.827	2.11
547.171	1.99
547.516	1.99
547.86	2.12
548.204	2.04
548.548	2
548.892	2.03
549.236	1.97
549.58	2.09
549.924	2.1
550.268	2.06
550.612	2.04
550.956	1.97
551.3	2.21
551.643	2.12
551.987	2.2
552.33	2.09
552.674	2.14
553.017	2.16
553.361	2.36
553.704	2.07
554.048	2.02
554.391	2.12
554.734	2.02
555.077	2.22
555.42	2.01
555.764	2.2
556.107	2.19
556.45	1.95
556.793	1.97
557.135	2.09
557.478	2.06
557.821	1.93
558.164	1.99
558.507	2.29
558.849	1.95
559.192	2.04
559.534	1.97
559.877	2.22
560.219	2.24
560.562	1.97
560.904	2.17
561.246	2.14
561.589	2.01
561.931	2.06
562.273	1.85
562.615	1.99
562.957	2.18
563.299	2.23
563.641	2.14
563.983	2.17
564.325	2.14
564.667	2.21
565.008	1.96
565.35	2.01
565.692	2
566.033	2.21
566.375	1.97
566.716	2.04
567.058	2.13
567.399	2.32
567.741	2.1
568.082	1.97
568.423	2.16
568.764	2.27
569.105	2.1
569.447	2.17
569.788	2.05
570.129	2.04
570.47	2.17
570.811	2.24
571.151	2.28
571.492	2.2
571.833	2.21
572.174	2.04
572.514	2.08
572.855	2.15
573.195	2.12
573.536	2.08
573.876	2.15
574.217	1.97
574.557	2.06
574.898	2.11
575.238	2.32
575.578	2.04
575.918	2.08
576.258	2.15
576.598	2.03
576.938	2.09
577.278	2.28
577.618	2.23
577.958	2.05
578.298	2.3
578.638	2.02
578.977	2.08
579.317	2.09
579.657	2.3
579.996	2.27
580.336	2.07
580.675	2.04
581.014	2.22
581.354	2.12
581.693	2.18
582.032	2.11
582.372	2.23
582.711	2.22
583.05	2.3
583.389	2.07
583.728	2.12
584.067	2.39
584.406	2.38
584.745	2.37
585.083	1.97
585.422	2.17
585.761	2.44
586.1	2.09
586.438	2.46
586.777	2.21
587.115	1.97
587.454	2.23
587.792	1.89
588.13	2.27
588.469	2.27
588.807	2.06
589.145	2.18
589.483	2.12
589.821	2.22
590.159	2.2
590.497	2.36
590.835	2.12
591.173	2.24
591.511	2.19
591.849	2.08
592.187	2.31
592.524	1.9
592.862	2.16
593.2	2.04
593.537	2.11
593.875	2.27
594.212	2.07
594.55	2.45
594.887	2.7
595.224	2.14
595.561	2.48
595.899	2.2
596.236	2.41
596.573	2.25
596.91	2.24
597.247	2.11
597.584	2.26
597.921	2.27
598.258	2.29
598.594	2.32
598.931	2.21
599.268	2.13
599.604	2
599.941	2.29
600.277	2.24
600.614	2.39
600.95	2.26
601.287	2.15
601.623	2.38
601.959	2
602.296	2.49
602.632	2
602.968	2.16
603.304	1.92
603.64	2.39
603.976	2.11
604.312	2.35
604.648	2.42
604.984	2.3
605.319	2.17
605.655	2.26
605.991	2.26
606.326	2.2
606.662	2.28
606.998	2.11
607.333	2.36
607.668	2.34
608.004	2.25
608.339	2.39
608.674	2.24
609.01	2.31
609.345	2.35
609.68	2.22
610.015	2.17
610.35	2.33
610.685	2.39
611.02	2.31
611.355	2.18
611.689	2.12
612.024	2.27
612.359	2.36
612.694	2.17
613.028	2.39
613.363	2.48
613.697	2.47
614.032	2.41
614.366	2.49
614.7	2.23
615.035	2.28
615.369	2.21
615.703	2.25
616.037	2.1
616.371	2.02
616.705	2.25
617.039	2.24
617.373	2.46
617.707	2.05
618.041	2.36
618.375	2.02
618.709	2.24
619.042	2.32
619.376	2.14
619.71	2.15
620.043	2.28
620.377	2.45
620.71	2.24
621.043	2.33
621.377	1.89
621.71	2.79
622.043	2.49
622.376	2.53
622.709	2.33
623.043	2.27
623.376	2.87
623.709	2.47
624.041	2.43
624.374	2.73
624.707	2.29
625.04	2.11
625.373	2.58
625.705	2.6
626.038	2.49
626.37	2.15
626.703	2.71
627.035	2.31
627.368	2.21
627.7	2.19
628.032	2.2
628.365	2.37
628.697	2.33
629.029	2.23
629.361	2.06
629.693	2.35
630.025	2.36
630.357	2.18
630.689	2.24
631.021	2.36
631.353	2.75
631.684	2.25
632.016	2.34
632.348	2.3
632.679	1.99
633.011	2.64
633.342	2.62
633.674	2.18
634.005	2.36
634.336	2.43
634.668	2.39
634.999	2.23
635.33	2.21
635.661	2.47
635.992	2.38
636.323	2.27
636.654	2.73
636.985	2.19
637.316	2.39
637.647	2.53
637.977	2.59
638.308	2.64
638.639	2.64
638.969	2.43
639.3	2.21
639.63	2.6
639.961	2.47
640.291	2.2
640.622	2.48
640.952	2.91
641.282	2.41
641.612	2.09
641.943	2.55
642.273	2.37
642.603	2.95
642.933	2.17
643.263	1.73
643.592	2.38
643.922	2.85
644.252	2.74
644.582	2.16
644.911	2.69
645.241	2.26
645.571	2.65
645.9	2.4
646.23	2.14
646.559	2.33
646.888	1.97
647.218	2.52
647.547	2.25
647.876	2.56
648.205	2.46
648.534	2.75
648.863	2.28
649.192	3.1
649.521	2.52
649.85	2.02
650.179	2.5
650.508	2.67
650.837	2.18
651.165	2.19
651.494	2.07
651.822	2.14
652.151	2.52
652.479	2.48
652.808	2.67
653.136	2.69
653.465	2.91
653.793	2.65
654.121	2.9
654.449	2.78
654.777	3.06
655.105	2.8
655.433	2.7
655.761	2.66
656.089	2.27
656.417	2.77
656.745	2.7
657.073	2.43
657.4	2.62
657.728	2.09
658.056	2.53
658.383	2.02
658.711	2.02
659.038	2.33
659.365	2.75
659.693	2.4
660.02	2.1
660.347	2.89
660.674	2.72
661.001	2.56
661.329	2.67
661.656	2.51
661.982	2.23
662.309	3.01
662.636	2.75
662.963	2.81
663.29	2.73
663.616	2.56
663.943	2.56
664.27	2.56
664.596	2.63
664.923	2.8
665.249	2.27
665.576	2.41
665.902	2.62
666.228	2.51
666.554	2.16
666.881	1.81
667.207	2.85
667.533	2.81
667.859	2.65
668.185	2.97
668.511	2.28
668.837	2.3
669.162	3.46
669.488	2.74
669.814	2.82
670.139	2.72
670.465	1.79
670.791	2.23
671.116	2.54
671.442	2.42
671.767	3.04
672.092	3.04
672.418	2.38
672.743	2.34
673.068	1.73
673.393	2.34
673.718	2.89
674.043	2.83
674.368	2.14
674.693	2.38
675.018	1.83
675.343	2.29
675.667	3.19
675.992	2.13
676.317	2.17
676.641	2.26
676.966	2.61
677.29	2.37
677.615	2.72
677.939	2.28
678.264	3.17
678.588	2.29
678.912	2.97
679.236	2.57
679.56	2.59
679.885	2.51
680.209	2.72
680.532	2.67
680.856	2.61
681.18	2.39
681.504	2.34
681.828	2.26
682.152	2.46
682.475	2.79
682.799	2.42
683.122	2.65
683.446	2.78
683.769	3.75
684.093	2.71
684.416	2.91
684.739	2.44
685.062	3.31
685.386	2.6
685.709	2.84
686.032	2.74
686.355	2.63
686.678	3.09
687.001	2.7
687.324	2.32
687.646	3.08
687.969	2.27
688.292	2.95
688.614	2.8
688.937	2.63
689.26	2.85
689.582	2.31
689.904	2.32
690.227	2.92
690.549	3.11
690.871	2.24
691.194	2.97
691.516	3.11
691.838	2.57
692.16	3.28
692.482	3.04
692.804	2.52
693.126	3.26
693.448	2.32
693.769	2.81
694.091	3.42
694.413	3.13
694.735	3.02
695.056	2.76
695.378	2.92
695.699	3.29
696.021	2.28
696.342	2.73
696.663	2.57
696.984	1.85
697.306	2.62
697.627	2.21
697.948	3.17
698.269	3.14
698.59	3.53
698.911	2.71
699.232	1.92
699.553	2.53
699.873	3.48
700.194	2.64
700.515	2.82
700.835	2.15
701.156	2.52
701.477	2.9
701.797	2.98
702.117	2.5
702.438	2.87
702.758	1.88
703.078	3.16
703.398	2.53
703.719	2.95
704.039	3.28
704.359	2.57
704.679	3.78
704.999	3.46
705.319	2.32
705.638	2.56
705.958	2.81
706.278	4.88
706.597	4.04
706.917	2.69
707.237	2.74
707.556	3.9
707.876	2.43
708.195	3.2
708.514	3
708.834	2.75
709.153	2.97
709.472	3.22
709.791	3.69
710.11	3.36
710.429	2.82
710.748	2.33
711.067	3.16
711.386	2.67
711.705	3.89
712.023	3.44
712.342	3.9
712.661	2.74
712.979	3.73
713.298	3.75
713.616	2.95
713.935	2.72
714.253	2.6
714.572	2.38
714.89	3
715.208	2.93
715.526	2.29
715.844	2.89
716.162	3.11
716.48	2.39
716.798	3.59
717.116	3.32
717.434	2.93
717.752	2.59
718.069	3.02
718.387	3.3
718.705	3.38
719.022	3.49
719.34	2.67
719.657	4.36
719.975	3.91
720.292	3.79
720.609	3.03
720.927	2.83
721.244	2.73
721.561	4.32
721.878	2.54
722.195	3.43
722.512	4.17
722.829	3.84
723.146	2.67
723.463	3.15
723.779	3.16
724.096	2.38
724.413	3.36
724.729	1.63
725.046	2.69
725.362	3.33
725.679	3.28
725.995	2.4
726.311	3.78
726.628	3.08
726.944	3.8
727.26	2.08
727.576	1.77
727.892	2.72
728.208	2.39
728.524	3.04
728.84	3.46
729.156	3.36
729.472	3.89
729.787	2.54
730.103	4.47
730.419	1.7
730.734	2.44
731.05	4.01
731.365	3.39
731.681	3.71
731.996	2.32
732.311	3.67
732.626	3.38
732.942	1.93
733.257	3.11
733.572	4.11
733.887	3.91
734.202	5.3
734.517	1.37
734.832	4.5
735.146	3.36
735.461	4.88
735.776	2.23
736.091	2.72
736.405	3.34
736.72	2.47
737.034	4.38
737.349	2.26
737.663	4.76
737.977	3.07
738.292	2.03
738.606	1.76
738.92	1.76
739.234	2.56
739.548	6.31
739.862	4.01
740.176	3.21
740.49	2.97
740.804	3.61
741.117	3.07
741.431	3.79
741.745	3.96
742.058	3.61
742.372	2.76
742.685	4.22
742.999	2.8
743.312	3.04
743.626	3.31
743.939	5.55
744.252	3.6
744.565	2.77
744.878	3.75
745.191	3.25
745.505	3.36
745.817	5.24
746.13	3.59
746.443	3.11
746.756	2.69
747.069	5.33
747.381	1.6
747.694	2.6
748.007	1.48
748.319	2.6
748.632	5.44
748.944	2.62
749.256	3.55
749.569	2.71
749.881	2.66
750.193	2.84
750.505	2.24
750.817	2.7
751.129	3.24
751.441	3.35
751.753	5.7
752.065	1.96
752.377	2.8
752.689	3.32
753	4
753.312	5.26
753.624	4.79
753.935	3.52
754.247	4.74
754.558	4.24
754.869	3.32
755.181	4.25
755.492	4.21
755.803	3.53
756.114	3.11
756.425	4.11
756.736	3.62
757.047	3.47
757.358	3.56
757.669	3.64
757.98	3.86
758.291	2.62
758.601	4.35
758.912	2.54
759.223	2.98
759.533	1.85
759.844	3.53
760.154	5.82
760.464	1.8
760.775	3.75
761.085	2.54
761.395	3.01
761.705	4.66
762.016	4.94
762.326	4.58
762.636	3.93
762.945	3.54
763.255	5.78
763.565	3.51
763.875	4.52
764.185	2.99
764.494	2.44
764.804	3
765.113	4.88
765.423	4.96
765.732	3.81
766.042	3.91
766.351	4.18
766.66	2.23
766.97	3.82
767.279	3.73
767.588	3.63
767.897	5.74
768.206	3.52
768.515	5.7
768.824	4.3
769.133	3.49
769.441	5.04
769.75	0.01
770.059	1.94
770.367	1.73
770.676	4.8
770.984	5.16
771.293	4.15
771.601	0.98
771.91	5.07
772.218	3.38
772.526	1.26
772.834	2.03
773.142	3.21
773.45	3.74
773.758	1.99
774.066	4.88
774.374	1.08
774.682	2.4
774.99	-1.52
775.298	3.62
775.605	2.44
775.913	4.41
776.22	2.82
776.528	2.05
776.835	1.44
777.143	5.25
777.45	0.9
777.757	2.04
778.065	2.17
778.372	7.21
778.679	-0.47
778.986	4.14
779.293	5.35
779.6	6.01
779.907	3.46
780.214	4.97
780.52	1.83
780.827	1.78
781.134	2.09
781.44	5.84
781.747	1.41
782.053	6.49
782.36	6.43
782.666	-0.03
782.973	3.56
783.279	3.72
783.585	0.38
783.891	8.06
784.197	5.55
784.503	4.08
784.809	6.38
785.115	6.24
785.421	2.89
785.727	6.82
786.033	4.01
786.339	2.63
786.644	1.31
786.95	7.24
787.255	10.6
787.561	1.51
787.866	6.27
788.172	3.37
788.477	2.11
788.782	4.22
789.088	8.14
789.393	3.39
789.698	1.5
790.003	4.5
790.308	3.8
790.613	2.26
790.918	3.45
791.223	8.17
791.527	6.07
791.832	5.21
792.137	-0.62
792.441	6.89
792.746	4.7
793.05	9.23
793.355	5.39
793.659	8.69
793.963	4.69
794.268	2.65
794.572	2.23
794.876	4.12
795.18	4.46
795.484	0.42
795.788	8.72
796.092	0.95
796.396	3.13
796.7	-2.28
797.004	4.35
797.307	0.98
797.611	0.43
797.915	2.51
798.218	2.7
798.522	1.84
798.825	6.2
799.128	7.48
799.432	7.97
799.735	5.51
800.038	6.48
800.341	9.34
800.644	0.47
800.947	7.73
801.25	5.57
801.553	5.18
801.856	0.86
802.159	5.77
802.462	8.54
802.764	1.67
803.067	2.26
803.37	-0.7
803.672	3.34
803.975	1.26
804.277	9.45
804.579	-0.73
804.882	4.4
805.184	6.78
805.486	3.73
805.788	4.68
806.09	3.06
806.392	2.63
806.694	10.81
806.996	-0.56
807.298	6.47
807.6	6.07
807.902	-1.26
808.203	5.36
808.505	2.05
808.807	5.35
809.108	-1.62
809.409	3.63
809.711	4.53
810.012	4.5
810.313	-0.62
810.615	5.63
810.916	5.97
811.217	0.36
811.518	2.33
811.819	2.44
812.12	5.43
812.421	1.84
812.722	5.3
813.023	0.7
813.323	1.97
813.624	2.39
813.925	11.05
814.225	2.92
814.526	6.1
814.826	9.26
815.126	6.29
815.427	2.23
815.727	-4.58
816.027	4.87
816.327	5.03
816.627	5.97
816.927	12.42
817.227	5.2
817.527	11.28
817.827	4.3
818.127	7.59
818.427	3.3
818.727	-1.49
819.026	0.63
819.326	3.68
819.625	0.39
819.925	4.45
820.224	-7.42
820.524	2.82
820.823	13.35
821.122	1.91
821.421	4.94
821.72	2.26
822.019	-4.12
822.318	4.4
822.617	6.87
822.916	0.28
823.215	7.57
823.514	4.11
823.813	5.81
824.111	5.85
824.41	4.77
824.709	5.23
825.007	5.69
825.306	5.79
825.604	4.52
825.902	6.11
826.201	4.46
826.499	4.99
826.797	6.06
827.095	5.82
827.393	5.66
827.691	5.78
827.989	3.58
828.287	5.53
828.585	6.88
828.882	5.05
829.18	7.67
829.478	3.39
829.775	6.4
830.073	5.94
830.37	7.11
830.668	7.34
830.965	8.2
831.263	5.07
831.56	8.49
831.857	0.79
832.154	7.26
832.451	0.52
832.748	2.31
833.045	6.12
833.342	6.32
833.639	7.32
833.936	4.4
834.232	6.91
834.529	0.68
834.826	8.66
835.122	7.99
835.419	3.17
835.715	2.1
836.012	2.87
836.308	3.72
836.604	7.47
836.901	1.61
837.197	5.66
837.493	5.73
837.789	3.77
838.085	11.41
838.381	3.77
838.677	7.72
838.972	2.55
839.268	-3.9
839.564	5.31
839.86	6.04
840.155	2.05
840.451	-1.24
840.746	9.71
841.042	-7.26
841.337	14.57
841.632	-4.39
841.928	5.1
842.223	17.14
842.518	-1.81
842.813	5.99
843.108	2.1
843.403	0.46
843.698	9.92
843.993	-2.98
844.287	1.97
844.582	9.37
844.877	5.76
845.171	-0.03
845.466	16.29
845.761	13.11
846.055	13.63
846.349	19.73
846.644	0.8
846.938	-3.35
847.232	5.59
847.526	-0.26
847.82	7.22
848.114	30
848.408	-13.68
848.702	2.46
848.996	16.32
849.29	4.21
849.584	9.36
849.877	3.94
850.171	-9.36
850.465	3.72
850.758	-5.19
851.052	-0.33
851.345	2.31
851.638	8.73
851.932	-4
852.225	-21.99
852.518	0.88
852.811	19.3
853.104	-10.89
853.397	20.4
853.69	-5.99
853.983	35.44
854.276	6.11
854.569	17.29
854.861	-1.32
855.154	11.03
855.447	-3.6
855.739	15.65
856.032	0.71
856.324	0.97
856.616	7.72
856.909	-8.48
857.201	-3.11
857.493	-45.22
857.785	19.23
858.077	-2.54
858.369	-2.68
858.661	22.14
858.953	14.59
859.245	-17.45
859.537	0.31
859.829	2.1
860.12	-16.12
860.412	-16.53
860.703	35.9
860.995	33.14
861.286	32.82
861.578	0.44
861.869	5.03
862.16	-9.64
862.452	-5.88
862.743	-18.06
863.034	36.19
863.325	-8.14
863.616	4.6
863.907	-1.11
864.198	0.09
864.488	14.7
864.779	19.37
865.07	11.18
865.36	25.04
865.651	3.21
865.941	-37.14
866.232	-7.64
866.522	9.28
866.813	-1.12
867.103	-7.51
867.393	-1.19
867.683	21.29
867.973	28.99
868.263	9.89
868.553	44.89
868.843	-26.4
869.133	12.83
869.423	28.15
869.713	1.53
870.002	-55.75
870.292	7.04
870.582	4.21
870.871	8.39
871.161	10.46
871.45	20.83
871.739	16.76
872.029	-46.95
872.318	1.69
872.607	-14.82
872.896	16.12
873.185	-15.72
873.474	22.28
873.763	4.44
874.052	14.16
874.341	21.41
874.63	11.59
874.918	13.35
875.207	39.84
875.496	15.02
875.784	28.11
876.073	32.28
876.361	7.58
876.649	7.26
876.938	23.56
877.226	-4.49
877.514	-55.56
877.802	7.32
878.09	53.19
878.378	5.49
878.666	-1.35
878.954	21.42
879.242	-10.83
879.53	7.09
879.817	42
880.105	23.77
880.392	27.09
880.68	2.78
880.967	37.82
881.255	5.64
881.542	-9.03
881.83	27.88
882.117	1.01
882.404	6.86
882.691	-55.52
882.978	-34.24
883.265	-19.93
883.552	28.72
883.839	18.13
884.126	5.54
884.413	1.38
884.699	9.05
884.986	6.7
885.273	6.67
885.559	6.67
885.846	6.67
