Data from 0363_chest_Reflection__1__425.txt Node

Date: Fri Dec 15 20:30:26 CST 2023
User: ToomeyLab
Spectrometer: FLMS14357
Trigger mode: 0
Integration Time (sec): 1.000000E-2
Scans to average: 100
Electric dark correction enabled: true
Nonlinearity correction enabled: false
Boxcar width: 0
XAxis mode: Wavelengths
Number of Pixels in Spectrum: 2048
>>>>>Begin Spectral Data<<<<<
189.047	-26.9
189.435	-26.9
189.823	-26.9
190.211	110.02
190.599	-69.38
190.987	343.01
191.375	-129.61
191.763	-154.7
192.151	567.62
192.538	24.68
192.926	-60.11
193.314	243.57
193.702	102.95
194.089	-319.31
194.477	-16.01
194.864	-22.67
195.252	228.6
195.639	74.13
196.027	-259.01
196.414	67.52
196.801	228.52
197.189	136.42
197.576	93.2
197.963	-100.34
198.351	7.89
198.738	7.58
199.125	48.13
199.512	-1.06
199.899	20.89
200.286	-8.44
200.673	-70.35
201.06	-5.84
201.447	72.58
201.833	-56.86
202.22	11.18
202.607	-30.96
202.994	-21.17
203.38	-7.9
203.767	25.52
204.154	15.75
204.54	32.37
204.927	-68.42
205.313	-37.45
205.699	2.99
206.086	7.18
206.472	39.22
206.858	29.4
207.245	-15.54
207.631	2.14
208.017	41.78
208.403	-18.71
208.789	48.71
209.175	-13.76
209.561	34.34
209.947	4.12
210.333	-27.57
210.719	16.86
211.105	17.43
211.491	-62.58
211.876	17.22
212.262	0.51
212.648	-9.44
213.034	-6.91
213.419	-62.14
213.805	-35.2
214.19	-32.8
214.576	49.08
214.961	-23.63
215.346	-135.36
215.732	-22.89
216.117	4.55
216.502	6.99
216.888	10.69
217.273	14.64
217.658	-12.84
218.043	-4.54
218.428	-24.71
218.813	-27.47
219.198	-40.52
219.583	-13.44
219.968	0.45
220.353	-25.04
220.738	-9.8
221.122	-9.91
221.507	-22.87
221.892	-73.51
222.276	-31.04
222.661	1.69
223.046	8.45
223.43	4.64
223.815	6.7
224.199	-19.08
224.583	2.34
224.968	1.26
225.352	6.99
225.736	-11.19
226.121	-7.53
226.505	-4.01
226.889	7.43
227.273	-1.36
227.657	5.07
228.041	2.03
228.425	-0.37
228.809	8.76
229.193	2.16
229.577	3.67
229.961	3.64
230.344	4.03
230.728	4.46
231.112	4.68
231.495	4.81
231.879	4.27
232.263	4.92
232.646	4.37
233.03	5.1
233.413	2.91
233.797	3.25
234.18	3.47
234.563	4.3
234.946	2.33
235.33	5.91
235.713	6.17
236.096	4.45
236.479	5.28
236.862	3.14
237.245	4.87
237.628	3.84
238.011	5.32
238.394	6.41
238.777	4.12
239.16	0.93
239.543	4.28
239.925	4.07
240.308	1.76
240.691	5.88
241.073	4.94
241.456	3.72
241.838	3.02
242.221	3.47
242.603	4.44
242.986	4.02
243.368	4.79
243.75	4.71
244.133	4.52
244.515	4.63
244.897	4.56
245.279	4.68
245.661	4.44
246.043	4.31
246.425	3.13
246.807	4.95
247.189	4.79
247.571	4.71
247.953	4.77
248.335	4.41
248.717	4.75
249.098	4.49
249.48	4.64
249.862	4.46
250.243	4.62
250.625	4.95
251.006	4.31
251.388	3.21
251.769	3.69
252.151	4.91
252.532	4.28
252.913	4.01
253.295	3.8
253.676	4.78
254.057	4.7
254.438	4.41
254.819	3.48
255.2	3.99
255.581	4.07
255.962	4.23
256.343	3.89
256.724	2.63
257.105	3.54
257.486	3.57
257.867	4.64
258.247	4.03
258.628	3.65
259.009	4.13
259.389	4.41
259.77	3.41
260.15	3.39
260.531	3.67
260.911	4.18
261.292	4.2
261.672	4.72
262.052	4.27
262.432	4.61
262.813	3.9
263.193	3.67
263.573	3.78
263.953	3.28
264.333	4.97
264.713	4.24
265.093	3.47
265.473	3.24
265.853	3.9
266.233	4.17
266.612	2.66
266.992	2.82
267.372	4.51
267.752	4.07
268.131	4.25
268.511	4.67
268.89	4.44
269.27	4
269.649	3.93
270.029	3.81
270.408	5.13
270.787	4.13
271.167	4.77
271.546	4.92
271.925	3.64
272.304	3.7
272.683	4.52
273.062	4
273.441	4.19
273.82	3.62
274.199	4.08
274.578	4.07
274.957	3.82
275.336	4.33
275.715	4.43
276.093	3.94
276.472	4.09
276.851	3.96
277.229	3.69
277.608	3.23
277.986	4.45
278.365	3.85
278.743	3.7
279.122	3.6
279.5	3.89
279.878	4.21
280.257	3.38
280.635	3.35
281.013	4.12
281.391	3.76
281.769	3.64
282.147	4.08
282.525	4.59
282.903	4.02
283.281	4.19
283.659	4.12
284.037	4.1
284.415	3.87
284.792	3.83
285.17	3.72
285.548	3.73
285.925	3.95
286.303	4.01
286.68	3.59
287.058	4.2
287.435	3.89
287.813	4.14
288.19	3.79
288.567	4.41
288.945	4.46
289.322	4.13
289.699	3.55
290.076	3.44
290.453	3.91
290.83	3.93
291.207	3.94
291.584	3.79
291.961	4.39
292.338	4.29
292.715	4.19
293.092	3.76
293.469	3.76
293.845	3.94
294.222	3.64
294.599	4.18
294.975	3.85
295.352	3.79
295.728	3.82
296.105	3.62
296.481	4.31
296.858	4.14
297.234	4.18
297.61	4.13
297.986	4.15
298.363	4.45
298.739	4.24
299.115	4.23
299.491	4.16
299.867	4.1
300.243	4.41
300.619	3.83
300.995	3.96
301.371	3.86
301.746	3.47
302.122	4.54
302.498	4.05
302.874	4.25
303.249	4.04
303.625	4.14
304	4.53
304.376	4.39
304.751	3.53
305.127	4.46
305.502	3.25
305.878	3.82
306.253	4.02
306.628	4.5
307.003	4.19
307.378	4.32
307.754	4.5
308.129	3.75
308.504	4.1
308.879	4
309.254	4.69
309.629	4.91
310.003	4.17
310.378	4.49
310.753	4.47
311.128	4.4
311.502	4.32
311.877	4.61
312.252	4.05
312.626	4.48
313.001	4.18
313.375	4.41
313.75	4.16
314.124	5.07
314.498	4.09
314.873	3.94
315.247	4.4
315.621	4.78
315.995	3.73
316.369	4.09
316.743	4.02
317.117	4.59
317.491	4.38
317.865	4.61
318.239	3.94
318.613	4.68
318.987	4.79
319.361	4.58
319.734	4.46
320.108	4.72
320.482	4.25
320.855	4.76
321.229	4.4
321.602	4.81
321.976	5.11
322.349	4.37
322.723	4.2
323.096	4.7
323.469	4.12
323.843	4.15
324.216	4.65
324.589	4.58
324.962	4.39
325.335	4.56
325.708	4.3
326.081	4.34
326.454	4.33
326.827	4.02
327.2	4.13
327.573	4.61
327.945	4.54
328.318	4.34
328.691	3.76
329.063	4.89
329.436	4.41
329.809	4.65
330.181	4.64
330.553	4.76
330.926	4.37
331.298	3.99
331.671	3.95
332.043	5.05
332.415	4.66
332.787	5.1
333.159	5.32
333.532	5.07
333.904	4.7
334.276	4.54
334.648	4.28
335.02	4.53
335.391	4.36
335.763	4.55
336.135	4.29
336.507	4.85
336.879	5.14
337.25	5.21
337.622	3.89
337.993	4.69
338.365	5.41
338.736	4.62
339.108	4.98
339.479	4.35
339.851	4.71
340.222	4.6
340.593	4.64
340.964	4.61
341.336	5.77
341.707	4.61
342.078	5.29
342.449	4.89
342.82	4.74
343.191	4.48
343.562	4.63
343.933	4.93
344.303	4.71
344.674	4.67
345.045	5.03
345.416	5.25
345.786	4.24
346.157	4.67
346.527	4.35
346.898	4.27
347.268	4.84
347.639	4.6
348.009	4.58
348.38	4.42
348.75	4.5
349.12	4.58
349.49	4.83
349.861	4.48
350.231	4.81
350.601	4.76
350.971	4.92
351.341	4.9
351.711	4.86
352.081	4.66
352.45	4.67
352.82	5.04
353.19	4.52
353.56	4.47
353.929	4.67
354.299	4.55
354.669	4.03
355.038	4.97
355.408	5.02
355.777	4.82
356.147	4.45
356.516	4.69
356.885	4.54
357.254	4.93
357.624	5.09
357.993	4.92
358.362	4.66
358.731	4.74
359.1	5.04
359.469	4.8
359.838	5.04
360.207	4.78
360.576	4.71
360.945	5.09
361.314	4.88
361.682	4.75
362.051	4.52
362.42	5.02
362.788	4.89
363.157	4.98
363.525	5.28
363.894	4.91
364.262	5.13
364.631	4.98
364.999	5.07
365.367	4.37
365.735	5.59
366.104	4.89
366.472	5.22
366.84	4.74
367.208	4.86
367.576	5.46
367.944	5.24
368.312	4.58
368.68	5.04
369.048	5.26
369.416	4.91
369.783	4.41
370.151	5.08
370.519	5.02
370.886	5.07
371.254	4.86
371.621	5.5
371.989	5.33
372.356	4.94
372.724	5.21
373.091	4.85
373.458	4.63
373.826	5.08
374.193	5.14
374.56	5.08
374.927	5.35
375.294	5.2
375.661	4.56
376.028	4.69
376.395	4.93
376.762	4.96
377.129	4.9
377.496	5.13
377.863	5.01
378.229	4.52
378.596	5.26
378.963	4.88
379.329	4.89
379.696	5.04
380.062	5.3
380.429	4.67
380.795	4.72
381.161	5.26
381.528	5.33
381.894	4.97
382.26	4.93
382.626	5.47
382.993	4.83
383.359	5.36
383.725	5.01
384.091	4.95
384.457	5.13
384.823	4.98
385.188	5.18
385.554	5.11
385.92	5.37
386.286	5.29
386.651	5.28
387.017	5.43
387.383	5.03
387.748	4.81
388.114	5.38
388.479	4.98
388.845	5.46
389.21	5.38
389.575	5.2
389.94	5.18
390.306	5.29
390.671	5.58
391.036	4.64
391.401	4.8
391.766	5.36
392.131	5.07
392.496	5.45
392.861	5.12
393.226	5.2
393.591	5.27
393.956	4.97
394.32	5.1
394.685	4.94
395.05	5
395.414	5.14
395.779	4.68
396.143	5.26
396.508	5.19
396.872	5.34
397.236	5.17
397.601	4.94
397.965	5.21
398.329	5.04
398.694	5.39
399.058	5.4
399.422	4.96
399.786	5.43
400.15	5.12
400.514	5.43
400.878	5.39
401.242	5.5
401.605	5.27
401.969	5.45
402.333	5.25
402.697	5.27
403.06	5.21
403.424	5.16
403.787	5.04
404.151	5.48
404.514	5.32
404.878	5.24
405.241	5.45
405.604	5.26
405.968	5.33
406.331	5.38
406.694	5.5
407.057	5.33
407.42	5.61
407.783	5.29
408.146	5.23
408.509	5.13
408.872	5.06
409.235	5.42
409.598	5.49
409.961	5.17
410.323	5.56
410.686	5.4
411.049	5.13
411.411	5.2
411.774	5.46
412.136	5.47
412.499	5.36
412.861	5.32
413.223	4.99
413.586	5.4
413.948	5.38
414.31	5.12
414.672	5.44
415.035	5.18
415.397	5.56
415.759	5.08
416.121	5.63
416.483	5.29
416.845	5.42
417.206	5.21
417.568	5.39
417.93	5.26
418.292	5.38
418.653	5.33
419.015	5.37
419.377	5.42
419.738	5.27
420.1	5.31
420.461	5.53
420.822	5.48
421.184	5.35
421.545	5.38
421.906	5.18
422.267	5.3
422.629	5.31
422.99	5.3
423.351	5.42
423.712	5.2
424.073	5.31
424.434	5.2
424.795	5.35
425.155	5.37
425.516	5.3
425.877	5.37
426.238	5.33
426.598	5.49
426.959	5.33
427.32	5.16
427.68	5.41
428.041	5.33
428.401	5.43
428.761	5.31
429.122	5.47
429.482	5.32
429.842	5.54
430.202	5.57
430.563	5.5
430.923	5.39
431.283	5.59
431.643	5.37
432.003	5.41
432.363	5.49
432.722	5.25
433.082	5.43
433.442	5.45
433.802	5.05
434.161	5.38
434.521	5.71
434.881	5.63
435.24	5.44
435.6	5.4
435.959	5.53
436.319	5.43
436.678	5.38
437.037	5.45
437.396	5.51
437.756	5.44
438.115	5.4
438.474	5.64
438.833	5.42
439.192	5.51
439.551	5.62
439.91	5.54
440.269	5.66
440.628	5.39
440.987	5.48
441.345	5.36
441.704	5.57
442.063	5.54
442.421	5.54
442.78	5.44
443.138	5.51
443.497	5.52
443.855	5.48
444.214	5.53
444.572	5.56
444.93	5.47
445.288	5.48
445.647	5.67
446.005	5.59
446.363	5.74
446.721	5.71
447.079	5.35
447.437	5.49
447.795	5.55
448.153	5.46
448.51	5.6
448.868	5.59
449.226	5.5
449.584	5.49
449.941	5.71
450.299	5.54
450.656	5.53
451.014	5.5
451.371	5.4
451.729	5.38
452.086	5.66
452.443	5.51
452.801	5.61
453.158	5.46
453.515	5.53
453.872	5.71
454.229	5.55
454.586	5.51
454.943	5.54
455.3	5.6
455.657	5.58
456.014	5.82
456.371	5.52
456.727	5.63
457.084	5.77
457.441	5.61
457.797	5.58
458.154	5.84
458.51	5.82
458.867	5.92
459.223	5.68
459.58	5.7
459.936	5.67
460.292	5.82
460.648	5.66
461.005	5.62
461.361	5.83
461.717	5.68
462.073	5.56
462.429	5.54
462.785	5.59
463.141	5.62
463.496	5.63
463.852	5.73
464.208	5.77
464.564	5.86
464.919	5.77
465.275	5.8
465.631	5.96
465.986	5.85
466.342	5.52
466.697	5.67
467.052	5.79
467.408	5.87
467.763	5.75
468.118	5.73
468.473	5.72
468.829	5.88
469.184	5.61
469.539	5.85
469.894	5.5
470.249	5.82
470.603	5.84
470.958	5.82
471.313	5.84
471.668	5.75
472.023	5.67
472.377	5.81
472.732	5.93
473.086	5.66
473.441	5.78
473.795	6.06
474.15	5.89
474.504	5.78
474.859	5.89
475.213	5.58
475.567	5.72
475.921	5.72
476.275	5.87
476.63	5.83
476.984	5.95
477.338	5.97
477.692	5.66
478.045	5.94
478.399	5.9
478.753	5.89
479.107	5.85
479.461	5.82
479.814	5.92
480.168	5.73
480.521	5.76
480.875	5.82
481.228	5.7
481.582	5.94
481.935	5.83
482.289	5.81
482.642	5.82
482.995	5.81
483.348	5.75
483.701	5.86
484.055	5.95
484.408	5.84
484.761	5.84
485.114	5.77
485.466	5.78
485.819	5.71
486.172	5.61
486.525	5.52
486.878	5.5
487.23	5.57
487.583	5.66
487.936	5.72
488.288	5.72
488.641	5.88
488.993	5.73
489.345	5.76
489.698	5.78
490.05	5.64
490.402	5.69
490.754	5.64
491.107	5.76
491.459	5.8
491.811	5.89
492.163	5.97
492.515	5.85
492.866	5.92
493.218	5.97
493.57	5.89
493.922	5.78
494.274	5.82
494.625	5.79
494.977	5.79
495.328	5.93
495.68	5.89
496.031	5.98
496.383	5.98
496.734	6.15
497.086	6.07
497.437	5.99
497.788	6.15
498.139	5.95
498.49	6.25
498.842	6.04
499.193	5.97
499.544	6.02
499.894	6.14
500.245	6.11
500.596	6.06
500.947	6.11
501.298	5.99
501.648	6.1
501.999	6.12
502.35	6.14
502.7	6.11
503.051	5.93
503.401	5.91
503.752	6.31
504.102	6.15
504.452	6.17
504.803	6.1
505.153	6.21
505.503	6.2
505.853	6.24
506.203	6.15
506.553	6.16
506.903	6.12
507.253	6.09
507.603	6.17
507.953	6.15
508.303	6.29
508.652	6.1
509.002	6.29
509.352	6.37
509.701	6.23
510.051	6.23
510.4	6.22
510.75	6.25
511.099	6.29
511.449	6.3
511.798	6.16
512.147	6.2
512.496	6.33
512.846	6.23
513.195	6.19
513.544	6.23
513.893	6.42
514.242	6.21
514.591	6.43
514.939	6.23
515.288	6.14
515.637	6.28
515.986	6.41
516.334	6.36
516.683	6.43
517.032	6.33
517.38	6.26
517.729	6.44
518.077	6.23
518.426	6.53
518.774	6.41
519.122	6.44
519.47	6.51
519.819	6.31
520.167	6.41
520.515	6.38
520.863	6.36
521.211	6.43
521.559	6.42
521.907	6.33
522.255	6.46
522.602	6.38
522.95	6.5
523.298	6.56
523.645	6.62
523.993	6.54
524.341	6.61
524.688	6.6
525.036	6.53
525.383	6.61
525.73	6.79
526.078	6.6
526.425	6.54
526.772	6.64
527.119	6.63
527.466	6.6
527.814	6.65
528.161	6.58
528.508	6.59
528.854	6.44
529.201	6.53
529.548	6.59
529.895	6.62
530.242	6.56
530.588	6.52
530.935	6.54
531.282	6.49
531.628	6.33
531.975	6.41
532.321	6.54
532.667	6.51
533.014	6.63
533.36	6.59
533.706	6.7
534.052	6.72
534.399	6.69
534.745	6.7
535.091	6.81
535.437	6.8
535.783	6.7
536.129	6.65
536.474	6.58
536.82	6.61
537.166	6.84
537.512	6.83
537.857	6.86
538.203	6.99
538.549	7.03
538.894	6.91
539.239	6.96
539.585	6.9
539.93	6.79
540.276	7.03
540.621	7.01
540.966	6.99
541.311	6.98
541.656	7.11
542.001	7.07
542.346	7.17
542.691	7.14
543.036	7.04
543.381	7.03
543.726	6.97
544.071	6.95
544.415	6.92
544.76	6.86
545.105	6.97
545.449	7.04
545.794	7.07
546.138	7.04
546.483	7.21
546.827	7.14
547.171	7.27
547.516	7.37
547.86	7.1
548.204	7.27
548.548	7.27
548.892	7.43
549.236	7.31
549.58	7.17
549.924	7.37
550.268	7.4
550.612	7.4
550.956	7.46
551.3	7.42
551.643	7.68
551.987	7.5
552.33	7.5
552.674	7.59
553.017	7.56
553.361	7.54
553.704	7.71
554.048	7.59
554.391	7.51
554.734	7.75
555.077	7.72
555.42	7.62
555.764	7.39
556.107	7.46
556.45	7.43
556.793	7.71
557.135	7.69
557.478	7.69
557.821	7.77
558.164	7.72
558.507	7.77
558.849	7.74
559.192	7.7
559.534	7.68
559.877	7.83
560.219	7.56
560.562	8.1
560.904	7.87
561.246	7.82
561.589	7.99
561.931	8.06
562.273	7.76
562.615	8.07
562.957	8.11
563.299	7.9
563.641	8.2
563.983	8.16
564.325	7.97
564.667	8.06
565.008	7.96
565.35	8.17
565.692	8.2
566.033	8.01
566.375	8.31
566.716	8.33
567.058	8.24
567.399	8.24
567.741	8.32
568.082	8.37
568.423	8.22
568.764	8.29
569.105	8.43
569.447	8.46
569.788	8.21
570.129	8.38
570.47	8.24
570.811	8.53
571.151	8.62
571.492	8.58
571.833	8.5
572.174	8.55
572.514	8.54
572.855	8.66
573.195	8.65
573.536	8.59
573.876	8.57
574.217	8.62
574.557	8.58
574.898	8.83
575.238	8.72
575.578	8.77
575.918	8.92
576.258	8.87
576.598	8.83
576.938	8.84
577.278	8.8
577.618	8.78
577.958	8.78
578.298	8.83
578.638	8.85
578.977	9.07
579.317	8.85
579.657	9.12
579.996	9.22
580.336	9.21
580.675	8.85
581.014	8.95
581.354	9.43
581.693	9.31
582.032	9.01
582.372	9.13
582.711	9.33
583.05	9.23
583.389	9.45
583.728	9.19
584.067	9.24
584.406	9.21
584.745	9.25
585.083	9.55
585.422	9.47
585.761	9.69
586.1	9.51
586.438	9.59
586.777	9.73
587.115	9.66
587.454	9.35
587.792	9.5
588.13	9.53
588.469	9.59
588.807	9.68
589.145	9.63
589.483	9.72
589.821	9.95
590.159	9.78
590.497	10.06
590.835	10.25
591.173	9.74
591.511	10.09
591.849	9.67
592.187	9.65
592.524	10.08
592.862	9.83
593.2	10.13
593.537	9.68
593.875	9.9
594.212	9.75
594.55	9.75
594.887	9.86
595.224	10.05
595.561	10.01
595.899	10.18
596.236	10.13
596.573	10.2
596.91	9.97
597.247	10.17
597.584	10.71
597.921	10.29
598.258	10.33
598.594	10.35
598.931	10.45
599.268	10.52
599.604	10.38
599.941	10.4
600.277	10.25
600.614	10.36
600.95	10.32
601.287	10.48
601.623	10.51
601.959	10.42
602.296	10.85
602.632	10.48
602.968	10.9
603.304	10.73
603.64	10.65
603.976	10.65
604.312	10.74
604.648	10.74
604.984	11.22
605.319	11.08
605.655	11.17
605.991	10.96
606.326	11.04
606.662	10.97
606.998	10.83
607.333	11.13
607.668	10.89
608.004	11.1
608.339	10.93
608.674	11.07
609.01	10.92
609.345	11
609.68	11.43
610.015	10.97
610.35	11.04
610.685	11.17
611.02	11.67
611.355	11.6
611.689	11.38
612.024	11.6
612.359	11.38
612.694	11.57
613.028	11.36
613.363	11.47
613.697	11.56
614.032	11.47
614.366	11.54
614.7	11.73
615.035	11.47
615.369	11.51
615.703	11.69
616.037	11.79
616.371	11.43
616.705	11.63
617.039	11.9
617.373	11.61
617.707	11.79
618.041	11.74
618.375	11.75
618.709	12.1
619.042	11.71
619.376	12.33
619.71	12.32
620.043	12.24
620.377	11.91
620.71	12.17
621.043	12.45
621.377	11.9
621.71	11.94
622.043	11.8
622.376	11.94
622.709	12.26
623.043	12.38
623.376	12.62
623.709	12.56
624.041	12.61
624.374	12.52
624.707	12.38
625.04	12.58
625.373	12.58
625.705	12.95
626.038	12.48
626.37	12.53
626.703	12.39
627.035	12.74
627.368	13.28
627.7	13.2
628.032	12.73
628.365	13.14
628.697	12.74
629.029	13.22
629.361	12.92
629.693	12.92
630.025	13.11
630.357	13.18
630.689	13.12
631.021	12.83
631.353	13.32
631.684	13.21
632.016	13.17
632.348	13.36
632.679	13.29
633.011	13.45
633.342	13.22
633.674	13.39
634.005	13.47
634.336	13.13
634.668	13.78
634.999	13.41
635.33	13.58
635.661	13.33
635.992	13.64
636.323	13.61
636.654	13.75
636.985	13.84
637.316	13.61
637.647	13.72
637.977	13.97
638.308	13.72
638.639	13.43
638.969	13.54
639.3	13.84
639.63	13.29
639.961	13.85
640.291	13.5
640.622	14.33
640.952	13.93
641.282	14.23
641.612	14.14
641.943	13.85
642.273	13.91
642.603	14.14
642.933	14.02
643.263	14.22
643.592	14
643.922	14.11
644.252	13.78
644.582	14.18
644.911	14.32
645.241	14.17
645.571	14.21
645.9	13.88
646.23	14.27
646.559	14.51
646.888	14.33
647.218	14.28
647.547	15.13
647.876	13.98
648.205	14.87
648.534	14.49
648.863	14.35
649.192	14.54
649.521	14.34
649.85	14.14
650.179	14.86
650.508	14.6
650.837	14.74
651.165	14.89
651.494	15.06
651.822	14.98
652.151	14.78
652.479	15.13
652.808	14.68
653.136	15.09
653.465	14.58
653.793	14.99
654.121	15.19
654.449	15.37
654.777	15.39
655.105	15.53
655.433	15.08
655.761	15.1
656.089	15.26
656.417	15.62
656.745	15.28
657.073	15.79
657.4	16.33
657.728	15.52
658.056	15.46
658.383	15.9
658.711	15.52
659.038	16.13
659.365	16.19
659.693	15.94
660.02	15.43
660.347	15.64
660.674	16.15
661.001	15.92
661.329	15.47
661.656	16.19
661.982	16.07
662.309	15.68
662.636	15.66
662.963	15.91
663.29	16.26
663.616	16.3
663.943	15.84
664.27	16.24
664.596	16.03
664.923	16.09
665.249	16.08
665.576	15.92
665.902	17.11
666.228	15.96
666.554	15.87
666.881	16.55
667.207	16.43
667.533	16.89
667.859	16.17
668.185	16.7
668.511	16.16
668.837	16.59
669.162	16.45
669.488	16.11
669.814	16.59
670.139	16.33
670.465	16.91
670.791	16.45
671.116	17.85
671.442	16.73
671.767	17.55
672.092	17.29
672.418	16.95
672.743	17.1
673.068	17
673.393	17.35
673.718	17.09
674.043	17.2
674.368	17.09
674.693	17.48
675.018	17.18
675.343	17.08
675.667	17.49
675.992	17.87
676.317	17.73
676.641	16.91
676.966	17.61
677.29	16.87
677.615	17.78
677.939	17.36
678.264	18.43
678.588	18.01
678.912	17.62
679.236	17.69
679.56	17.43
679.885	17.82
680.209	17.77
680.532	17.85
680.856	18.4
681.18	17.95
681.504	18.2
681.828	18.31
682.152	17.7
682.475	17.75
682.799	17.68
683.122	18.23
683.446	17.8
683.769	18.37
684.093	18.22
684.416	18.78
684.739	17.75
685.062	18.15
685.386	18.4
685.709	17.84
686.032	18.49
686.355	19.03
686.678	18.58
687.001	18.21
687.324	19.25
687.646	18.29
687.969	18.65
688.292	18.09
688.614	17.61
688.937	19.01
689.26	18.49
689.582	19.26
689.904	19.02
690.227	18.22
690.549	18.62
690.871	19.45
691.194	18.1
691.516	18.61
691.838	19.1
692.16	18.8
692.482	18.68
692.804	18.68
693.126	19.15
693.448	18.75
693.769	20.17
694.091	19.07
694.413	19.07
694.735	18.96
695.056	18.6
695.378	19.43
695.699	18.57
696.021	17.88
696.342	19.33
696.663	19.25
696.984	18.49
697.306	17.86
697.627	19.68
697.948	20.26
698.269	19.79
698.59	19.11
698.911	18.67
699.232	19.55
699.553	20.07
699.873	19.44
700.194	20.13
700.515	19.7
700.835	19.97
701.156	20.18
701.477	20.1
701.797	19.51
702.117	20.29
702.438	19.83
702.758	19.49
703.078	19.56
703.398	19
703.719	19.61
704.039	18.98
704.359	19.97
704.679	19.99
704.999	20.03
705.319	19.54
705.638	20.22
705.958	20.74
706.278	19.84
706.597	20.26
706.917	20.78
707.237	19.76
707.556	21.01
707.876	21.65
708.195	20.55
708.514	19.21
708.834	20.12
709.153	20.81
709.472	21.15
709.791	21.27
710.11	19.8
710.429	20.95
710.748	21.89
711.067	20.99
711.386	20.69
711.705	20.32
712.023	21.1
712.342	19.82
712.661	20.68
712.979	20.77
713.298	21.21
713.616	20.97
713.935	21.11
714.253	19.52
714.572	21.55
714.89	21.31
715.208	21.11
715.526	21.22
715.844	21.77
716.162	21.45
716.48	21.6
716.798	21.84
717.116	22.05
717.434	20.44
717.752	20.76
718.069	22.23
718.387	20.32
718.705	22.92
719.022	20.91
719.34	21.32
719.657	21.63
719.975	21.77
720.292	22.1
720.609	21.3
720.927	21.51
721.244	22.25
721.561	21.51
721.878	22.6
722.195	20.39
722.512	21.67
722.829	22.11
723.146	20.66
723.463	23.09
723.779	21.99
724.096	22
724.413	22.07
724.729	21.3
725.046	20.97
725.362	23.02
725.679	23.29
725.995	22.31
726.311	21.99
726.628	21
726.944	24.11
727.26	23.57
727.576	23.09
727.892	22.93
728.208	21.57
728.524	22.62
728.84	21.47
729.156	22.61
729.472	22.34
729.787	22.6
730.103	24.46
730.419	22.54
730.734	22.75
731.05	21.94
731.365	21.7
731.681	23.87
731.996	22.73
732.311	22.31
732.626	22.42
732.942	21.06
733.257	23.18
733.572	23.04
733.887	23.06
734.202	23.51
734.517	22.85
734.832	24.42
735.146	23.03
735.461	21.67
735.776	23.65
736.091	22.89
736.405	22.26
736.72	24.25
737.034	23.74
737.349	24.4
737.663	22.68
737.977	24.1
738.292	22.93
738.606	23.64
738.92	24.89
739.234	23.25
739.548	24.49
739.862	23.49
740.176	24.57
740.49	26.1
740.804	25.59
741.117	23.19
741.431	24.5
741.745	23.18
742.058	24.07
742.372	23.36
742.685	24.93
742.999	23.3
743.312	25.14
743.626	22.69
743.939	23.48
744.252	23.52
744.565	21.21
744.878	25.67
745.191	23.04
745.505	22.94
745.817	24.25
746.13	24.35
746.443	25.58
746.756	26.12
747.069	22.87
747.381	25.17
747.694	23.32
748.007	24.42
748.319	24.77
748.632	24.89
748.944	23.39
749.256	26.15
749.569	24.27
749.881	25.06
750.193	26.3
750.505	23.47
750.817	25.11
751.129	25.71
751.441	25.38
751.753	27.32
752.065	23.2
752.377	26.18
752.689	27.44
753	25.28
753.312	22.8
753.624	25.13
753.935	25.42
754.247	26.37
754.558	24.43
754.869	26.42
755.181	25.38
755.492	26.63
755.803	23.85
756.114	25.96
756.425	22.61
756.736	23.47
757.047	27.22
757.358	25.65
757.669	24.95
757.98	22.57
758.291	25.38
758.601	27
758.912	24.61
759.223	26.25
759.533	25.2
759.844	25.58
760.154	23.3
760.464	27.63
760.775	26.57
761.085	24.9
761.395	27.07
761.705	23.84
762.016	24.61
762.326	23.99
762.636	25.76
762.945	25.58
763.255	27.43
763.565	25.31
763.875	24.62
764.185	24.75
764.494	26.08
764.804	28.04
765.113	25.24
765.423	24.42
765.732	26.12
766.042	27.12
766.351	25.5
766.66	27.95
766.97	28.1
767.279	24.85
767.588	26.39
767.897	26.91
768.206	25.92
768.515	24.26
768.824	26.12
769.133	24.16
769.441	25.19
769.75	25.3
770.059	25.4
770.367	26.1
770.676	25.3
770.984	26.69
771.293	25.53
771.601	27.4
771.91	25.31
772.218	27.22
772.526	27.83
772.834	26.11
773.142	24.29
773.45	25.55
773.758	24.46
774.066	26.5
774.374	26.13
774.682	27.41
774.99	27.15
775.298	24.51
775.605	24.8
775.913	25.62
776.22	27.75
776.528	26.34
776.835	29.18
777.143	27.39
777.45	25.89
777.757	26.49
778.065	29.17
778.372	28.59
778.679	27.19
778.986	27.27
779.293	23.56
779.6	31.1
779.907	25.65
780.214	26.94
780.52	28.87
780.827	28.1
781.134	25.48
781.44	26.04
781.747	28.72
782.053	28.97
782.36	27.01
782.666	30.23
782.973	29.14
783.279	29.5
783.585	26.96
783.891	26.86
784.197	27.41
784.503	32.14
784.809	24.54
785.115	24.24
785.421	28.99
785.727	26.62
786.033	27.06
786.339	26.45
786.644	26.21
786.95	26.64
787.255	29.21
787.561	28.99
787.866	26.64
788.172	26.42
788.477	22.1
788.782	29.27
789.088	28.11
789.393	25.65
789.698	25.28
790.003	30.6
790.308	27.19
790.613	28.37
790.918	28.44
791.223	29.8
791.527	26.29
791.832	30.17
792.137	27.23
792.441	28.54
792.746	26.02
793.05	26.15
793.355	28.4
793.659	30.65
793.963	24.46
794.268	27.84
794.572	29.09
794.876	31.03
795.18	28.02
795.484	27.77
795.788	27.08
796.092	31.44
796.396	25
796.7	25.88
797.004	27.16
797.307	24.46
797.611	30.6
797.915	23.91
798.218	29.08
798.522	27.94
798.825	28.02
799.128	28.51
799.432	29.6
799.735	27.74
800.038	30.24
800.341	30.02
800.644	27.77
800.947	28.53
801.25	25.94
801.553	27.38
801.856	25.61
802.159	23.97
802.462	22.3
802.764	28.54
803.067	32.16
803.37	29.51
803.672	27.02
803.975	24.86
804.277	29.53
804.579	25.62
804.882	27.18
805.184	26.2
805.486	27.76
805.788	31.03
806.09	26.91
806.392	32.5
806.694	28.15
806.996	27.73
807.298	29.14
807.6	28.75
807.902	37.39
808.203	24.96
808.505	25.13
808.807	30.85
809.108	37.61
809.409	30.11
809.711	26.8
810.012	33.26
810.313	31.36
810.615	32.76
810.916	28.57
811.217	22.27
811.518	31.57
811.819	24.6
812.12	27.24
812.421	26.06
812.722	33.09
813.023	29.08
813.323	25.65
813.624	30.69
813.925	40.43
814.225	23.27
814.526	32.23
814.826	29.16
815.126	27.87
815.427	28.42
815.727	25.69
816.027	25.88
816.327	27.02
816.627	27.23
816.927	31.4
817.227	29.43
817.527	24.82
817.827	33.42
818.127	27.73
818.427	27
818.727	23.08
819.026	28.61
819.326	30.36
819.625	26.52
819.925	27.24
820.224	30.34
820.524	29.41
820.823	33.99
821.122	21.6
821.421	26.85
821.72	30.19
822.019	32.47
822.318	32.15
822.617	27.65
822.916	32.1
823.215	31.91
823.514	29.32
823.813	27.81
824.111	34.85
824.41	34.26
824.709	32.76
825.007	33.51
825.306	33.21
825.604	33.37
825.902	32.49
826.201	33.32
826.499	32.17
826.797	31.67
827.095	31.45
827.393	30.15
827.691	32.33
827.989	30.37
828.287	28.74
828.585	30.22
828.882	31.34
829.18	30.78
829.478	35.48
829.775	34.6
830.073	32.32
830.37	36.1
830.668	31.45
830.965	34.03
831.263	32.86
831.56	33.53
831.857	30.47
832.154	33.98
832.451	33.55
832.748	32.74
833.045	31.21
833.342	34.94
833.639	36.43
833.936	29.19
834.232	37.05
834.529	30.26
834.826	25.08
835.122	29.28
835.419	24.18
835.715	28.84
836.012	36.3
836.308	30.65
836.604	33.32
836.901	32.25
837.197	32.5
837.493	30.71
837.789	32.05
838.085	32.56
838.381	30.16
838.677	31.18
838.972	31.03
839.268	30.72
839.564	31.77
839.86	25.11
840.155	21.89
840.451	24.65
840.746	30.88
841.042	33.62
841.337	24.44
841.632	35.01
841.928	34.54
842.223	36.73
842.518	28.74
842.813	41.09
843.108	26.93
843.403	40.05
843.698	32.69
843.993	36.29
844.287	28.18
844.582	27.99
844.877	28.31
845.171	32.07
845.466	21.64
845.761	13.51
846.055	18.49
846.349	29.85
846.644	28.79
846.938	14.11
847.232	31.6
847.526	44.72
847.82	34.43
848.114	16.79
848.408	30.26
848.702	26.74
848.996	20.51
849.29	19.85
849.584	15.95
849.877	25.16
850.171	30.53
850.465	26.28
850.758	42.76
851.052	17.25
851.345	12.24
851.638	41.53
851.932	-4.6
852.225	16.05
852.518	42.63
852.811	21.86
853.104	2.74
853.397	49.72
853.69	14.28
853.983	19.29
854.276	44.86
854.569	6.22
854.861	32.26
855.154	27.42
855.447	20.69
855.739	53.38
856.032	35.74
856.324	41.02
856.616	25.46
856.909	21.49
857.201	31.65
857.493	13.02
857.785	5.63
858.077	34.03
858.369	26.31
858.661	15.66
858.953	-8.57
859.245	35.1
859.537	25.57
859.829	21.97
860.12	39.2
860.412	25.97
860.703	-0.03
860.995	21.82
861.286	22.42
861.578	16.04
861.869	33.7
862.16	18.54
862.452	5
862.743	20.1
863.034	5.07
863.325	2.11
863.616	13.46
863.907	19.32
864.198	-11.63
864.488	31.63
864.779	5.02
865.07	-4.62
865.36	20.25
865.651	31.58
865.941	15.74
866.232	9.37
866.522	-1.36
866.813	21.55
867.103	37.91
867.393	25.85
867.683	22.98
867.973	-22.88
868.263	14.23
868.553	27.8
868.843	51.41
869.133	1.97
869.423	17.96
869.713	65.69
870.002	47.74
870.292	42.22
870.582	19.33
870.871	17.04
871.161	1.36
871.45	13.79
871.739	31.47
872.029	0.73
872.318	22.53
872.607	32.71
872.896	-8.96
873.185	6.18
873.474	-16.68
873.763	24.86
874.052	5.54
874.341	27.02
874.63	28.7
874.918	16.75
875.207	64.48
875.496	36.87
875.784	20.83
876.073	-7.67
876.361	25.36
876.649	24.59
876.938	15.05
877.226	10.88
877.514	27.93
877.802	-10.32
878.09	-5.59
878.378	43.07
878.666	5.59
878.954	26.71
879.242	19.47
879.53	26.11
879.817	39.37
880.105	5.16
880.392	28.22
880.68	25.45
880.967	-5.36
881.255	57.73
881.542	15.05
881.83	-7.33
882.117	23.42
882.404	1.43
882.691	28.69
882.978	21.6
883.265	2.6
883.552	33.91
883.839	40.13
884.126	35.69
884.413	35.01
884.699	36.88
884.986	30.12
885.273	30.29
885.559	30.29
885.846	30.29
