Data from 0004_crown_Reflection__2__384.txt Node

Date: Thu Dec 15 19:35:03 CST 2022
User: ToomeyLab
Spectrometer: FLMS14357
Trigger mode: 0
Integration Time (sec): 1.000000E-2
Scans to average: 100
Electric dark correction enabled: true
Nonlinearity correction enabled: false
Boxcar width: 0
XAxis mode: Wavelengths
Number of Pixels in Spectrum: 2048
>>>>>Begin Spectral Data<<<<<
189.047	-44.52
189.435	-44.52
189.823	-44.52
190.211	-69.33
190.599	49.32
190.987	-148.27
191.375	-8.65
191.763	-303.48
192.151	369.33
192.538	18.57
192.926	11.12
193.314	-669.11
193.702	1193.07
194.089	-154.68
194.477	-61.19
194.864	65.58
195.252	-0.29
195.639	93.32
196.027	121.86
196.414	10.49
196.801	65.6
197.189	37.01
197.576	-28.52
197.963	-63.36
198.351	27.74
198.738	-98.89
199.125	-137.46
199.512	22.45
199.899	-29.01
200.286	-62.62
200.673	30.16
201.06	20.16
201.447	-25.54
201.833	-19.51
202.22	-61.72
202.607	-74.31
202.994	-25.22
203.38	0.89
203.767	-21.01
204.154	10.72
204.54	-17.45
204.927	-19.34
205.313	5.22
205.699	9.05
206.086	22.59
206.472	24.05
206.858	-9.93
207.245	-10.16
207.631	-53.58
208.017	22.08
208.403	-70.2
208.789	-2.13
209.175	-63.43
209.561	-102.64
209.947	-0.18
210.333	5.83
210.719	22.16
211.105	11.17
211.491	-25.63
211.876	-61.4
212.262	-11.58
212.648	1.16
213.034	-14.64
213.419	-14.42
213.805	-39.04
214.19	-50.82
214.576	-20.3
214.961	3.8
215.346	-79.73
215.732	-19.17
216.117	-28.08
216.502	-26.18
216.888	7.89
217.273	-16.9
217.658	-15.1
218.043	-52.7
218.428	-42.68
218.813	-13.79
219.198	-41.44
219.583	-35.23
219.968	-16.74
220.353	-33.79
220.738	13.21
221.122	-11.4
221.507	-12.26
221.892	-56.81
222.276	-23.65
222.661	-22.4
223.046	-15.97
223.43	-4.45
223.815	-2.68
224.199	-7.07
224.583	-5.32
224.968	-12.22
225.352	-15.78
225.736	0.09
226.121	-7.2
226.505	-15.89
226.889	8.13
227.273	-3.34
227.657	3.63
228.041	-1.3
228.425	-3.82
228.809	-1.08
229.193	3.45
229.577	3.48
229.961	1.74
230.344	3.47
230.728	4.44
231.112	3.77
231.495	1.36
231.879	1.21
232.263	2.02
232.646	3.33
233.03	3.78
233.413	3.03
233.797	1.86
234.18	2.22
234.563	0.59
234.946	0.16
235.33	2.71
235.713	2.89
236.096	3.44
236.479	2.89
236.862	2.38
237.245	1.26
237.628	1.66
238.011	2.9
238.394	2.42
238.777	1.57
239.16	2.43
239.543	3.8
239.925	1.67
240.308	1.23
240.691	0.53
241.073	1.8
241.456	1.06
241.838	1.98
242.221	2.59
242.603	3.07
242.986	2.58
243.368	3.39
243.75	3.17
244.133	3.3
244.515	3.05
244.897	2.54
245.279	4.1
245.661	2.59
246.043	3.17
246.425	2.65
246.807	2.35
247.189	2.16
247.571	2.57
247.953	2.91
248.335	2.97
248.717	3.18
249.098	3
249.48	3.06
249.862	3.07
250.243	2.86
250.625	2.98
251.006	3.38
251.388	2.49
251.769	2.14
252.151	2.2
252.532	2.22
252.913	2.72
253.295	2.82
253.676	2.82
254.057	2.5
254.438	2.25
254.819	3.4
255.2	3.31
255.581	2.4
255.962	2.6
256.343	2.72
256.724	2.85
257.105	2.9
257.486	1.01
257.867	2.65
258.247	1.9
258.628	1.74
259.009	2.16
259.389	1.94
259.77	2.69
260.15	3.29
260.531	2.86
260.911	2.89
261.292	2.96
261.672	2.75
262.052	2.98
262.432	2.6
262.813	2.71
263.193	2.11
263.573	2.62
263.953	2.3
264.333	2.74
264.713	2.22
265.093	2.12
265.473	3.87
265.853	2.89
266.233	2.53
266.612	2.4
266.992	2.86
267.372	2.71
267.752	3.68
268.131	2.37
268.511	2.89
268.89	2.8
269.27	2
269.649	2.59
270.029	2.52
270.408	2.49
270.787	2.56
271.167	3.15
271.546	3.08
271.925	3.16
272.304	2.63
272.683	2.57
273.062	2.51
273.441	2.52
273.82	2.96
274.199	2.77
274.578	2.65
274.957	2.57
275.336	2.46
275.715	2.69
276.093	2.02
276.472	2.67
276.851	3.01
277.229	2.34
277.608	2.38
277.986	2.57
278.365	2.97
278.743	2.28
279.122	2.4
279.5	2.49
279.878	2.25
280.257	2.83
280.635	2.42
281.013	1.93
281.391	2.51
281.769	2.73
282.147	2.32
282.525	2.08
282.903	2.69
283.281	2.56
283.659	2.6
284.037	2.61
284.415	2.21
284.792	2.46
285.17	2.51
285.548	2.68
285.925	2.5
286.303	2.9
286.68	2.58
287.058	2.7
287.435	2.48
287.813	2.71
288.19	2.36
288.567	2.41
288.945	2.12
289.322	3.11
289.699	2.5
290.076	2.43
290.453	2.31
290.83	2.32
291.207	2.21
291.584	2.79
291.961	2.63
292.338	2.56
292.715	2.3
293.092	2.75
293.469	2.24
293.845	2.85
294.222	2.73
294.599	2.36
294.975	2.14
295.352	2.61
295.728	2.91
296.105	2.3
296.481	2.67
296.858	2.62
297.234	2.07
297.61	2.59
297.986	2.95
298.363	2.69
298.739	2.92
299.115	2.74
299.491	2.99
299.867	2.55
300.243	2.26
300.619	2.27
300.995	2.45
301.371	2.52
301.746	2.5
302.122	1.99
302.498	2.42
302.874	2.67
303.249	2.63
303.625	2.3
304	2.61
304.376	3.02
304.751	2.61
305.127	2.39
305.502	2.64
305.878	2.41
306.253	1.99
306.628	2.66
307.003	2.37
307.378	2.27
307.754	2.33
308.129	2.46
308.504	2.5
308.879	2.47
309.254	2.77
309.629	2.52
310.003	2.38
310.378	2.81
310.753	2.22
311.128	2.29
311.502	2.75
311.877	2.49
312.252	2.61
312.626	3.07
313.001	2.82
313.375	2.8
313.75	2.24
314.124	2.56
314.498	2.65
314.873	2.13
315.247	2.45
315.621	1.94
315.995	2.36
316.369	1.76
316.743	2.38
317.117	2.41
317.491	2.37
317.865	2.38
318.239	2.64
318.613	2.34
318.987	1.85
319.361	2.69
319.734	2.19
320.108	2.56
320.482	2.57
320.855	2.7
321.229	2.76
321.602	2.46
321.976	2.02
322.349	3.3
322.723	2.43
323.096	2.12
323.469	2.19
323.843	1.94
324.216	2.39
324.589	2.24
324.962	2.32
325.335	2.3
325.708	2.75
326.081	2.51
326.454	2.69
326.827	2.05
327.2	2.08
327.573	3.16
327.945	2.63
328.318	2.43
328.691	2.44
329.063	2.05
329.436	2.5
329.809	2.81
330.181	3.37
330.553	2.42
330.926	3.15
331.298	2.49
331.671	3.07
332.043	2.23
332.415	2.71
332.787	2.71
333.159	2.63
333.532	2.33
333.904	2.95
334.276	2.7
334.648	2.41
335.02	2.31
335.391	2.45
335.763	2.9
336.135	2.57
336.507	2.54
336.879	2.61
337.25	2.65
337.622	2.48
337.993	2.58
338.365	2.6
338.736	2.58
339.108	2.58
339.479	2.52
339.851	2.55
340.222	2.86
340.593	2.33
340.964	2.5
341.336	2.38
341.707	2.63
342.078	2.44
342.449	2.39
342.82	2.8
343.191	2.78
343.562	3.11
343.933	2.7
344.303	2.75
344.674	2.63
345.045	2.84
345.416	2.85
345.786	2.75
346.157	2.79
346.527	2.62
346.898	2.46
347.268	2.83
347.639	2.58
348.009	2.77
348.38	2.5
348.75	2.77
349.12	2.8
349.49	2.6
349.861	2.97
350.231	2.78
350.601	2.74
350.971	2.24
351.341	2.84
351.711	2.48
352.081	2.56
352.45	2.12
352.82	2.6
353.19	2.72
353.56	2.97
353.929	2.75
354.299	2.85
354.669	2.93
355.038	2.89
355.408	2.73
355.777	2.82
356.147	2.8
356.516	2.49
356.885	3
357.254	2.75
357.624	2.2
357.993	3.03
358.362	2.87
358.731	3.23
359.1	2.8
359.469	3.02
359.838	2.94
360.207	2.73
360.576	3.07
360.945	2.71
361.314	2.71
361.682	2.74
362.051	2.96
362.42	2.79
362.788	2.99
363.157	2.78
363.525	2.93
363.894	2.84
364.262	2.89
364.631	3.21
364.999	2.87
365.367	2.78
365.735	2.6
366.104	2.95
366.472	2.8
366.84	2.97
367.208	2.77
367.576	2.99
367.944	2.82
368.312	2.81
368.68	3.29
369.048	2.9
369.416	2.79
369.783	2.66
370.151	3.38
370.519	3.32
370.886	2.99
371.254	3.13
371.621	2.98
371.989	3.08
372.356	2.91
372.724	2.79
373.091	2.79
373.458	2.72
373.826	3.16
374.193	2.81
374.56	2.9
374.927	2.82
375.294	3.13
375.661	3.12
376.028	2.82
376.395	2.83
376.762	2.68
377.129	2.62
377.496	2.9
377.863	2.88
378.229	3.19
378.596	2.93
378.963	3.04
379.329	3.01
379.696	2.8
380.062	2.95
380.429	2.6
380.795	3.11
381.161	2.64
381.528	2.63
381.894	2.57
382.26	3.06
382.626	2.93
382.993	3.17
383.359	3.06
383.725	2.96
384.091	2.87
384.457	2.72
384.823	3.41
385.188	3.05
385.554	3.13
385.92	2.87
386.286	3.19
386.651	3.07
387.017	3.12
387.383	2.83
387.748	2.75
388.114	2.95
388.479	3.19
388.845	2.9
389.21	3.07
389.575	3.13
389.94	3.04
390.306	3.01
390.671	3.21
391.036	2.69
391.401	2.94
391.766	2.75
392.131	3.12
392.496	2.93
392.861	2.94
393.226	2.95
393.591	3.29
393.956	2.97
394.32	3.06
394.685	3.28
395.05	3.07
395.414	3.06
395.779	3.13
396.143	2.74
396.508	3.07
396.872	3.06
397.236	3.28
397.601	3.2
397.965	2.85
398.329	2.96
398.694	2.88
399.058	3.02
399.422	2.97
399.786	2.9
400.15	3.05
400.514	3.15
400.878	3.04
401.242	2.94
401.605	2.91
401.969	3.08
402.333	3.04
402.697	3.24
403.06	3.35
403.424	3.08
403.787	2.97
404.151	3.07
404.514	3.13
404.878	2.74
405.241	3.05
405.604	3
405.968	3.02
406.331	3.14
406.694	3.04
407.057	3.07
407.42	2.81
407.783	3.11
408.146	3.08
408.509	3.27
408.872	3.05
409.235	3.16
409.598	3.12
409.961	3.25
410.323	3.04
410.686	3.04
411.049	3.09
411.411	3.19
411.774	2.99
412.136	3.19
412.499	3.22
412.861	2.68
413.223	3.01
413.586	3.23
413.948	3.21
414.31	3.22
414.672	2.81
415.035	3.08
415.397	2.96
415.759	2.82
416.121	3.21
416.483	2.93
416.845	3.12
417.206	2.99
417.568	3.11
417.93	3.07
418.292	3.01
418.653	2.88
419.015	3.09
419.377	3.04
419.738	3.13
420.1	3.06
420.461	3.03
420.822	3.11
421.184	2.99
421.545	3.06
421.906	3.06
422.267	3.02
422.629	3.01
422.99	3.03
423.351	3.02
423.712	3.03
424.073	3.11
424.434	3.1
424.795	3.07
425.155	2.99
425.516	2.86
425.877	3.01
426.238	2.94
426.598	3.07
426.959	3.09
427.32	3.04
427.68	3.08
428.041	3.02
428.401	2.97
428.761	3.08
429.122	3.09
429.482	3
429.842	3.03
430.202	3.17
430.563	2.88
430.923	3.01
431.283	3.15
431.643	3.2
432.003	3.14
432.363	3.09
432.722	3.06
433.082	3.03
433.442	3.07
433.802	3.11
434.161	2.97
434.521	3.11
434.881	3.14
435.24	3.15
435.6	3.09
435.959	3.08
436.319	3.14
436.678	3.21
437.037	3.08
437.396	2.98
437.756	2.9
438.115	2.97
438.474	3.09
438.833	3.12
439.192	2.97
439.551	3
439.91	3.1
440.269	3
440.628	2.93
440.987	3.11
441.345	3
441.704	2.98
442.063	3.02
442.421	3.12
442.78	3.06
443.138	3.08
443.497	3.07
443.855	3.18
444.214	2.92
444.572	3.18
444.93	3.06
445.288	3.01
445.647	2.88
446.005	3.06
446.363	2.95
446.721	3.07
447.079	2.92
447.437	3.02
447.795	2.97
448.153	3.08
448.51	2.98
448.868	3.02
449.226	3.14
449.584	3
449.941	3.06
450.299	3.05
450.656	3.12
451.014	3.11
451.371	3.15
451.729	3.25
452.086	3.13
452.443	3.12
452.801	2.97
453.158	3.14
453.515	3.04
453.872	3.02
454.229	2.84
454.586	2.95
454.943	3.06
455.3	3
455.657	2.9
456.014	3.06
456.371	3.17
456.727	3.01
457.084	3.2
457.441	3.19
457.797	3.09
458.154	2.94
458.51	3.13
458.867	3.06
459.223	2.87
459.58	3.02
459.936	3.17
460.292	3.08
460.648	3.03
461.005	2.91
461.361	3.04
461.717	2.97
462.073	3.02
462.429	3.09
462.785	3.06
463.141	3.11
463.496	3.02
463.852	3.18
464.208	3.05
464.564	3.23
464.919	3.06
465.275	3.17
465.631	3.2
465.986	3.14
466.342	2.93
466.697	2.97
467.052	3.12
467.408	3.11
467.763	3.11
468.118	2.93
468.473	3.09
468.829	2.93
469.184	3.11
469.539	3.01
469.894	3.22
470.249	3.16
470.603	3.22
470.958	3.1
471.313	3.36
471.668	3.13
472.023	3.04
472.377	2.91
472.732	3.18
473.086	3.02
473.441	3
473.795	3.34
474.15	3.07
474.504	3.05
474.859	2.92
475.213	3.18
475.567	2.92
475.921	3.13
476.275	3.15
476.63	3.07
476.984	2.97
477.338	3.07
477.692	2.91
478.045	3.09
478.399	3.15
478.753	3.02
479.107	3.05
479.461	3.11
479.814	3.06
480.168	3.08
480.521	3.14
480.875	3.11
481.228	3.04
481.582	3.17
481.935	3.15
482.289	3.04
482.642	3.14
482.995	3.08
483.348	3.04
483.701	3.16
484.055	3.05
484.408	3.02
484.761	2.9
485.114	2.87
485.466	2.88
485.819	2.87
486.172	2.94
486.525	2.97
486.878	3.07
487.23	3.03
487.583	3.06
487.936	3.03
488.288	3.05
488.641	2.94
488.993	2.91
489.345	2.91
489.698	2.95
490.05	2.95
490.402	2.98
490.754	2.98
491.107	2.99
491.459	3.05
491.811	3.07
492.163	3.02
492.515	3.01
492.866	2.93
493.218	2.93
493.57	2.99
493.922	2.96
494.274	3.15
494.625	3.12
494.977	3.12
495.328	3.11
495.68	3.04
496.031	3.04
496.383	3.03
496.734	3.15
497.086	3.09
497.437	3.11
497.788	3.21
498.139	3.11
498.49	3.1
498.842	3.11
499.193	3.04
499.544	3.07
499.894	3.04
500.245	3.16
500.596	3.09
500.947	3.02
501.298	3.09
501.648	3.02
501.999	3.1
502.35	3.04
502.7	3.28
503.051	3.1
503.401	3.05
503.752	3
504.102	3.04
504.452	3.03
504.803	3.05
505.153	3.13
505.503	3.11
505.853	3.05
506.203	3.09
506.553	3.12
506.903	3.05
507.253	3.06
507.603	3.11
507.953	3.18
508.303	3.16
508.652	3.1
509.002	3.1
509.352	3.12
509.701	2.99
510.051	3.16
510.4	3.1
510.75	2.96
511.099	3
511.449	3.1
511.798	3.13
512.147	3
512.496	3.06
512.846	3.08
513.195	3.06
513.544	3.11
513.893	3.08
514.242	2.98
514.591	2.95
514.939	3.09
515.288	3.19
515.637	3.08
515.986	3.15
516.334	3.17
516.683	3.13
517.032	3.02
517.38	3.1
517.729	2.95
518.077	3.16
518.426	3.09
518.774	3.02
519.122	3.08
519.47	2.96
519.819	3.1
520.167	3.06
520.515	3.05
520.863	3.05
521.211	3.01
521.559	2.93
521.907	3.12
522.255	3.12
522.602	3.12
522.95	3.16
523.298	3.17
523.645	3.16
523.993	3.14
524.341	3.19
524.688	2.96
525.036	3.06
525.383	3.06
525.73	3.06
526.078	3.13
526.425	3.02
526.772	3.06
527.119	3.09
527.466	3.06
527.814	3.05
528.161	3.11
528.508	3.11
528.854	2.99
529.201	3.01
529.548	3
529.895	2.91
530.242	2.92
530.588	2.92
530.935	2.95
531.282	3
531.628	3.08
531.975	3.03
532.321	3.01
532.667	3.12
533.014	3.11
533.36	3.08
533.706	3.07
534.052	3.13
534.399	3.05
534.745	2.98
535.091	2.94
535.437	3.03
535.783	3.06
536.129	3.02
536.474	3.19
536.82	3.15
537.166	3.08
537.512	3.08
537.857	3.01
538.203	2.99
538.549	3.02
538.894	3.04
539.239	3.11
539.585	3.17
539.93	3.15
540.276	3.11
540.621	3.17
540.966	3.02
541.311	3.15
541.656	3.09
542.001	3.05
542.346	3.02
542.691	3
543.036	2.98
543.381	2.97
543.726	3.09
544.071	3.06
544.415	3.08
544.76	3.09
545.105	3.03
545.449	3.02
545.794	3.15
546.138	2.96
546.483	3.16
546.827	3.04
547.171	3.16
547.516	3.11
547.86	3.08
548.204	3.14
548.548	3.03
548.892	3.16
549.236	3.16
549.58	3.17
549.924	3.17
550.268	3.36
550.612	3.19
550.956	3.16
551.3	3.33
551.643	3.12
551.987	3.24
552.33	3.32
552.674	3.2
553.017	3.23
553.361	3.24
553.704	3.28
554.048	3.21
554.391	3.18
554.734	3.1
555.077	3.2
555.42	3.08
555.764	3.14
556.107	3.35
556.45	3.24
556.793	3.38
557.135	3.15
557.478	3.18
557.821	3.17
558.164	3.19
558.507	3.1
558.849	3.34
559.192	3.09
559.534	3.1
559.877	3.14
560.219	3.15
560.562	3.08
560.904	3.37
561.246	3.2
561.589	3.38
561.931	3.21
562.273	3.05
562.615	3.07
562.957	3.25
563.299	3.18
563.641	3.3
563.983	3.14
564.325	3.18
564.667	3.13
565.008	3.09
565.35	3
565.692	3.14
566.033	3.08
566.375	3.17
566.716	3.03
567.058	3.23
567.399	3.26
567.741	3.22
568.082	3.27
568.423	3.04
568.764	3.2
569.105	3.18
569.447	3.01
569.788	3.22
570.129	3.11
570.47	3.14
570.811	3.09
571.151	3.25
571.492	3.2
571.833	3.24
572.174	3.21
572.514	3.1
572.855	3.33
573.195	3.11
573.536	3.28
573.876	3.22
574.217	3.23
574.557	3.13
574.898	3.2
575.238	3.18
575.578	3.2
575.918	3.16
576.258	3.4
576.598	3.03
576.938	2.99
577.278	3.18
577.618	3.17
577.958	3.25
578.298	3.26
578.638	3.23
578.977	3.23
579.317	3.26
579.657	3.18
579.996	3.42
580.336	3.4
580.675	3.19
581.014	3.27
581.354	3.11
581.693	3.21
582.032	3.35
582.372	3.31
582.711	3.28
583.05	3.08
583.389	3.46
583.728	3.31
584.067	3.33
584.406	3.4
584.745	3.39
585.083	3.32
585.422	3.32
585.761	3.21
586.1	3.18
586.438	3.18
586.777	3.37
587.115	3.29
587.454	3.09
587.792	3.28
588.13	3.19
588.469	3.26
588.807	3.15
589.145	3.16
589.483	3.14
589.821	3.54
590.159	3.38
590.497	3.29
590.835	3.23
591.173	3.27
591.511	3.7
591.849	3.41
592.187	3.31
592.524	3.38
592.862	3.1
593.2	3.37
593.537	3.26
593.875	3.34
594.212	3.21
594.55	3.1
594.887	3.36
595.224	3.27
595.561	3.22
595.899	3.27
596.236	3.44
596.573	3.1
596.91	3.2
597.247	3.49
597.584	3.34
597.921	3.2
598.258	3.43
598.594	3.22
598.931	3.21
599.268	3.35
599.604	3.3
599.941	3.41
600.277	3.28
600.614	3.2
600.95	3.2
601.287	3.01
601.623	3.07
601.959	3.46
602.296	3.21
602.632	3.25
602.968	3.32
603.304	3.3
603.64	3.18
603.976	3.08
604.312	3.26
604.648	3.32
604.984	3.45
605.319	3.17
605.655	3.35
605.991	3.25
606.326	3.33
606.662	3.17
606.998	3.56
607.333	3.47
607.668	3.35
608.004	3.25
608.339	3.3
608.674	3.31
609.01	3.48
609.345	3.61
609.68	3.28
610.015	3.25
610.35	3.42
610.685	3.15
611.02	3.36
611.355	3.18
611.689	3.18
612.024	3.39
612.359	3.42
612.694	3.47
613.028	3.21
613.363	3.27
613.697	3.41
614.032	3.15
614.366	3.38
614.7	3.49
615.035	3.38
615.369	3.58
615.703	3.35
616.037	3.29
616.371	3.48
616.705	3.28
617.039	3.38
617.373	3.63
617.707	3.27
618.041	3.35
618.375	2.79
618.709	3.1
619.042	3.25
619.376	3.4
619.71	3.59
620.043	3.54
620.377	3.37
620.71	3.35
621.043	3.29
621.377	3.33
621.71	3.66
622.043	3.44
622.376	3.16
622.709	3.77
623.043	3.25
623.376	3.35
623.709	3.77
624.041	3.53
624.374	3.63
624.707	3.35
625.04	3.14
625.373	3.27
625.705	3.78
626.038	3.44
626.37	3.22
626.703	3.4
627.035	3.46
627.368	3.58
627.7	3.06
628.032	3.41
628.365	3.53
628.697	3.7
629.029	3.5
629.361	3.52
629.693	3.4
630.025	3.49
630.357	3.34
630.689	3.5
631.021	3.65
631.353	3.62
631.684	2.92
632.016	3.26
632.348	3.42
632.679	3.48
633.011	3.59
633.342	3.6
633.674	3.39
634.005	3.27
634.336	3.69
634.668	3.41
634.999	3.19
635.33	3.61
635.661	3.37
635.992	3.42
636.323	3.28
636.654	3.38
636.985	3.5
637.316	3.6
637.647	3.46
637.977	3.28
638.308	3.58
638.639	3.56
638.969	3.05
639.3	3.37
639.63	3.47
639.961	3.35
640.291	3.07
640.622	3.45
640.952	3.41
641.282	3.59
641.612	3.49
641.943	3.47
642.273	3.38
642.603	3.99
642.933	4.07
643.263	3.59
643.592	4.04
643.922	4.06
644.252	3.13
644.582	3.76
644.911	3.46
645.241	3.11
645.571	3.15
645.9	3.58
646.23	3.88
646.559	3.34
646.888	3.47
647.218	3.55
647.547	3.35
647.876	3.48
648.205	3.65
648.534	3.53
648.863	3.27
649.192	3.6
649.521	3.63
649.85	3.73
650.179	3.84
650.508	3.04
650.837	3.66
651.165	3.65
651.494	3.7
651.822	3.48
652.151	3.78
652.479	3.86
652.808	3.55
653.136	3.13
653.465	3.25
653.793	3.66
654.121	3.6
654.449	3.37
654.777	3.69
655.105	3.74
655.433	3.68
655.761	3.7
656.089	3.5
656.417	3.79
656.745	4.08
657.073	3.21
657.4	3.47
657.728	3.09
658.056	3.74
658.383	3.15
658.711	3.56
659.038	4.18
659.365	3.93
659.693	3.64
660.02	2.96
660.347	3.7
660.674	3.76
661.001	3.43
661.329	3.64
661.656	3.54
661.982	3.51
662.309	3.88
662.636	3.44
662.963	3.84
663.29	3.8
663.616	3.47
663.943	3.38
664.27	3.39
664.596	3.43
664.923	4.12
665.249	3.79
665.576	3.07
665.902	3.52
666.228	4.26
666.554	3.78
666.881	2.75
667.207	3.39
667.533	4.18
667.859	3.76
668.185	4.03
668.511	3.77
668.837	3.59
669.162	3.97
669.488	3.25
669.814	3.97
670.139	3.35
670.465	4.18
670.791	3.49
671.116	3.33
671.442	3.36
671.767	3.95
672.092	3.5
672.418	3.53
672.743	3.28
673.068	3.56
673.393	3.78
673.718	3.16
674.043	3.5
674.368	3.13
674.693	4.11
675.018	3.99
675.343	3.87
675.667	3.57
675.992	3.78
676.317	3.14
676.641	3.7
676.966	3.86
677.29	2.82
677.615	3.87
677.939	3.96
678.264	3.21
678.588	3.92
678.912	3.92
679.236	3.93
679.56	3.49
679.885	3.14
680.209	3.95
680.532	4.58
680.856	3.72
681.18	4.61
681.504	3.37
681.828	4.06
682.152	3.69
682.475	3.96
682.799	3.41
683.122	4
683.446	3.24
683.769	3.91
684.093	4.04
684.416	3.6
684.739	3.24
685.062	3.75
685.386	3.83
685.709	3.89
686.032	3.83
686.355	3.59
686.678	3.86
687.001	3.8
687.324	3.74
687.646	4.59
687.969	3.81
688.292	4.1
688.614	4.26
688.937	4.01
689.26	4.03
689.582	4.04
689.904	4.06
690.227	4.31
690.549	4.08
690.871	4.02
691.194	3.37
691.516	4
691.838	3.54
692.16	2.75
692.482	3.9
692.804	4.31
693.126	3.24
693.448	4.03
693.769	3.74
694.091	3.84
694.413	3.68
694.735	3.57
695.056	3.9
695.378	3.62
695.699	3.86
696.021	3.51
696.342	3.67
696.663	4.51
696.984	2.73
697.306	3.3
697.627	4.47
697.948	4.01
698.269	4.42
698.59	4.37
698.911	3.69
699.232	4.76
699.553	3.48
699.873	3.64
700.194	3.89
700.515	3.95
700.835	4.19
701.156	3.95
701.477	3.74
701.797	4.07
702.117	3.94
702.438	4.2
702.758	4.33
703.078	3.7
703.398	2.92
703.719	4.61
704.039	4.53
704.359	3.83
704.679	3.44
704.999	3.55
705.319	3.84
705.638	4.23
705.958	3.49
706.278	4.58
706.597	3.54
706.917	4.94
707.237	3.61
707.556	4.18
707.876	4.53
708.195	4.62
708.514	4.32
708.834	3.14
709.153	4.78
709.472	5
709.791	3.64
710.11	3.37
710.429	3.64
710.748	4.31
711.067	4.28
711.386	4.48
711.705	3.79
712.023	5.03
712.342	3.37
712.661	4.33
712.979	4.35
713.298	3.94
713.616	4.42
713.935	4.32
714.253	3.19
714.572	3.94
714.89	3.77
715.208	3.88
715.526	3.53
715.844	3.67
716.162	4.16
716.48	3.43
716.798	4.32
717.116	3.52
717.434	3.58
717.752	4.42
718.069	3.8
718.387	3.76
718.705	4.21
719.022	4.27
719.34	3.25
719.657	4.38
719.975	3.06
720.292	3.75
720.609	3.25
720.927	4
721.244	4.41
721.561	2.34
721.878	5.34
722.195	3.58
722.512	4.1
722.829	4.42
723.146	2.78
723.463	3.71
723.779	2.55
724.096	2.55
724.413	5
724.729	3.72
725.046	3.83
725.362	3.38
725.679	2.95
725.995	2.79
726.311	4.31
726.628	3.55
726.944	4.88
727.26	4.25
727.576	5.02
727.892	3.58
728.208	3.17
728.524	3.48
728.84	3.45
729.156	2.93
729.472	3.27
729.787	3.4
730.103	3.86
730.419	3.89
730.734	2.79
731.05	4.13
731.365	4.67
731.681	3.72
731.996	4.61
732.311	4.07
732.626	5.59
732.942	4.79
733.257	4.63
733.572	3.92
733.887	5.68
734.202	4.48
734.517	3.57
734.832	4.88
735.146	4.49
735.461	3.62
735.776	5.02
736.091	5.56
736.405	3.83
736.72	2.62
737.034	3.45
737.349	4.32
737.663	4.62
737.977	5.57
738.292	3.49
738.606	5.02
738.92	5.41
739.234	2.98
739.548	4.63
739.862	5.42
740.176	4.52
740.49	3.98
740.804	3.19
741.117	3.97
741.431	3.36
741.745	4.19
742.058	4.11
742.372	3.65
742.685	4.23
742.999	2.94
743.312	4.14
743.626	4.38
743.939	4.59
744.252	2.93
744.565	4.4
744.878	3.7
745.191	4.6
745.505	7.06
745.817	5.15
746.13	5.21
746.443	3.82
746.756	4.12
747.069	3.03
747.381	3.68
747.694	4.28
748.007	3.48
748.319	4.49
748.632	3.67
748.944	3.52
749.256	4.81
749.569	2.67
749.881	3.89
750.193	4.31
750.505	4.81
750.817	4.21
751.129	4.13
751.441	5.45
751.753	4.27
752.065	3.91
752.377	5.18
752.689	3.17
753	5.7
753.312	5.64
753.624	3.4
753.935	2.26
754.247	3.25
754.558	3.8
754.869	3.64
755.181	3.66
755.492	2.86
755.803	4.6
756.114	4.39
756.425	1.24
756.736	3.79
757.047	4.95
757.358	4.41
757.669	5.14
757.98	3.67
758.291	4.07
758.601	4.16
758.912	3.32
759.223	3.66
759.533	5.18
759.844	3.09
760.154	3.97
760.464	4.53
760.775	5.73
761.085	3.75
761.395	2.21
761.705	3.02
762.016	4.67
762.326	4.11
762.636	4.58
762.945	3.57
763.255	2.33
763.565	4.37
763.875	5.51
764.185	6.76
764.494	3.97
764.804	3.94
765.113	5.78
765.423	5.32
765.732	4.96
766.042	6.15
766.351	5.78
766.66	4.72
766.97	4.69
767.279	4.67
767.588	2.32
767.897	3.98
768.206	3.27
768.515	4.25
768.824	5.01
769.133	1.99
769.441	2.1
769.75	2.76
770.059	4.11
770.367	5.56
770.676	1.47
770.984	0.65
771.293	5.43
771.601	0.38
771.91	2.17
772.218	3.5
772.526	4.28
772.834	3.87
773.142	2.74
773.45	3.09
773.758	5.59
774.066	2.43
774.374	4.42
774.682	2.5
774.99	3.18
775.298	4.76
775.605	2.1
775.913	-1.85
776.22	-1.38
776.528	2.96
776.835	5.93
777.143	6.9
777.45	1.94
777.757	4.23
778.065	1.79
778.372	3.45
778.679	6.13
778.986	3.97
779.293	3.78
779.6	4.74
779.907	4.83
780.214	5.09
780.52	1.98
780.827	3.72
781.134	2.43
781.44	5.55
781.747	3.95
782.053	0.29
782.36	-1.65
782.666	2.57
782.973	1.03
783.279	4.51
783.585	4.19
783.891	2.57
784.197	0.91
784.503	3.88
784.809	4.4
785.115	7.84
785.421	7.28
785.727	2.57
786.033	6.57
786.339	5.44
786.644	1.07
786.95	1.88
787.255	0.27
787.561	3.4
787.866	6.63
788.172	2.28
788.477	4.23
788.782	1.53
789.088	2.61
789.393	5.83
789.698	0.41
790.003	3.04
790.308	2.07
790.613	3.83
790.918	1.33
791.223	2.37
791.527	5
791.832	8.48
792.137	3.43
792.441	1.84
792.746	3.78
793.05	2.85
793.355	4.51
793.659	5.87
793.963	2.51
794.268	7.59
794.572	2.55
794.876	0.74
795.18	3.86
795.484	6.8
795.788	6.86
796.092	2.92
796.396	-0.54
796.7	-1.22
797.004	1.11
797.307	3.58
797.611	0.91
797.915	2.73
798.218	1.61
798.522	1.8
798.825	6.83
799.128	6.17
799.432	0.38
799.735	0.02
800.038	6.12
800.341	1.33
800.644	-2.46
800.947	1.34
801.25	5.25
801.553	6.22
801.856	2.88
802.159	1.24
802.462	2.85
802.764	7.39
803.067	5.59
803.37	2.91
803.672	-1.2
803.975	-3.37
804.277	2.31
804.579	0.49
804.882	4.13
805.184	3.93
805.486	3.09
805.788	7
806.09	6.55
806.392	1.23
806.694	3.35
806.996	6.04
807.298	-2.56
807.6	7.62
807.902	4.21
808.203	0.73
808.505	-4.87
808.807	6.99
809.108	2.4
809.409	1.26
809.711	-0.75
810.012	6.17
810.313	4.04
810.615	7.11
810.916	4.89
811.217	0.08
811.518	-5.68
811.819	2.42
812.12	3.19
812.421	1.02
812.722	5.78
813.023	7.95
813.323	2.19
813.624	6.52
813.925	2.14
814.225	3.1
814.526	-6.25
814.826	1.41
815.126	2.03
815.427	0.32
815.727	3.4
816.027	5.32
816.327	2.06
816.627	6.69
816.927	-0.97
817.227	-0.5
817.527	8.55
817.827	0.5
818.127	-0.18
818.427	-4.85
818.727	-0.77
819.026	2.33
819.326	-0.13
819.625	-2.12
819.925	7.42
820.224	4.88
820.524	-1.64
820.823	2.98
821.122	1.61
821.421	0.53
821.72	-0.26
822.019	0.05
822.318	5.43
822.617	4.13
822.916	2.93
823.215	4.17
823.514	6.01
823.813	6.19
824.111	4.3
824.41	6.45
824.709	6
825.007	5.35
825.306	7.22
825.604	6.22
825.902	6.53
826.201	6.78
826.499	5.89
826.797	6.98
827.095	7.99
827.393	7.19
827.691	7.34
827.989	6.77
828.287	6.56
828.585	4
828.882	5.47
829.18	4.88
829.478	7.06
829.775	7.35
830.073	7.06
830.37	5.22
830.668	6.33
830.965	5.26
831.263	4.16
831.56	9.48
831.857	8
832.154	2.6
832.451	6.09
832.748	5.65
833.045	8.41
833.342	1.03
833.639	9.27
833.936	-1.05
834.232	5.77
834.529	5.28
834.826	7.03
835.122	3.52
835.419	3.68
835.715	0.72
836.012	2.9
836.308	9.09
836.604	3.7
836.901	2.63
837.197	6.85
837.493	7.06
837.789	4.04
838.085	-1.85
838.381	6.48
838.677	7.5
838.972	2.93
839.268	4.42
839.564	6.64
839.86	-4.71
840.155	6.04
840.451	1.75
840.746	0.53
841.042	-8.22
841.337	1.15
841.632	2.72
841.928	1.92
842.223	-0.8
842.518	0.72
842.813	3.71
843.108	1.73
843.403	6.38
843.698	-2.74
843.993	6.62
844.287	4.33
844.582	3.14
844.877	-0.84
845.171	-5.41
845.466	0.56
845.761	6.92
846.055	7.13
846.349	-6.96
846.644	1.65
846.938	-4.25
847.232	-9.28
847.526	-8.15
847.82	-15.46
848.114	0.58
848.408	-1.91
848.702	6.42
848.996	10.86
849.29	7.68
849.584	-17.28
849.877	-9.37
850.171	18.56
850.465	-3
850.758	-16.4
851.052	-19.37
851.345	7.42
851.638	-5.66
851.932	-9.04
852.225	0.65
852.518	-8.54
852.811	-32.16
853.104	-5.24
853.397	-5.06
853.69	-9.8
853.983	-13.71
854.276	0.7
854.569	-23.01
854.861	-31.08
855.154	3.31
855.447	-30.97
855.739	-44.32
856.032	1.4
856.324	-10.77
856.616	4.89
856.909	-15.47
857.201	-30.29
857.493	-19.13
857.785	-1.36
858.077	-1.55
858.369	-6.48
858.661	-3.1
858.953	-3.33
859.245	-11.24
859.537	-34.19
859.829	-17.34
860.12	0.57
860.412	-2.56
860.703	-5.67
860.995	-4.88
861.286	-33.73
861.578	3.15
861.869	-5.08
862.16	-4.61
862.452	-57.02
862.743	-7.71
863.034	20.35
863.325	-1.67
863.616	-23.57
863.907	11.99
864.198	-25.01
864.488	-0.19
864.779	-2.72
865.07	-11.31
865.36	12.84
865.651	-7.48
865.941	-24.69
866.232	8.84
866.522	-11.26
866.813	2.32
867.103	-52.31
867.393	6.42
867.683	-6.48
867.973	-20.23
868.263	-44.64
868.553	-6.68
868.843	-21.89
869.133	6.75
869.423	-7.4
869.713	-13.23
870.002	9.99
870.292	-7.59
870.582	-21.49
870.871	-13.79
871.161	-8.29
871.45	-13.94
871.739	7.56
872.029	-20.07
872.318	-3.15
872.607	4.14
872.896	-1.82
873.185	11.61
873.474	-73.65
873.763	12.38
874.052	-9.97
874.341	-19.38
874.63	-23.75
874.918	-14.46
875.207	-15.91
875.496	9.77
875.784	-37.22
876.073	-3.18
876.361	-5.63
876.649	-26.98
876.938	-12.84
877.226	-8.45
877.514	-13.62
877.802	-45.56
878.09	0.13
878.378	-12.08
878.666	8.95
878.954	14.11
879.242	5.08
879.53	-0.78
879.817	-36.3
880.105	4.91
880.392	-14.21
880.68	-16.19
880.967	-9.47
881.255	18.07
881.542	-31.06
881.83	12.79
882.117	-28.65
882.404	-22.4
882.691	-29.45
882.978	3.29
883.265	-15.33
883.552	-6.62
883.839	-3.11
884.126	10.28
884.413	1.81
884.699	6.76
884.986	6.41
885.273	9.24
885.559	9.24
885.846	9.24
