Data from 0043_crown_Reflection__4__144.txt Node

Date: Fri Nov 04 16:00:45 CDT 2022
User: ToomeyLab
Spectrometer: FLMS14357
Trigger mode: 0
Integration Time (sec): 1.000000E-2
Scans to average: 100
Electric dark correction enabled: true
Nonlinearity correction enabled: false
Boxcar width: 0
XAxis mode: Wavelengths
Number of Pixels in Spectrum: 2048
>>>>>Begin Spectral Data<<<<<
189.047	21.11
189.435	21.11
189.823	21.11
190.211	-41.18
190.599	302.23
190.987	54.25
191.375	93.13
191.763	-330.18
192.151	-100.8
192.538	1.69
192.926	-9.65
193.314	-110.44
193.702	13.46
194.089	-14.66
194.477	13.54
194.864	297.22
195.252	68.01
195.639	-299.51
196.027	47.97
196.414	-542.78
196.801	78.2
197.189	73.02
197.576	-869.16
197.963	25.52
198.351	-48.79
198.738	15.09
199.125	-10.94
199.512	27.21
199.899	-21.68
200.286	-22.29
200.673	-8.95
201.06	5.98
201.447	-26.43
201.833	27.38
202.22	11.5
202.607	-10.36
202.994	35.28
203.38	18.76
203.767	12.79
204.154	26.53
204.54	-100.45
204.927	-19.13
205.313	13.81
205.699	-0.41
206.086	2.67
206.472	10.42
206.858	28.51
207.245	17.92
207.631	-19.16
208.017	0.22
208.403	8.3
208.789	17.59
209.175	28.73
209.561	-42.75
209.947	-99.62
210.333	-7.14
210.719	-1.97
211.105	-22.06
211.491	-17.13
211.876	-10.89
212.262	-8.11
212.648	-22.04
213.034	4.29
213.419	-27.45
213.805	-17.04
214.19	-49.69
214.576	15.49
214.961	18.88
215.346	-21.88
215.732	29.03
216.117	1.19
216.502	31.09
216.888	-19.87
217.273	-8.07
217.658	-16.53
218.043	-14.71
218.428	12.28
218.813	-9.19
219.198	-3.2
219.583	-13.74
219.968	10.28
220.353	-55.57
220.738	-24.52
221.122	-1.29
221.507	-7.76
221.892	-1.4
222.276	-10.58
222.661	-12.2
223.046	-13.76
223.43	-1.19
223.815	-15.7
224.199	0.27
224.583	6.88
224.968	-5.53
225.352	4.64
225.736	-10.27
226.121	-5.3
226.505	7
226.889	-5.7
227.273	1.01
227.657	1.36
228.041	1.84
228.425	5.88
228.809	5.7
229.193	1.52
229.577	1.94
229.961	3.28
230.344	3.93
230.728	3.14
231.112	3.11
231.495	2.89
231.879	3.66
232.263	2.6
232.646	3.02
233.03	2.45
233.413	1.09
233.797	2.74
234.18	2.81
234.563	3.6
234.946	2.44
235.33	5.61
235.713	3.43
236.096	3.69
236.479	2.44
236.862	2.67
237.245	1.6
237.628	2.52
238.011	1.87
238.394	4.17
238.777	1.54
239.16	3.55
239.543	2.53
239.925	4
240.308	3.98
240.691	1.55
241.073	2.65
241.456	2.93
241.838	1.79
242.221	2.47
242.603	3.2
242.986	2.97
243.368	2.78
243.75	3.03
244.133	3.33
244.515	2.85
244.897	2.83
245.279	2.49
245.661	3.59
246.043	3.04
246.425	2.76
246.807	3.34
247.189	2.36
247.571	3.49
247.953	2.76
248.335	2.96
248.717	3.13
249.098	2.93
249.48	3.02
249.862	3.08
250.243	2.54
250.625	2.77
251.006	3.04
251.388	3.08
251.769	3.26
252.151	3.71
252.532	2.9
252.913	1.99
253.295	3.2
253.676	2.46
254.057	2.74
254.438	2.69
254.819	2.9
255.2	3.16
255.581	3.1
255.962	3.47
256.343	2.21
256.724	2.3
257.105	2.43
257.486	2.4
257.867	4.8
258.247	3.55
258.628	2.06
259.009	2.18
259.389	2.8
259.77	2.76
260.15	2.79
260.531	3.04
260.911	2.71
261.292	2.63
261.672	2.48
262.052	2.69
262.432	2.77
262.813	2.5
263.193	1.81
263.573	2.46
263.953	2.2
264.333	2.58
264.713	2.73
265.093	2.3
265.473	3.05
265.853	1.5
266.233	2.85
266.612	3.19
266.992	2.27
267.372	1.88
267.752	2.98
268.131	3.14
268.511	2.67
268.89	3.01
269.27	2.47
269.649	2.43
270.029	2.38
270.408	2.76
270.787	2.77
271.167	2.36
271.546	3.1
271.925	2.33
272.304	2.49
272.683	2.26
273.062	2.41
273.441	2.92
273.82	2.89
274.199	2.32
274.578	2.27
274.957	2.28
275.336	2.1
275.715	2.41
276.093	2.48
276.472	2.65
276.851	2.79
277.229	2.59
277.608	2.89
277.986	3.01
278.365	2.94
278.743	2.82
279.122	2.18
279.5	2.33
279.878	2.29
280.257	2.73
280.635	2.07
281.013	2.87
281.391	2.84
281.769	2.52
282.147	2.49
282.525	2.99
282.903	2.26
283.281	2.86
283.659	2.55
284.037	2.55
284.415	2.45
284.792	2.61
285.17	2.38
285.548	3.01
285.925	2.78
286.303	2.57
286.68	2.7
287.058	2.45
287.435	2.38
287.813	2.43
288.19	2.42
288.567	2.17
288.945	2.52
289.322	2.6
289.699	2.87
290.076	2.6
290.453	2.32
290.83	2.32
291.207	2.54
291.584	2.65
291.961	2.68
292.338	3.01
292.715	2.77
293.092	2.66
293.469	2.21
293.845	2.2
294.222	2.42
294.599	2.02
294.975	2.53
295.352	2.12
295.728	2.18
296.105	2.28
296.481	2.08
296.858	2.23
297.234	2.92
297.61	2.81
297.986	2.01
298.363	1.98
298.739	2.44
299.115	2.46
299.491	2.45
299.867	2.47
300.243	2.28
300.619	2.58
300.995	2.8
301.371	2.76
301.746	2.36
302.122	2.47
302.498	2.17
302.874	2.89
303.249	2.04
303.625	2.63
304	2.48
304.376	1.87
304.751	2.32
305.127	2.01
305.502	2.03
305.878	2.53
306.253	2.44
306.628	2.37
307.003	2.36
307.378	2.18
307.754	2.24
308.129	2.34
308.504	2.23
308.879	2.09
309.254	2.79
309.629	2.39
310.003	2.56
310.378	2.52
310.753	2.28
311.128	2.41
311.502	2.02
311.877	2.24
312.252	2.27
312.626	2.37
313.001	2.43
313.375	2.39
313.75	2.44
314.124	2.31
314.498	2.43
314.873	2.48
315.247	2.49
315.621	2.76
315.995	2.62
316.369	2.12
316.743	2.41
317.117	2.71
317.491	2.81
317.865	2
318.239	2.33
318.613	2.76
318.987	2.32
319.361	2
319.734	2.56
320.108	2.17
320.482	1.86
320.855	2.29
321.229	2.18
321.602	2.02
321.976	2.12
322.349	3.2
322.723	2.83
323.096	2.45
323.469	2.19
323.843	2.34
324.216	2.16
324.589	2.78
324.962	2.98
325.335	2.41
325.708	1.72
326.081	2.15
326.454	2.34
326.827	2.27
327.2	2.32
327.573	2.56
327.945	2.58
328.318	1.91
328.691	2.14
329.063	2.41
329.436	2.54
329.809	2.53
330.181	1.97
330.553	2.44
330.926	2.28
331.298	2.41
331.671	2.23
332.043	2.72
332.415	1.86
332.787	2.3
333.159	2.14
333.532	1.87
333.904	2.33
334.276	2.4
334.648	2.51
335.02	1.62
335.391	2.46
335.763	2.39
336.135	2.7
336.507	2.1
336.879	2.11
337.25	2.46
337.622	2.32
337.993	2.27
338.365	2.04
338.736	2.69
339.108	2.98
339.479	2.57
339.851	2.18
340.222	2.1
340.593	2.77
340.964	2.3
341.336	2.5
341.707	1.82
342.078	2.58
342.449	2.45
342.82	2.5
343.191	2.37
343.562	2.76
343.933	2.78
344.303	2.72
344.674	2.71
345.045	2.11
345.416	2
345.786	2.73
346.157	2.5
346.527	2.52
346.898	2.83
347.268	2.2
347.639	2.31
348.009	2.65
348.38	2.64
348.75	2.13
349.12	2.61
349.49	2.71
349.861	2.31
350.231	2.41
350.601	2.48
350.971	2.19
351.341	2.27
351.711	2.03
352.081	2.4
352.45	2.62
352.82	2.54
353.19	2.39
353.56	2.54
353.929	2.5
354.299	2.8
354.669	2.5
355.038	2.94
355.408	2.13
355.777	2.62
356.147	2.17
356.516	2.02
356.885	2.17
357.254	2.57
357.624	2.55
357.993	2.38
358.362	1.98
358.731	2.22
359.1	2.39
359.469	2.42
359.838	2.53
360.207	2.22
360.576	2.85
360.945	2.84
361.314	2.71
361.682	2.48
362.051	2.83
362.42	2.7
362.788	2.32
363.157	2.5
363.525	2.57
363.894	2.58
364.262	2.65
364.631	2.69
364.999	2.65
365.367	2.67
365.735	2.93
366.104	2.52
366.472	2.77
366.84	2.15
367.208	2.77
367.576	2.7
367.944	3.13
368.312	2.5
368.68	2.69
369.048	2.28
369.416	2.41
369.783	2.44
370.151	2.42
370.519	3.09
370.886	2.3
371.254	2.53
371.621	2.83
371.989	2.64
372.356	2.28
372.724	2.72
373.091	2.63
373.458	2.33
373.826	2.88
374.193	2.48
374.56	2.31
374.927	2.93
375.294	2.42
375.661	2.72
376.028	2.58
376.395	2.67
376.762	3.04
377.129	2.78
377.496	2.7
377.863	2.64
378.229	2.5
378.596	2.74
378.963	2.69
379.329	2.3
379.696	2.68
380.062	2.98
380.429	2.66
380.795	2.86
381.161	2.55
381.528	2.88
381.894	2.29
382.26	2.76
382.626	2.51
382.993	2.79
383.359	2.58
383.725	2.7
384.091	2.83
384.457	2.8
384.823	2.62
385.188	2.79
385.554	2.68
385.92	2.37
386.286	2.46
386.651	2.7
387.017	2.5
387.383	2.62
387.748	2.6
388.114	2.65
388.479	3.28
388.845	2.7
389.21	3.26
389.575	2.9
389.94	2.64
390.306	2.63
390.671	2.71
391.036	2.64
391.401	3
391.766	2.5
392.131	2.57
392.496	2.78
392.861	2.63
393.226	2.4
393.591	2.6
393.956	2.94
394.32	2.77
394.685	2.8
395.05	2.79
395.414	2.68
395.779	2.56
396.143	2.59
396.508	2.72
396.872	2.81
397.236	2.97
397.601	2.81
397.965	2.78
398.329	2.89
398.694	3.06
399.058	2.79
399.422	2.71
399.786	2.68
400.15	2.85
400.514	2.79
400.878	2.65
401.242	2.67
401.605	2.65
401.969	3.05
402.333	2.78
402.697	2.95
403.06	2.9
403.424	2.71
403.787	2.8
404.151	3.01
404.514	2.82
404.878	2.85
405.241	2.79
405.604	2.79
405.968	2.7
406.331	2.78
406.694	2.69
407.057	2.95
407.42	2.74
407.783	2.77
408.146	2.83
408.509	2.62
408.872	3
409.235	2.73
409.598	2.78
409.961	2.86
410.323	2.87
410.686	2.81
411.049	2.72
411.411	2.63
411.774	2.83
412.136	3.16
412.499	3
412.861	2.87
413.223	2.85
413.586	2.75
413.948	2.77
414.31	2.73
414.672	2.82
415.035	2.83
415.397	2.75
415.759	3.1
416.121	2.62
416.483	2.89
416.845	2.78
417.206	2.83
417.568	3.05
417.93	2.99
418.292	2.78
418.653	2.96
419.015	2.73
419.377	2.91
419.738	2.82
420.1	3.03
420.461	2.88
420.822	2.81
421.184	2.9
421.545	2.71
421.906	2.88
422.267	2.76
422.629	2.87
422.99	2.73
423.351	2.8
423.712	2.82
424.073	2.87
424.434	2.74
424.795	2.79
425.155	2.9
425.516	2.88
425.877	2.84
426.238	2.7
426.598	2.79
426.959	2.75
427.32	2.81
427.68	2.84
428.041	2.69
428.401	2.93
428.761	2.93
429.122	2.89
429.482	2.93
429.842	2.68
430.202	2.9
430.563	2.92
430.923	3.01
431.283	2.79
431.643	2.98
432.003	3.11
432.363	3.05
432.722	2.87
433.082	3
433.442	2.87
433.802	2.75
434.161	2.83
434.521	2.87
434.881	2.98
435.24	2.76
435.6	2.95
435.959	2.93
436.319	2.93
436.678	2.91
437.037	2.93
437.396	2.93
437.756	2.9
438.115	2.81
438.474	2.92
438.833	3.03
439.192	2.89
439.551	2.88
439.91	2.9
440.269	3
440.628	3.03
440.987	2.87
441.345	2.92
441.704	3.02
442.063	2.87
442.421	3.06
442.78	2.94
443.138	3.07
443.497	2.83
443.855	2.87
444.214	2.95
444.572	3.01
444.93	2.94
445.288	3.06
445.647	2.88
446.005	2.85
446.363	2.86
446.721	2.92
447.079	2.87
447.437	2.98
447.795	2.85
448.153	2.81
448.51	2.96
448.868	2.9
449.226	2.87
449.584	2.86
449.941	2.85
450.299	2.9
450.656	2.97
451.014	3.01
451.371	3.03
451.729	3.01
452.086	2.97
452.443	2.86
452.801	2.85
453.158	3.05
453.515	2.98
453.872	2.84
454.229	3.12
454.586	2.96
454.943	3
455.3	2.94
455.657	2.8
456.014	2.98
456.371	2.86
456.727	3.05
457.084	3.24
457.441	2.98
457.797	3
458.154	3.06
458.51	3.08
458.867	2.97
459.223	2.98
459.58	3.21
459.936	2.79
460.292	2.97
460.648	2.98
461.005	2.9
461.361	2.98
461.717	2.9
462.073	2.96
462.429	3.02
462.785	2.99
463.141	3.03
463.496	2.89
463.852	3.18
464.208	3.03
464.564	3.04
464.919	3.08
465.275	3
465.631	3.06
465.986	3.1
466.342	2.88
466.697	2.9
467.052	3.04
467.408	2.96
467.763	3.12
468.118	3.27
468.473	3.15
468.829	2.91
469.184	2.97
469.539	2.97
469.894	3.13
470.249	3.04
470.603	2.98
470.958	2.9
471.313	2.9
471.668	2.98
472.023	2.95
472.377	3.12
472.732	3.11
473.086	3.06
473.441	2.99
473.795	2.94
474.15	3.08
474.504	3.09
474.859	2.86
475.213	2.99
475.567	3.08
475.921	3.02
476.275	3.07
476.63	3.08
476.984	2.89
477.338	2.97
477.692	3.13
478.045	3.04
478.399	2.9
478.753	3.04
479.107	3.03
479.461	3.11
479.814	3.15
480.168	3.17
480.521	2.93
480.875	3.06
481.228	3.12
481.582	3.19
481.935	3.02
482.289	3.04
482.642	3.01
482.995	3.07
483.348	3.02
483.701	3.02
484.055	2.93
484.408	3.13
484.761	2.98
485.114	2.88
485.466	2.83
485.819	2.81
486.172	2.82
486.525	2.86
486.878	2.91
487.23	2.9
487.583	2.92
487.936	2.99
488.288	2.91
488.641	2.9
488.993	2.91
489.345	2.85
489.698	2.86
490.05	2.91
490.402	2.9
490.754	2.94
491.107	2.99
491.459	2.96
491.811	2.93
492.163	3.06
492.515	3.11
492.866	3.05
493.218	2.91
493.57	2.86
493.922	2.92
494.274	2.91
494.625	2.99
494.977	3.11
495.328	3.03
495.68	2.97
496.031	3.05
496.383	3.05
496.734	3.03
497.086	3.25
497.437	3.11
497.788	3.07
498.139	3.04
498.49	3.03
498.842	3.11
499.193	3.11
499.544	3.17
499.894	3.03
500.245	3.09
500.596	3.13
500.947	3
501.298	3.09
501.648	3.06
501.999	3.21
502.35	3.09
502.7	2.98
503.051	3.09
503.401	3.07
503.752	3.22
504.102	3.18
504.452	3.14
504.803	3.14
505.153	3.2
505.503	3.07
505.853	3.11
506.203	3.08
506.553	3.18
506.903	3.09
507.253	3.17
507.603	3.03
507.953	3.02
508.303	3.1
508.652	3.08
509.002	3.21
509.352	3.19
509.701	3.02
510.051	3.03
510.4	3.07
510.75	3.21
511.099	3.09
511.449	3.11
511.798	3.1
512.147	3.2
512.496	3.03
512.846	2.95
513.195	3.13
513.544	3.07
513.893	3.08
514.242	3.08
514.591	3.1
514.939	3.24
515.288	3.08
515.637	3.16
515.986	3.1
516.334	3.15
516.683	3.11
517.032	3.2
517.38	3.14
517.729	3.2
518.077	3.19
518.426	3.17
518.774	3.12
519.122	3.04
519.47	3.09
519.819	3.02
520.167	2.98
520.515	3
520.863	2.92
521.211	3.02
521.559	3.15
521.907	3.09
522.255	3.12
522.602	3.11
522.95	3.04
523.298	3.24
523.645	3.16
523.993	3.12
524.341	3.17
524.688	3.29
525.036	3.12
525.383	3.27
525.73	3.13
526.078	3.21
526.425	3.27
526.772	3.03
527.119	3.04
527.466	3.03
527.814	3.05
528.161	3.13
528.508	3
528.854	2.98
529.201	2.97
529.548	3
529.895	3
530.242	2.91
530.588	2.92
530.935	2.93
531.282	2.99
531.628	2.9
531.975	3.01
532.321	3.13
532.667	3.07
533.014	3.05
533.36	3.12
533.706	3.13
534.052	3.1
534.399	3.08
534.745	3.05
535.091	2.92
535.437	2.97
535.783	2.96
536.129	3.08
536.474	3.1
536.82	3.03
537.166	3.05
537.512	3.18
537.857	3.19
538.203	3.06
538.549	2.95
538.894	3.1
539.239	3.14
539.585	3.11
539.93	3
540.276	3.04
540.621	3.05
540.966	3.16
541.311	2.99
541.656	3.07
542.001	3.12
542.346	3.09
542.691	3.12
543.036	3.02
543.381	2.99
543.726	3.02
544.071	3
544.415	3.05
544.76	3.05
545.105	3.05
545.449	3.07
545.794	3.1
546.138	3.03
546.483	3.17
546.827	3.14
547.171	3.12
547.516	3.23
547.86	3.1
548.204	3.13
548.548	3.06
548.892	3.08
549.236	3.15
549.58	3.08
549.924	3.15
550.268	3.15
550.612	3.12
550.956	3.23
551.3	3.26
551.643	3.15
551.987	3.06
552.33	3.19
552.674	3.15
553.017	3.37
553.361	3.28
553.704	3.13
554.048	3.12
554.391	3.05
554.734	3.14
555.077	3.1
555.42	3.24
555.764	3.37
556.107	3.38
556.45	3.32
556.793	3.18
557.135	3.13
557.478	2.97
557.821	3.28
558.164	3.32
558.507	3.23
558.849	3.27
559.192	3.45
559.534	3.36
559.877	3.25
560.219	3.12
560.562	3.38
560.904	3.46
561.246	3.15
561.589	3.24
561.931	3.11
562.273	3.13
562.615	3.06
562.957	3.15
563.299	3.16
563.641	3.25
563.983	3.37
564.325	3.05
564.667	3.32
565.008	3.19
565.35	3.3
565.692	3.28
566.033	3.38
566.375	3.2
566.716	3.28
567.058	3.38
567.399	3.29
567.741	3.33
568.082	3.29
568.423	3.18
568.764	3.04
569.105	3.26
569.447	3.32
569.788	3.02
570.129	3.25
570.47	3.36
570.811	3.33
571.151	3.25
571.492	3.42
571.833	3.22
572.174	3.4
572.514	3.16
572.855	3
573.195	3.27
573.536	3.19
573.876	3.15
574.217	3.22
574.557	3.14
574.898	3.31
575.238	3.2
575.578	3.34
575.918	3.38
576.258	3.27
576.598	3.1
576.938	3.23
577.278	3.14
577.618	3.05
577.958	3.3
578.298	3.22
578.638	3.07
578.977	3.34
579.317	3.23
579.657	3.36
579.996	3.28
580.336	3.22
580.675	3.14
581.014	3.36
581.354	3.24
581.693	3.39
582.032	3.2
582.372	3.29
582.711	3.14
583.05	3.36
583.389	3.28
583.728	3.2
584.067	3.4
584.406	2.91
584.745	3.31
585.083	3.15
585.422	3.2
585.761	3.45
586.1	3.09
586.438	3.07
586.777	3.31
587.115	2.98
587.454	3.44
587.792	3.54
588.13	3.35
588.469	3.38
588.807	3.28
589.145	3.28
589.483	2.69
589.821	3.6
590.159	2.94
590.497	3.65
590.835	3.21
591.173	3.16
591.511	3.39
591.849	3.27
592.187	3.19
592.524	3.26
592.862	3.27
593.2	3.36
593.537	3.13
593.875	3.35
594.212	3.08
594.55	3.08
594.887	3.41
595.224	3.45
595.561	3.15
595.899	3.1
596.236	3.36
596.573	3.32
596.91	3.27
597.247	3.19
597.584	2.95
597.921	3.33
598.258	3.27
598.594	2.85
598.931	3.2
599.268	3.26
599.604	3.31
599.941	3.32
600.277	3.24
600.614	3.25
600.95	3.46
601.287	3.34
601.623	3.37
601.959	3.37
602.296	3.39
602.632	3.32
602.968	3.62
603.304	3.2
603.64	3.45
603.976	3.17
604.312	3.34
604.648	3.53
604.984	3.24
605.319	3.18
605.655	3.25
605.991	3.37
606.326	3.25
606.662	3.21
606.998	3.12
607.333	3.24
607.668	3.3
608.004	3.13
608.339	3.04
608.674	3.55
609.01	3.15
609.345	3.27
609.68	3.17
610.015	3.25
610.35	3.13
610.685	3.4
611.02	3.49
611.355	3.42
611.689	3.36
612.024	3.33
612.359	3.16
612.694	3.18
613.028	3.3
613.363	3.33
613.697	3.15
614.032	3.3
614.366	3.32
614.7	3.36
615.035	3.55
615.369	3.22
615.703	3.66
616.037	3.35
616.371	3.72
616.705	3.25
617.039	3.27
617.373	3.44
617.707	3.58
618.041	3.36
618.375	3.37
618.709	3.25
619.042	3.09
619.376	3
619.71	3.13
620.043	3.47
620.377	3.36
620.71	3.66
621.043	3.43
621.377	3.39
621.71	3.53
622.043	3.5
622.376	3.25
622.709	3.44
623.043	3.62
623.376	3.73
623.709	3.49
624.041	3.32
624.374	3.14
624.707	3.07
625.04	3.26
625.373	3.64
625.705	3.14
626.038	3.26
626.37	3.49
626.703	3.32
627.035	2.97
627.368	3.31
627.7	2.99
628.032	3.45
628.365	3.64
628.697	3.23
629.029	3.15
629.361	3.44
629.693	3.52
630.025	3.63
630.357	3.29
630.689	3.23
631.021	3.07
631.353	3.43
631.684	3.28
632.016	3.55
632.348	3.46
632.679	3.31
633.011	3.07
633.342	3.41
633.674	3.13
634.005	3.35
634.336	3.35
634.668	3.25
634.999	3.43
635.33	3.1
635.661	3.57
635.992	3.58
636.323	3.44
636.654	3.13
636.985	3.44
637.316	3.37
637.647	3.24
637.977	3.78
638.308	3.42
638.639	3.55
638.969	2.93
639.3	3.73
639.63	3.52
639.961	3.37
640.291	3.5
640.622	3.76
640.952	3.63
641.282	3.54
641.612	3.65
641.943	3.35
642.273	2.86
642.603	3.75
642.933	2.98
643.263	2.82
643.592	3.54
643.922	3.95
644.252	3.7
644.582	3.5
644.911	3.66
645.241	3.14
645.571	2.91
645.9	3.03
646.23	3.12
646.559	3.7
646.888	3.73
647.218	3.55
647.547	3.63
647.876	3.56
648.205	2.92
648.534	3.93
648.863	3.25
649.192	3.27
649.521	3.03
649.85	3.75
650.179	3.42
650.508	3.3
650.837	3.73
651.165	3.66
651.494	3.24
651.822	3.38
652.151	3.57
652.479	3.13
652.808	3.75
653.136	3.34
653.465	3.47
653.793	3.35
654.121	3.42
654.449	2.72
654.777	2.66
655.105	3.32
655.433	3.3
655.761	3.39
656.089	3.32
656.417	3.12
656.745	3.14
657.073	3.1
657.4	3.31
657.728	3.29
658.056	3.11
658.383	3.32
658.711	3.16
659.038	3.6
659.365	3.75
659.693	3.74
660.02	3.77
660.347	3.27
660.674	3.27
661.001	3.22
661.329	3.25
661.656	3.71
661.982	3.17
662.309	3.43
662.636	3.26
662.963	3.09
663.29	3.05
663.616	3.76
663.943	3.84
664.27	3.73
664.596	3.55
664.923	3.61
665.249	3.62
665.576	3.45
665.902	2.78
666.228	3.01
666.554	4.3
666.881	3.38
667.207	3.78
667.533	3.39
667.859	3.7
668.185	3.7
668.511	3.49
668.837	2.84
669.162	3.9
669.488	2.96
669.814	3.18
670.139	3.33
670.465	3.36
670.791	3.6
671.116	4.03
671.442	3.33
671.767	3.32
672.092	3.72
672.418	3.84
672.743	3.65
673.068	3.67
673.393	3.77
673.718	3.87
674.043	3.61
674.368	3.15
674.693	3.57
675.018	3.78
675.343	3.4
675.667	3.9
675.992	3.55
676.317	2.99
676.641	3.84
676.966	3.31
677.29	3.87
677.615	3.43
677.939	3.5
678.264	4.11
678.588	3.51
678.912	3.78
679.236	3.53
679.56	3.06
679.885	3.91
680.209	3.76
680.532	3.69
680.856	3.53
681.18	3.53
681.504	3.7
681.828	3.28
682.152	3.71
682.475	3.19
682.799	3.88
683.122	3.83
683.446	3.62
683.769	3.15
684.093	3.38
684.416	3.08
684.739	3.23
685.062	4.66
685.386	3.69
685.709	4.04
686.032	3.72
686.355	4.92
686.678	3.65
687.001	3.65
687.324	3.51
687.646	3.46
687.969	3.39
688.292	3.25
688.614	4.06
688.937	3.84
689.26	3.52
689.582	4.61
689.904	3.64
690.227	3.47
690.549	3.33
690.871	3.16
691.194	4.28
691.516	3.08
691.838	3.52
692.16	3.86
692.482	3.02
692.804	3.52
693.126	3.34
693.448	3.61
693.769	3.65
694.091	4.44
694.413	3.53
694.735	4.75
695.056	3.18
695.378	3.67
695.699	4.69
696.021	4.44
696.342	4.03
696.663	3.71
696.984	3.67
697.306	3.46
697.627	3.6
697.948	2.77
698.269	4.27
698.59	3.47
698.911	3.57
699.232	3.6
699.553	4.07
699.873	2.94
700.194	3.76
700.515	3.53
700.835	3.85
701.156	3.59
701.477	3.4
701.797	3.91
702.117	3.81
702.438	3.67
702.758	3.91
703.078	4
703.398	3.78
703.719	3.12
704.039	3.89
704.359	4.7
704.679	3.55
704.999	2.72
705.319	3.76
705.638	4.05
705.958	3.72
706.278	3.86
706.597	2.98
706.917	3.83
707.237	3.43
707.556	3.08
707.876	2.98
708.195	3.83
708.514	3.61
708.834	3.98
709.153	4.35
709.472	4.15
709.791	3.09
710.11	2.74
710.429	4.28
710.748	3.99
711.067	3.75
711.386	3.82
711.705	3.77
712.023	4.24
712.342	4.15
712.661	3.09
712.979	3.55
713.298	2.65
713.616	3.37
713.935	3.12
714.253	4.17
714.572	3.24
714.89	4.1
715.208	3.75
715.526	3.88
715.844	3.35
716.162	4.05
716.48	3.65
716.798	4.44
717.116	3.32
717.434	3.43
717.752	3.43
718.069	4.47
718.387	2.89
718.705	4.21
719.022	4.22
719.34	3.92
719.657	3.29
719.975	3.5
720.292	5.06
720.609	4.3
720.927	4.28
721.244	3.29
721.561	3.79
721.878	3.37
722.195	5.08
722.512	4.36
722.829	4.37
723.146	3.35
723.463	4.1
723.779	5.28
724.096	5.16
724.413	4.75
724.729	4.29
725.046	3.41
725.362	3.84
725.679	4.41
725.995	4.58
726.311	4.7
726.628	4.56
726.944	4.29
727.26	3.85
727.576	3.81
727.892	5.14
728.208	4.66
728.524	3.01
728.84	3.07
729.156	3.76
729.472	4.68
729.787	4.56
730.103	3.93
730.419	4.89
730.734	3.48
731.05	4.78
731.365	4.33
731.681	3.35
731.996	5.08
732.311	4.06
732.626	3.55
732.942	2.91
733.257	4.21
733.572	4
733.887	4.7
734.202	4.64
734.517	2.68
734.832	5.34
735.146	4.17
735.461	4.72
735.776	2.38
736.091	4.27
736.405	3.16
736.72	2.85
737.034	2.96
737.349	3.35
737.663	3.52
737.977	4.19
738.292	4.65
738.606	5
738.92	3.39
739.234	2.81
739.548	5.69
739.862	5.57
740.176	3.39
740.49	2.22
740.804	4.92
741.117	3.52
741.431	4.73
741.745	4.17
742.058	4.43
742.372	1.64
742.685	3.45
742.999	5.02
743.312	5.13
743.626	4.36
743.939	5.41
744.252	2.06
744.565	1.12
744.878	4.89
745.191	4.68
745.505	3.71
745.817	2.5
746.13	3.97
746.443	5.11
746.756	3
747.069	3.59
747.381	3.99
747.694	5.2
748.007	3.53
748.319	3.68
748.632	3.18
748.944	4.3
749.256	3.52
749.569	5.5
749.881	3.39
750.193	4.31
750.505	4.68
750.817	4.11
751.129	4.83
751.441	2.86
751.753	3.19
752.065	4.6
752.377	3.44
752.689	2.95
753	2.2
753.312	5.26
753.624	4.12
753.935	4.55
754.247	5.62
754.558	3.76
754.869	3.89
755.181	3.03
755.492	4.84
755.803	4.56
756.114	5.56
756.425	4.47
756.736	5.59
757.047	7.01
757.358	3.31
757.669	4.46
757.98	2.49
758.291	3.15
758.601	3.72
758.912	4.79
759.223	5.76
759.533	2.98
759.844	2.54
760.154	5.02
760.464	4.42
760.775	5.47
761.085	4.09
761.395	4.47
761.705	3.65
762.016	4.27
762.326	4.88
762.636	4.87
762.945	4.6
763.255	2.94
763.565	4.91
763.875	5.1
764.185	2.56
764.494	3.97
764.804	4.9
765.113	6.1
765.423	4.26
765.732	4.13
766.042	4.03
766.351	5.07
766.66	4.9
766.97	4.47
767.279	3.82
767.588	4.16
767.897	4.29
768.206	5.59
768.515	4.43
768.824	3.55
769.133	5.25
769.441	4.18
769.75	5.52
770.059	3.27
770.367	4.07
770.676	4.81
770.984	5.28
771.293	5.59
771.601	4.85
771.91	4.34
772.218	3.2
772.526	1.65
772.834	3.61
773.142	3.49
773.45	2.85
773.758	6.16
774.066	2.41
774.374	5.64
774.682	3.94
774.99	5.9
775.298	4.14
775.605	6.24
775.913	2.56
776.22	4.15
776.528	4.9
776.835	4.43
777.143	1.35
777.45	3.87
777.757	3.72
778.065	4.01
778.372	5.33
778.679	5.66
778.986	3.13
779.293	4.56
779.6	6.67
779.907	5.52
780.214	3.54
780.52	6.78
780.827	6.32
781.134	4.64
781.44	2.22
781.747	6.14
782.053	5.64
782.36	2.59
782.666	3.56
782.973	3.51
783.279	7.13
783.585	1.3
783.891	6.42
784.197	-0.58
784.503	1.88
784.809	6.82
785.115	5.98
785.421	2.78
785.727	5.91
786.033	0.82
786.339	4.27
786.644	1.25
786.95	0.99
787.255	2.85
787.561	2.75
787.866	1.36
788.172	5.44
788.477	3.03
788.782	2.73
789.088	7.32
789.393	4.48
789.698	2.76
790.003	1.14
790.308	8.29
790.613	2.69
790.918	4.64
791.223	7.53
791.527	3.08
791.832	2.52
792.137	1.12
792.441	7.97
792.746	9.36
793.05	6.79
793.355	4.61
793.659	3.94
793.963	0.6
794.268	4.87
794.572	7.88
794.876	4.16
795.18	4.99
795.484	2.86
795.788	4.09
796.092	6.72
796.396	6.31
796.7	4.76
797.004	6.92
797.307	4.73
797.611	4.94
797.915	8.75
798.218	0.9
798.522	5.06
798.825	3.07
799.128	-0.25
799.432	0.63
799.735	7.45
800.038	3.99
800.341	4.13
800.644	2.65
800.947	6.04
801.25	4.96
801.553	6.31
801.856	6.33
802.159	5.86
802.462	4.12
802.764	3.05
803.067	4.42
803.37	0.65
803.672	7.21
803.975	4.83
804.277	6.56
804.579	1.79
804.882	4.86
805.184	4.62
805.486	3.61
805.788	6.69
806.09	2.89
806.392	2.91
806.694	-0.23
806.996	7.39
807.298	2.31
807.6	5.05
807.902	3.89
808.203	4.44
808.505	3.07
808.807	3.65
809.108	7.88
809.409	4.32
809.711	3.1
810.012	8.09
810.313	6.77
810.615	0.78
810.916	4.38
811.217	2.9
811.518	0.06
811.819	3.69
812.12	8.98
812.421	5.34
812.722	5.71
813.023	-0.05
813.323	7.22
813.624	8.53
813.925	7.73
814.225	9
814.526	7.36
814.826	-2.6
815.126	0.15
815.427	-2.87
815.727	-2.18
816.027	-1.32
816.327	-0.63
816.627	6.27
816.927	-1.45
817.227	7.71
817.527	2.06
817.827	5.88
818.127	6.92
818.427	5.75
818.727	11.06
819.026	3.99
819.326	2.87
819.625	2.76
819.925	4.35
820.224	5.48
820.524	8.57
820.823	9.99
821.122	3.62
821.421	-2.16
821.72	7.75
822.019	3.74
822.318	9.72
822.617	1.9
822.916	1.44
823.215	6.03
823.514	5.71
823.813	2.81
824.111	3.89
824.41	4
824.709	5.98
825.007	6.52
825.306	5.31
825.604	6.13
825.902	5.57
826.201	6.64
826.499	6.1
826.797	6.28
827.095	6.89
827.393	4.7
827.691	6.49
827.989	5.85
828.287	6.06
828.585	7.06
828.882	2.92
829.18	4.18
829.478	3.36
829.775	6.39
830.073	3.61
830.37	6.06
830.668	6.08
830.965	5.17
831.263	7.35
831.56	3.68
831.857	6.73
832.154	6.24
832.451	3.57
832.748	7.37
833.045	13.31
833.342	9.99
833.639	6.93
833.936	5.9
834.232	6.2
834.529	15.11
834.826	4.51
835.122	12.35
835.419	9.88
835.715	1.91
836.012	7.03
836.308	2.43
836.604	8.21
836.901	4.8
837.197	5.23
837.493	6.62
837.789	6.85
838.085	3.43
838.381	7.28
838.677	6.98
838.972	4.46
839.268	8.07
839.564	8.94
839.86	4.96
840.155	8.84
840.451	1.15
840.746	4.4
841.042	10.89
841.337	9.25
841.632	-0.35
841.928	-6.84
842.223	-2.69
842.518	3.45
842.813	1.79
843.108	7.56
843.403	-2.9
843.698	6.56
843.993	5.21
844.287	11.41
844.582	8.54
844.877	8.69
845.171	-4.47
845.466	-0.55
845.761	3.63
846.055	8.74
846.349	8.71
846.644	-0.11
846.938	-3.26
847.232	-12.37
847.526	-2.57
847.82	4.59
848.114	-1.5
848.408	10.02
848.702	23.51
848.996	0.3
849.29	5.89
849.584	6.64
849.877	5.43
850.171	16
850.465	-3.18
850.758	-9.02
851.052	10.5
851.345	-6.97
851.638	-3.9
851.932	-2.77
852.225	6.6
852.518	1.09
852.811	-0.43
853.104	19.13
853.397	-21.51
853.69	8.05
853.983	-2.37
854.276	10.19
854.569	16.22
854.861	-12.76
855.154	0.68
855.447	-31.96
855.739	6.64
856.032	12
856.324	23.04
856.616	12.67
856.909	3.21
857.201	23.13
857.493	10.75
857.785	0.58
858.077	-25.18
858.369	-4.37
858.661	13.66
858.953	-15.82
859.245	-15.24
859.537	8.29
859.829	35.14
860.12	17.33
860.412	2.8
860.703	-13.78
860.995	4.99
861.286	0.37
861.578	29.66
861.869	-0.18
862.16	16.05
862.452	11.06
862.743	10.33
863.034	6.14
863.325	-11.34
863.616	21.78
863.907	-36.04
864.198	3.27
864.488	-35.17
864.779	5.76
865.07	7.66
865.36	-4.09
865.651	-19.82
865.941	-17.53
866.232	-9.43
866.522	9.85
866.813	4.64
867.103	0.71
867.393	15.56
867.683	-9.49
867.973	2.54
868.263	22.51
868.553	-14.51
868.843	20.9
869.133	4.72
869.423	-5.64
869.713	9.05
870.002	7.51
870.292	-20.51
870.582	21.14
870.871	-21.62
871.161	26.3
871.45	11.16
871.739	2.45
872.029	-4.68
872.318	-15.89
872.607	10.54
872.896	7.92
873.185	10.85
873.474	22.14
873.763	-12.08
874.052	-0.75
874.341	22.78
874.63	6.58
874.918	24.01
875.207	18.22
875.496	7.22
875.784	11.32
876.073	10.08
876.361	-1.9
876.649	-12.4
876.938	-2.35
877.226	18.42
877.514	10.04
877.802	13.38
878.09	10.1
878.378	-4.72
878.666	-32.07
878.954	-0.69
879.242	-10.35
879.53	-2.79
879.817	7.32
880.105	-14.02
880.392	11.7
880.68	-36.3
880.967	15.29
881.255	28.65
881.542	0.81
881.83	-4.13
882.117	-4.24
882.404	-16.35
882.691	-1.81
882.978	6.67
883.265	-5.84
883.552	-10.63
883.839	10.88
884.126	-11.62
884.413	12.48
884.699	10.89
884.986	11.39
885.273	3.38
885.559	3.38
885.846	3.38
