Data from 21-1_forehead_Reflection__4__165.txt Node

Date: Thu Dec 15 17:45:48 CST 2022
User: ToomeyLab
Spectrometer: FLMS14357
Trigger mode: 0
Integration Time (sec): 1.000000E-2
Scans to average: 100
Electric dark correction enabled: true
Nonlinearity correction enabled: false
Boxcar width: 0
XAxis mode: Wavelengths
Number of Pixels in Spectrum: 2048
>>>>>Begin Spectral Data<<<<<
189.047	-10.22
189.435	-10.22
189.823	-10.22
190.211	-134.04
190.599	799.68
190.987	-86.47
191.375	1145.2
191.763	-586
192.151	225.34
192.538	34.17
192.926	74.56
193.314	342.42
193.702	441.08
194.089	-185.99
194.477	144.14
194.864	98.06
195.252	201.14
195.639	88.43
196.027	-6208.62
196.414	-11.19
196.801	-54.18
197.189	123.42
197.576	96.44
197.963	834.49
198.351	25.79
198.738	74.73
199.125	-15.13
199.512	16.75
199.899	-6.15
200.286	-32.31
200.673	29.71
201.06	20.06
201.447	39.55
201.833	-1.78
202.22	-0.64
202.607	-9.93
202.994	52.57
203.38	43.87
203.767	-12.77
204.154	63.44
204.54	26.08
204.927	24.54
205.313	45.03
205.699	32.09
206.086	28.39
206.472	31.54
206.858	33.67
207.245	17.32
207.631	18.86
208.017	49.93
208.403	0.52
208.789	21.55
209.175	17.48
209.561	-71.44
209.947	2.78
210.333	17.67
210.719	40.75
211.105	52.98
211.491	46.47
211.876	-4.83
212.262	57.38
212.648	11.9
213.034	-6.7
213.419	4.76
213.805	8.1
214.19	-12.92
214.576	9.79
214.961	6.05
215.346	27.2
215.732	29.9
216.117	16.67
216.502	17.47
216.888	31.33
217.273	16.79
217.658	-0.15
218.043	-3.51
218.428	2.91
218.813	25.52
219.198	-16.04
219.583	15.54
219.968	27.12
220.353	-5.13
220.738	1.26
221.122	-14.42
221.507	5.2
221.892	-20.59
222.276	-25.19
222.661	-9.52
223.046	-0.26
223.43	27.96
223.815	5.48
224.199	11.94
224.583	14.76
224.968	5.98
225.352	2.23
225.736	4.21
226.121	4.44
226.505	0.84
226.889	4.74
227.273	-2.24
227.657	6.01
228.041	5.32
228.425	4.53
228.809	5.72
229.193	5.07
229.577	5.17
229.961	4.04
230.344	5.06
230.728	5.55
231.112	5.09
231.495	3.87
231.879	4.92
232.263	6.35
232.646	5.26
233.03	5.84
233.413	5.9
233.797	2.5
234.18	4.49
234.563	6.37
234.946	2.73
235.33	5.1
235.713	5.26
236.096	6.47
236.479	6.43
236.862	3.93
237.245	5.47
237.628	3.12
238.011	4.93
238.394	3.94
238.777	5.16
239.16	5.21
239.543	6.23
239.925	4.45
240.308	4.64
240.691	5.1
241.073	3.74
241.456	5.25
241.838	4.15
242.221	5.64
242.603	5.26
242.986	5.52
243.368	5.37
243.75	4.93
244.133	5.23
244.515	4.87
244.897	4.76
245.279	4.66
245.661	4.17
246.043	4.75
246.425	5.2
246.807	5.07
247.189	5.02
247.571	4.9
247.953	4.82
248.335	4.85
248.717	4.82
249.098	5.08
249.48	4.91
249.862	5.58
250.243	5.09
250.625	5.22
251.006	6.02
251.388	4.88
251.769	4.43
252.151	5.45
252.532	5.1
252.913	4.65
253.295	5.22
253.676	5.15
254.057	4.9
254.438	4.78
254.819	5.18
255.2	5.67
255.581	5.81
255.962	5.57
256.343	4.8
256.724	4.52
257.105	5.97
257.486	4.65
257.867	5.05
258.247	5.63
258.628	5.71
259.009	4.43
259.389	4.64
259.77	4.97
260.15	5.81
260.531	4.97
260.911	4.89
261.292	4.94
261.672	4.68
262.052	4.79
262.432	4.57
262.813	5.23
263.193	4.88
263.573	5.5
263.953	4.59
264.333	5.25
264.713	5.12
265.093	5.05
265.473	4.38
265.853	4.9
266.233	4.01
266.612	4.57
266.992	5.04
267.372	5.48
267.752	5.28
268.131	4.82
268.511	4.58
268.89	5.05
269.27	4.71
269.649	4.93
270.029	5.21
270.408	4.39
270.787	4.92
271.167	4.66
271.546	5.25
271.925	4.63
272.304	4.98
272.683	4.9
273.062	4.52
273.441	4.4
273.82	4.64
274.199	4.32
274.578	4.7
274.957	4.69
275.336	4.93
275.715	5.21
276.093	4.75
276.472	3.94
276.851	4.34
277.229	4.83
277.608	4.56
277.986	5.11
278.365	4.98
278.743	4.61
279.122	4.48
279.5	4.5
279.878	4.69
280.257	4.86
280.635	4.62
281.013	4.28
281.391	4.48
281.769	4.58
282.147	4.41
282.525	4.41
282.903	4.67
283.281	5.01
283.659	4.79
284.037	4.9
284.415	4.62
284.792	4.87
285.17	4.66
285.548	4.51
285.925	4.4
286.303	5.35
286.68	4.88
287.058	5.03
287.435	4.49
287.813	4.74
288.19	4.4
288.567	4.96
288.945	4.9
289.322	5.14
289.699	4.97
290.076	4.83
290.453	4.65
290.83	5.14
291.207	4.65
291.584	4.95
291.961	5.3
292.338	4.83
292.715	5
293.092	5.11
293.469	5.21
293.845	5.41
294.222	5.41
294.599	4.88
294.975	5.04
295.352	5.76
295.728	5.38
296.105	5.3
296.481	5.92
296.858	5.33
297.234	5.6
297.61	5.52
297.986	5.7
298.363	5.41
298.739	5.7
299.115	5.62
299.491	5.98
299.867	5.47
300.243	5.5
300.619	5.32
300.995	6
301.371	6.19
301.746	6.25
302.122	5.44
302.498	5.72
302.874	6.31
303.249	6.09
303.625	6.15
304	6.64
304.376	6.85
304.751	6.54
305.127	6.1
305.502	6.79
305.878	6.83
306.253	6.09
306.628	6.89
307.003	6.77
307.378	6.64
307.754	7.06
308.129	6.65
308.504	7.04
308.879	7.59
309.254	7.4
309.629	7.59
310.003	7.18
310.378	7.39
310.753	7.39
311.128	7.23
311.502	7.84
311.877	7.19
312.252	7.4
312.626	7.96
313.001	7.68
313.375	7.95
313.75	7.89
314.124	8.02
314.498	8.15
314.873	7.85
315.247	8.04
315.621	7.81
315.995	8.65
316.369	7.95
316.743	8.07
317.117	8.34
317.491	8.78
317.865	8.3
318.239	8.89
318.613	8.24
318.987	8.34
319.361	9.08
319.734	8.43
320.108	9.07
320.482	9.1
320.855	9.08
321.229	8.96
321.602	9.12
321.976	9
322.349	9.64
322.723	9.12
323.096	9.57
323.469	9.54
323.843	8.79
324.216	9.47
324.589	9.75
324.962	9.13
325.335	9.21
325.708	9.47
326.081	9.82
326.454	9.67
326.827	9.97
327.2	9.8
327.573	10
327.945	9.95
328.318	9.38
328.691	9.78
329.063	9.56
329.436	9.73
329.809	10.45
330.181	10.8
330.553	10.36
330.926	10.74
331.298	10.1
331.671	10.4
332.043	9.96
332.415	10.63
332.787	10.29
333.159	10.39
333.532	10.37
333.904	10.7
334.276	10.7
334.648	10.98
335.02	10.53
335.391	10.23
335.763	10.85
336.135	10.87
336.507	10.58
336.879	10.85
337.25	10.88
337.622	11.12
337.993	10.79
338.365	11.11
338.736	11.43
339.108	10.99
339.479	10.91
339.851	11.58
340.222	11.63
340.593	11.18
340.964	10.99
341.336	11.27
341.707	11.51
342.078	11.45
342.449	11.76
342.82	11.58
343.191	11.63
343.562	11.1
343.933	11.24
344.303	11.64
344.674	11.41
345.045	11.76
345.416	12.11
345.786	11.58
346.157	11.4
346.527	11.92
346.898	11.7
347.268	12.13
347.639	11.86
348.009	11.65
348.38	12.07
348.75	12.26
349.12	12.22
349.49	11.91
349.861	12.15
350.231	12.17
350.601	12.29
350.971	12.09
351.341	12.52
351.711	12.49
352.081	11.94
352.45	12.18
352.82	12.48
353.19	12.22
353.56	12.32
353.929	12.31
354.299	12.84
354.669	13.02
355.038	13.15
355.408	12.48
355.777	12.93
356.147	12.81
356.516	12.38
356.885	12.73
357.254	13
357.624	12.66
357.993	12.9
358.362	13.11
358.731	13.32
359.1	13.15
359.469	13.1
359.838	13.16
360.207	13.11
360.576	13.22
360.945	13.24
361.314	13.36
361.682	13.16
362.051	13.36
362.42	13.26
362.788	13.36
363.157	13.09
363.525	13.46
363.894	13.17
364.262	13.41
364.631	13.27
364.999	13.52
365.367	13.39
365.735	13.76
366.104	13.44
366.472	13.71
366.84	13.77
367.208	14.05
367.576	13.74
367.944	13.66
368.312	13.68
368.68	14.13
369.048	14.16
369.416	13.93
369.783	14.14
370.151	14.36
370.519	14.43
370.886	14.38
371.254	14.38
371.621	14.14
371.989	14.21
372.356	14.4
372.724	14.42
373.091	14.25
373.458	14.25
373.826	14.63
374.193	14.6
374.56	14.69
374.927	14.38
375.294	14.47
375.661	14.74
376.028	14.79
376.395	14.75
376.762	14.44
377.129	14.72
377.496	15.01
377.863	14.83
378.229	15.02
378.596	15.09
378.963	14.96
379.329	15.14
379.696	14.86
380.062	15
380.429	14.88
380.795	15.19
381.161	14.53
381.528	15.01
381.894	15.25
382.26	14.97
382.626	15.32
382.993	15.26
383.359	15.19
383.725	15.09
384.091	15.66
384.457	15.46
384.823	15.38
385.188	15.41
385.554	15.38
385.92	15.43
386.286	15.25
386.651	15.49
387.017	15.73
387.383	15.32
387.748	15.58
388.114	15.76
388.479	15.62
388.845	15.52
389.21	15.8
389.575	15.75
389.94	15.86
390.306	15.75
390.671	15.83
391.036	15.51
391.401	15.76
391.766	15.69
392.131	15.79
392.496	15.9
392.861	15.84
393.226	15.61
393.591	15.72
393.956	15.85
394.32	15.91
394.685	15.92
395.05	15.73
395.414	15.84
395.779	15.84
396.143	15.69
396.508	15.79
396.872	15.86
397.236	16.19
397.601	15.95
397.965	16.01
398.329	15.93
398.694	15.67
399.058	15.75
399.422	15.96
399.786	15.81
400.15	16.03
400.514	15.93
400.878	15.87
401.242	15.81
401.605	16.08
401.969	15.83
402.333	15.98
402.697	16.31
403.06	16.09
403.424	16.29
403.787	15.84
404.151	16.03
404.514	16.11
404.878	15.85
405.241	16.02
405.604	15.68
405.968	15.88
406.331	15.98
406.694	15.89
407.057	15.91
407.42	15.69
407.783	16.02
408.146	15.79
408.509	15.82
408.872	15.93
409.235	16.16
409.598	15.78
409.961	16.1
410.323	15.74
410.686	16.1
411.049	15.92
411.411	15.94
411.774	15.96
412.136	16
412.499	16.21
412.861	15.72
413.223	15.91
413.586	15.91
413.948	16.21
414.31	16.15
414.672	16.07
415.035	16.17
415.397	16.18
415.759	15.99
416.121	16.35
416.483	16.39
416.845	16.49
417.206	16.22
417.568	16.4
417.93	16.51
418.292	16.17
418.653	16.25
419.015	16.41
419.377	16.45
419.738	16.67
420.1	16.55
420.461	16.49
420.822	16.61
421.184	16.57
421.545	16.8
421.906	16.88
422.267	16.78
422.629	16.72
422.99	16.78
423.351	16.89
423.712	17.07
424.073	17.18
424.434	17.31
424.795	17.37
425.155	17.36
425.516	17.37
425.877	17.54
426.238	17.55
426.598	17.57
426.959	17.78
427.32	17.87
427.68	18.05
428.041	18.08
428.401	18.18
428.761	18.35
429.122	18.28
429.482	18.55
429.842	18.66
430.202	19.02
430.563	18.92
430.923	18.79
431.283	19.12
431.643	19.09
432.003	19.15
432.363	19.21
432.722	19.34
433.082	19.24
433.442	19.33
433.802	19.43
434.161	19.65
434.521	19.53
434.881	19.61
435.24	19.58
435.6	19.7
435.959	19.8
436.319	19.86
436.678	20
437.037	20.18
437.396	20.22
437.756	20.21
438.115	20.19
438.474	20.37
438.833	20.42
439.192	20.3
439.551	20.52
439.91	20.54
440.269	20.55
440.628	20.46
440.987	20.55
441.345	20.62
441.704	20.62
442.063	20.51
442.421	20.8
442.78	20.8
443.138	20.99
443.497	20.87
443.855	21.12
444.214	20.86
444.572	21.23
444.93	21.29
445.288	21.03
445.647	21.22
446.005	21.53
446.363	21.32
446.721	21.36
447.079	21.27
447.437	21.35
447.795	21.32
448.153	21.29
448.51	21.43
448.868	21.38
449.226	21.51
449.584	21.76
449.941	21.8
450.299	21.84
450.656	22.05
451.014	21.94
451.371	22.13
451.729	22.17
452.086	22.42
452.443	22.35
452.801	22.59
453.158	22.66
453.515	22.38
453.872	22.49
454.229	22.43
454.586	22.46
454.943	22.61
455.3	22.76
455.657	22.76
456.014	22.78
456.371	22.86
456.727	23.13
457.084	23.18
457.441	23.1
457.797	23.1
458.154	23.36
458.51	23.32
458.867	23.36
459.223	23.34
459.58	23.3
459.936	23.36
460.292	23.39
460.648	23.23
461.005	23.16
461.361	23.27
461.717	23.17
462.073	23.38
462.429	23.44
462.785	23.54
463.141	23.65
463.496	24.03
463.852	23.95
464.208	24.06
464.564	24.11
464.919	23.98
465.275	24.36
465.631	24.19
465.986	24.43
466.342	24.41
466.697	24.36
467.052	24.43
467.408	24.55
467.763	24.55
468.118	24.59
468.473	24.4
468.829	24.55
469.184	24.68
469.539	24.53
469.894	24.75
470.249	24.81
470.603	24.79
470.958	24.95
471.313	24.83
471.668	25.07
472.023	25.23
472.377	25.15
472.732	25.1
473.086	25.04
473.441	25.15
473.795	25.46
474.15	25.23
474.504	25.32
474.859	25.18
475.213	25.52
475.567	25.32
475.921	25.52
476.275	25.57
476.63	25.72
476.984	25.71
477.338	26.01
477.692	25.96
478.045	26.01
478.399	25.87
478.753	25.68
479.107	25.75
479.461	25.81
479.814	25.66
480.168	25.84
480.521	26.04
480.875	25.97
481.228	26
481.582	26.05
481.935	25.97
482.289	26.17
482.642	26.13
482.995	26.03
483.348	25.93
483.701	25.96
484.055	25.9
484.408	25.73
484.761	25.56
485.114	25.45
485.466	25.46
485.819	25.49
486.172	25.43
486.525	25.54
486.878	25.69
487.23	25.8
487.583	26.01
487.936	26.04
488.288	26.01
488.641	25.93
488.993	25.94
489.345	25.93
489.698	25.89
490.05	25.95
490.402	26.05
490.754	26.26
491.107	26.31
491.459	26.7
491.811	26.65
492.163	26.86
492.515	26.62
492.866	26.47
493.218	26.52
493.57	26.44
493.922	26.54
494.274	26.67
494.625	27.04
494.977	27.11
495.328	27.34
495.68	27.3
496.031	27.54
496.383	27.6
496.734	27.58
497.086	27.92
497.437	27.7
497.788	27.77
498.139	27.68
498.49	27.78
498.842	27.6
499.193	27.62
499.544	27.74
499.894	27.94
500.245	27.97
500.596	28.29
500.947	27.99
501.298	28.04
501.648	28.29
501.999	28.46
502.35	28.25
502.7	28.49
503.051	28.27
503.401	28.4
503.752	28.45
504.102	28.49
504.452	28.6
504.803	28.65
505.153	28.65
505.503	28.64
505.853	28.85
506.203	28.83
506.553	28.68
506.903	28.74
507.253	28.82
507.603	28.9
507.953	28.97
508.303	28.91
508.652	28.95
509.002	29.12
509.352	29.05
509.701	28.87
510.051	29.06
510.4	28.95
510.75	29.05
511.099	29.05
511.449	29.05
511.798	29.02
512.147	29.24
512.496	29.22
512.846	29.32
513.195	29.36
513.544	29.32
513.893	29.3
514.242	29.31
514.591	29.45
514.939	29.48
515.288	29.62
515.637	29.64
515.986	29.67
516.334	29.66
516.683	29.72
517.032	29.76
517.38	29.71
517.729	29.8
518.077	29.61
518.426	30.01
518.774	29.93
519.122	29.73
519.47	29.67
519.819	29.78
520.167	29.58
520.515	29.56
520.863	29.5
521.211	29.66
521.559	29.77
521.907	29.92
522.255	29.89
522.602	30.12
522.95	30.34
523.298	30.27
523.645	30.27
523.993	30.2
524.341	30.35
524.688	30.39
525.036	30.39
525.383	30.65
525.73	30.57
526.078	30.58
526.425	30.35
526.772	30.14
527.119	30.26
527.466	30.25
527.814	30.21
528.161	30.24
528.508	30.23
528.854	30.08
529.201	30.05
529.548	30.1
529.895	29.98
530.242	30
530.588	30
530.935	30
531.282	29.89
531.628	30.09
531.975	30.19
532.321	30.28
532.667	30.57
533.014	30.61
533.36	30.75
533.706	30.93
534.052	30.88
534.399	30.76
534.745	30.63
535.091	30.74
535.437	30.61
535.783	30.64
536.129	30.79
536.474	31
536.82	31.1
537.166	31.15
537.512	31.3
537.857	31.34
538.203	31.22
538.549	31.27
538.894	31.28
539.239	31.36
539.585	31.43
539.93	31.66
540.276	31.75
540.621	31.91
540.966	31.98
541.311	32.12
541.656	31.98
542.001	31.74
542.346	31.65
542.691	31.41
543.036	31.42
543.381	31.5
543.726	31.45
544.071	31.46
544.415	31.72
544.76	31.71
545.105	31.93
545.449	31.9
545.794	32
546.138	32.16
546.483	32.1
546.827	32.39
547.171	32.52
547.516	32.6
547.86	32.49
548.204	32.39
548.548	32.45
548.892	32.62
549.236	32.53
549.58	32.63
549.924	33.03
550.268	33.04
550.612	33.33
550.956	33.16
551.3	33.41
551.643	33.67
551.987	33.57
552.33	33.65
552.674	33.41
553.017	33.37
553.361	33.83
553.704	33.74
554.048	33.69
554.391	33.67
554.734	33.41
555.077	33.71
555.42	33.63
555.764	33.64
556.107	33.85
556.45	33.82
556.793	34.18
557.135	34.01
557.478	34.13
557.821	34.29
558.164	34.63
558.507	34.13
558.849	34.43
559.192	34.16
559.534	34.34
559.877	34.5
560.219	34.45
560.562	34.55
560.904	34.51
561.246	34.55
561.589	34.65
561.931	34.6
562.273	34.6
562.615	34.4
562.957	34.7
563.299	34.6
563.641	34.58
563.983	34.57
564.325	34.87
564.667	34.9
565.008	34.85
565.35	34.65
565.692	35.13
566.033	35.02
566.375	35.11
566.716	34.84
567.058	35.06
567.399	35.12
567.741	35.04
568.082	34.9
568.423	35.16
568.764	35.17
569.105	35.28
569.447	35.3
569.788	35.34
570.129	35.36
570.47	35.5
570.811	35.38
571.151	35.4
571.492	35.73
571.833	35.58
572.174	35.61
572.514	35.59
572.855	35.78
573.195	35.7
573.536	35.71
573.876	35.51
574.217	35.76
574.557	35.69
574.898	35.65
575.238	35.85
575.578	35.95
575.918	35.95
576.258	35.96
576.598	36.14
576.938	36.22
577.278	36.22
577.618	36.22
577.958	36.29
578.298	36.5
578.638	36.41
578.977	36.4
579.317	36.45
579.657	36.51
579.996	36.66
580.336	36.87
580.675	36.97
581.014	36.86
581.354	36.85
581.693	36.86
582.032	37.14
582.372	37.28
582.711	37.37
583.05	37.21
583.389	37.22
583.728	37.44
584.067	37.13
584.406	37.33
584.745	37.56
585.083	37.22
585.422	37.5
585.761	37.63
586.1	37.66
586.438	37.53
586.777	37.51
587.115	37.77
587.454	37.7
587.792	37.9
588.13	37.44
588.469	37.58
588.807	38.36
589.145	38.14
589.483	38.02
589.821	37.8
590.159	38.1
590.497	38.21
590.835	38.28
591.173	38.24
591.511	38.29
591.849	38.06
592.187	38.22
592.524	38.13
592.862	38.01
593.2	38.17
593.537	38.5
593.875	38.65
594.212	38.64
594.55	38.55
594.887	38.93
595.224	38.91
595.561	38.47
595.899	38.77
596.236	38.98
596.573	38.9
596.91	38.9
597.247	38.75
597.584	39.07
597.921	38.67
598.258	38.98
598.594	38.62
598.931	38.79
599.268	38.82
599.604	39.01
599.941	38.9
600.277	39.03
600.614	39.02
600.95	39.35
601.287	39.23
601.623	39.4
601.959	39.69
602.296	39.28
602.632	39.36
602.968	39.42
603.304	39.68
603.64	39.42
603.976	39.53
604.312	39.96
604.648	39.65
604.984	39.94
605.319	39.51
605.655	39.58
605.991	39.75
606.326	39.47
606.662	39.59
606.998	39.74
607.333	39.79
607.668	39.9
608.004	39.7
608.339	39.93
608.674	40.04
609.01	40.26
609.345	40.34
609.68	40.31
610.015	40.15
610.35	40.64
610.685	40.4
611.02	40.32
611.355	40.09
611.689	40.42
612.024	40.34
612.359	40.55
612.694	40.38
613.028	40.39
613.363	40.48
613.697	40.79
614.032	40.7
614.366	41.02
614.7	40.95
615.035	41.07
615.369	41.2
615.703	41.47
616.037	41.09
616.371	40.95
616.705	41.29
617.039	41.29
617.373	41.37
617.707	41.08
618.041	41.19
618.375	41.48
618.709	41.32
619.042	41.27
619.376	41.36
619.71	41.59
620.043	41.69
620.377	41.33
620.71	41.46
621.043	41.83
621.377	41.92
621.71	41.91
622.043	41.79
622.376	42.29
622.709	42.43
623.043	42.08
623.376	41.88
623.709	42.29
624.041	42.26
624.374	42.09
624.707	42.41
625.04	42.07
625.373	42.37
625.705	42.53
626.038	42.24
626.37	42.47
626.703	42.38
627.035	42.47
627.368	42.61
627.7	42.45
628.032	42.77
628.365	42.4
628.697	42.5
629.029	42.54
629.361	42.68
629.693	42.89
630.025	42.61
630.357	42.74
630.689	42.93
631.021	42.97
631.353	42.61
631.684	42.95
632.016	43.13
632.348	42.66
632.679	43.06
633.011	42.85
633.342	42.88
633.674	43.15
634.005	43.11
634.336	43.21
634.668	43.23
634.999	43.75
635.33	43.17
635.661	43.15
635.992	43.13
636.323	43.22
636.654	43.32
636.985	43.6
637.316	43.57
637.647	43.53
637.977	43.11
638.308	43.39
638.639	43.66
638.969	43.42
639.3	43.81
639.63	43.32
639.961	43.95
640.291	43.66
640.622	43.89
640.952	43.91
641.282	44.19
641.612	43.43
641.943	44.31
642.273	44.31
642.603	44.12
642.933	44.23
643.263	44.57
643.592	44.59
643.922	44.56
644.252	44.29
644.582	44.19
644.911	44.46
645.241	44.35
645.571	44.85
645.9	44.5
646.23	44.51
646.559	44.86
646.888	44.01
647.218	44.2
647.547	44.68
647.876	44.65
648.205	44.77
648.534	45.16
648.863	44.45
649.192	44.96
649.521	44.77
649.85	44.82
650.179	45.42
650.508	44.97
650.837	45.42
651.165	45.01
651.494	45.12
651.822	44.67
652.151	45.15
652.479	45.94
652.808	45.94
653.136	45.33
653.465	45.67
653.793	45.98
654.121	45.44
654.449	45.52
654.777	44.99
655.105	44.84
655.433	46.34
655.761	46.03
656.089	45.56
656.417	46.48
656.745	45.95
657.073	46.26
657.4	46.28
657.728	45.37
658.056	45.63
658.383	46.33
658.711	46.37
659.038	46.06
659.365	45.81
659.693	46.16
660.02	46.14
660.347	45.95
660.674	45.99
661.001	45.98
661.329	45.91
661.656	45.99
661.982	45.92
662.309	46.09
662.636	46.06
662.963	46.6
663.29	46.1
663.616	46.98
663.943	46.81
664.27	46.74
664.596	46.23
664.923	46.62
665.249	46.24
665.576	46.73
665.902	46.79
666.228	46.4
666.554	46.48
666.881	46.81
667.207	46.42
667.533	46.73
667.859	46.56
668.185	46.67
668.511	46.95
668.837	47.46
669.162	47.4
669.488	46.91
669.814	47.57
670.139	47.17
670.465	47.19
670.791	47.52
671.116	46.52
671.442	47.11
671.767	47.39
672.092	47.3
672.418	47.53
672.743	47.64
673.068	47.06
673.393	48.1
673.718	47.72
674.043	47.51
674.368	47.72
674.693	47.5
675.018	47.86
675.343	47.59
675.667	47.37
675.992	47.54
676.317	47.32
676.641	47.59
676.966	47.67
677.29	47.96
677.615	47.63
677.939	47.96
678.264	47.97
678.588	47.87
678.912	47.99
679.236	48.4
679.56	47.96
679.885	48.36
680.209	48.04
680.532	48.78
680.856	48.45
681.18	49.02
681.504	48.77
681.828	47.88
682.152	48.24
682.475	48.31
682.799	47.83
683.122	48.12
683.446	47.35
683.769	48.96
684.093	49.42
684.416	48.81
684.739	48.54
685.062	49.36
685.386	48.96
685.709	48.49
686.032	49.45
686.355	48.5
686.678	47.87
687.001	48.9
687.324	48.75
687.646	48.33
687.969	49
688.292	48.33
688.614	48.96
688.937	49.65
689.26	48.79
689.582	48.59
689.904	49.02
690.227	48.71
690.549	49.57
690.871	49.12
691.194	49.04
691.516	48.86
691.838	50.06
692.16	49.67
692.482	49.39
692.804	48.81
693.126	49.52
693.448	49.71
693.769	49.01
694.091	50.14
694.413	49.22
694.735	49.62
695.056	49.84
695.378	49.14
695.699	49.62
696.021	50.05
696.342	49.61
696.663	50.34
696.984	49.06
697.306	49.32
697.627	50.54
697.948	49.19
698.269	50.05
698.59	49.65
698.911	49.1
699.232	49.97
699.553	50.29
699.873	49.92
700.194	50.28
700.515	49.78
700.835	49.64
701.156	50.06
701.477	49.36
701.797	49.43
702.117	48.76
702.438	49.91
702.758	49.53
703.078	49.59
703.398	49.54
703.719	49.79
704.039	50.31
704.359	50.08
704.679	51.1
704.999	50.66
705.319	50.98
705.638	50.38
705.958	50
706.278	50.12
706.597	50.37
706.917	51.43
707.237	51.23
707.556	50.12
707.876	50.69
708.195	50.7
708.514	50.44
708.834	51.02
709.153	50.81
709.472	51.74
709.791	50.91
710.11	50.15
710.429	50.53
710.748	50.7
711.067	51.46
711.386	50.96
711.705	51.66
712.023	51.34
712.342	51.12
712.661	51.17
712.979	52.1
713.298	51.31
713.616	51.29
713.935	51.39
714.253	51.03
714.572	51.04
714.89	51.3
715.208	51.49
715.526	50.8
715.844	51.17
716.162	51.4
716.48	51.23
716.798	51.85
717.116	51.34
717.434	52.11
717.752	51.55
718.069	52.06
718.387	51.77
718.705	51.94
719.022	52.15
719.34	51.3
719.657	52.14
719.975	51.84
720.292	52.13
720.609	50.59
720.927	51.03
721.244	52.56
721.561	52.02
721.878	52.29
722.195	52.23
722.512	53.42
722.829	50.85
723.146	52.95
723.463	51.5
723.779	52.53
724.096	51.95
724.413	51.87
724.729	52.81
725.046	53.03
725.362	52.33
725.679	50.53
725.995	52.2
726.311	53.03
726.628	51.87
726.944	52.15
727.26	52.16
727.576	51.9
727.892	53.4
728.208	51.63
728.524	52.42
728.84	51.41
729.156	52.57
729.472	52.87
729.787	52.2
730.103	51.35
730.419	52.17
730.734	52.06
731.05	52.04
731.365	52.98
731.681	53.15
731.996	53.55
732.311	51.68
732.626	52.68
732.942	53.95
733.257	54.32
733.572	52.94
733.887	54.18
734.202	51.64
734.517	52.79
734.832	53.32
735.146	53.81
735.461	53.57
735.776	53.55
736.091	53.3
736.405	53.77
736.72	54.16
737.034	54.55
737.349	52.52
737.663	53.63
737.977	54.59
738.292	53.32
738.606	54.38
738.92	52.55
739.234	52.93
739.548	53.86
739.862	53.71
740.176	53.18
740.49	52.7
740.804	54.34
741.117	53.48
741.431	52.85
741.745	52.24
742.058	54.37
742.372	52.58
742.685	53.91
742.999	54.56
743.312	54.77
743.626	53.8
743.939	52.26
744.252	54.43
744.565	55.85
744.878	54.22
745.191	55.77
745.505	52.99
745.817	52.92
746.13	54.52
746.443	51.72
746.756	54.4
747.069	53.52
747.381	55.02
747.694	53.75
748.007	53.01
748.319	51.86
748.632	52.48
748.944	52.51
749.256	53.25
749.569	53.75
749.881	55.38
750.193	54.03
750.505	55.54
750.817	52.47
751.129	54.19
751.441	52.76
751.753	53.72
752.065	54.68
752.377	55.88
752.689	54.71
753	53.33
753.312	53.98
753.624	52.18
753.935	52.19
754.247	53.67
754.558	53.23
754.869	56.32
755.181	55.76
755.492	54.15
755.803	55.65
756.114	55.46
756.425	53.43
756.736	57.29
757.047	55.15
757.358	52.09
757.669	55.7
757.98	54.39
758.291	53.74
758.601	55.68
758.912	54.81
759.223	54.6
759.533	56.92
759.844	55.78
760.154	56.11
760.464	56.47
760.775	53.77
761.085	56.59
761.395	54.18
761.705	52.93
762.016	55.08
762.326	56.59
762.636	54.72
762.945	54.79
763.255	55.09
763.565	56.37
763.875	55.77
764.185	55.94
764.494	55.37
764.804	55.87
765.113	54.5
765.423	56.31
765.732	55.64
766.042	54.88
766.351	56.08
766.66	55.71
766.97	54.41
767.279	55.19
767.588	54.92
767.897	54.5
768.206	55.22
768.515	55.04
768.824	55.86
769.133	53.8
769.441	55.39
769.75	54.62
770.059	56
770.367	53.37
770.676	54.21
770.984	52.21
771.293	57.08
771.601	56.56
771.91	56.51
772.218	53.65
772.526	55.7
772.834	52.88
773.142	59.62
773.45	56.13
773.758	54.19
774.066	55.49
774.374	54.96
774.682	53.34
774.99	54.4
775.298	56.18
775.605	55.76
775.913	55.12
776.22	54.53
776.528	54.78
776.835	56.41
777.143	54.97
777.45	53.79
777.757	57.48
778.065	56.99
778.372	54.78
778.679	55.56
778.986	54.44
779.293	56.12
779.6	57.02
779.907	57.14
780.214	57.15
780.52	54.82
780.827	55.87
781.134	56.65
781.44	55.9
781.747	54.49
782.053	54.36
782.36	55.28
782.666	53.8
782.973	55.23
783.279	53.87
783.585	56.31
783.891	58.03
784.197	56.83
784.503	55.62
784.809	55.77
785.115	56.81
785.421	57.49
785.727	61.29
786.033	56.22
786.339	54.64
786.644	53.5
786.95	53.63
787.255	56.06
787.561	53.73
787.866	54.75
788.172	58.37
788.477	57.33
788.782	51.35
789.088	54.11
789.393	57.45
789.698	55.72
790.003	59.65
790.308	55.36
790.613	54.21
790.918	56.57
791.223	56.49
791.527	57.05
791.832	58.74
792.137	58.04
792.441	54.65
792.746	55.81
793.05	53.11
793.355	56.76
793.659	53.75
793.963	58.37
794.268	60
794.572	55.16
794.876	53.35
795.18	56.68
795.484	54.57
795.788	57.87
796.092	51.14
796.396	54.55
796.7	53.75
797.004	55.35
797.307	56.49
797.611	59.08
797.915	54.59
798.218	56.21
798.522	58.47
798.825	56.5
799.128	57.86
799.432	57.93
799.735	57.61
800.038	55.45
800.341	59.63
800.644	53.47
800.947	58.93
801.25	56.09
801.553	59.05
801.856	54.49
802.159	49
802.462	54.71
802.764	56.5
803.067	53.23
803.37	55.07
803.672	57.42
803.975	53.65
804.277	58.85
804.579	50.81
804.882	54.97
805.184	56.13
805.486	59.21
805.788	57.61
806.09	57.15
806.392	57.65
806.694	57.57
806.996	57.12
807.298	56.65
807.6	55.96
807.902	53.17
808.203	57.09
808.505	55.13
808.807	56.83
809.108	60.65
809.409	57.32
809.711	57.43
810.012	59.61
810.313	55.55
810.615	57.81
810.916	58.25
811.217	50.25
811.518	57.24
811.819	53.47
812.12	60.9
812.421	55.1
812.722	56.37
813.023	56.66
813.323	57.17
813.624	56.75
813.925	62.22
814.225	54.44
814.526	53.06
814.826	50.32
815.126	55.62
815.427	56.91
815.727	58.28
816.027	57.58
816.327	54.63
816.627	59.35
816.927	56.94
817.227	55.86
817.527	56.33
817.827	50.42
818.127	64.65
818.427	57.49
818.727	56.28
819.026	62.99
819.326	51.07
819.625	55.57
819.925	61.83
820.224	59.99
820.524	54.9
820.823	62.03
821.122	55.39
821.421	50.54
821.72	58.29
822.019	56.28
822.318	60.55
822.617	62.77
822.916	52.79
823.215	55.51
823.514	57.93
823.813	56.6
824.111	58.91
824.41	60.17
824.709	58.98
825.007	58.79
825.306	58.71
825.604	59.46
825.902	59.15
826.201	57.86
826.499	57.84
826.797	58.23
827.095	58.13
827.393	56.02
827.691	58.34
827.989	58.26
828.287	56.81
828.585	57.58
828.882	57.73
829.18	57.95
829.478	59.17
829.775	59.5
830.073	58.88
830.37	59.11
830.668	57.73
830.965	58.42
831.263	57.81
831.56	57.18
831.857	57.23
832.154	57.34
832.451	58.3
832.748	54.26
833.045	54.53
833.342	54.06
833.639	60.64
833.936	52.46
834.232	54.51
834.529	61.44
834.826	62.73
835.122	59.53
835.419	60.89
835.715	57.46
836.012	60
836.308	63.17
836.604	60.83
836.901	57.43
837.197	60.21
837.493	60.26
837.789	57.37
838.085	56.88
838.381	58.82
838.677	55.63
838.972	57.82
839.268	50.71
839.564	58.73
839.86	59.11
840.155	63.79
840.451	55.58
840.746	56.85
841.042	58.54
841.337	57.13
841.632	56.3
841.928	55.87
842.223	49.46
842.518	54.98
842.813	52.98
843.108	56.28
843.403	60.98
843.698	52.8
843.993	57.18
844.287	62.46
844.582	56.94
844.877	54.08
845.171	57.29
845.466	52.03
845.761	40.38
846.055	57.12
846.349	51.5
846.644	64.76
846.938	54.38
847.232	43.59
847.526	53.86
847.82	54.38
848.114	57.43
848.408	56.07
848.702	62.01
848.996	80.24
849.29	59.16
849.584	56.19
849.877	68.02
850.171	69.68
850.465	55.76
850.758	46.24
851.052	32.24
851.345	48.07
851.638	65.58
851.932	52.7
852.225	61.15
852.518	64.06
852.811	47.13
853.104	59.16
853.397	39.02
853.69	43.96
853.983	34.09
854.276	63.15
854.569	50.84
854.861	39.2
855.154	49.57
855.447	66.32
855.739	33.1
856.032	82.78
856.324	36.62
856.616	69.47
856.909	41.68
857.201	24.64
857.493	52.48
857.785	42.71
858.077	53.88
858.369	55.5
858.661	61.51
858.953	71.33
859.245	56.99
859.537	48.44
859.829	55.94
860.12	78.09
860.412	37.3
860.703	75.2
860.995	41.39
861.286	15.78
861.578	77.14
861.869	68.52
862.16	51.58
862.452	40.56
862.743	43.83
863.034	62.97
863.325	48.06
863.616	47.05
863.907	74.25
864.198	36.74
864.488	64.07
864.779	65.26
865.07	67.49
865.36	58.66
865.651	43.33
865.941	53.39
866.232	46.86
866.522	38.69
866.813	45.97
867.103	40.09
867.393	44.73
867.683	61.68
867.973	75.16
868.263	42.59
868.553	63.58
868.843	60.34
869.133	31.85
869.423	61.57
869.713	59.78
870.002	44.32
870.292	59.06
870.582	58.67
870.871	59.9
871.161	66.99
871.45	96.88
871.739	67.44
872.029	52.14
872.318	52.05
872.607	58.81
872.896	69.86
873.185	60.74
873.474	48.12
873.763	71.22
874.052	40.28
874.341	68.73
874.63	49.12
874.918	49.83
875.207	78.9
875.496	61.79
875.784	33.36
876.073	59.83
876.361	51.57
876.649	50.11
876.938	53.93
877.226	60.82
877.514	73.47
877.802	39.24
878.09	65.29
878.378	43.59
878.666	54.14
878.954	47.51
879.242	46.19
879.53	42.38
879.817	48.68
880.105	76.08
880.392	35.41
880.68	44.35
880.967	66.93
881.255	74.71
881.542	69.21
881.83	88.09
882.117	55.18
882.404	56.02
882.691	71.67
882.978	68.13
883.265	70.24
883.552	63.81
883.839	62.27
884.126	70.98
884.413	71.7
884.699	69.95
884.986	68.14
885.273	64.61
885.559	64.61
885.846	64.61
