Data from 0028_chest_Reflection__4__110.txt Node

Date: Thu Oct 20 21:47:36 CDT 2022
User: ToomeyLab
Spectrometer: FLMS14357
Trigger mode: 0
Integration Time (sec): 1.000000E-2
Scans to average: 100
Electric dark correction enabled: true
Nonlinearity correction enabled: false
Boxcar width: 0
XAxis mode: Wavelengths
Number of Pixels in Spectrum: 2048
>>>>>Begin Spectral Data<<<<<
189.047	86.5
189.435	86.5
189.823	86.5
190.211	19.48
190.599	59.08
190.987	68.74
191.375	61.17
191.763	-143.79
192.151	93.57
192.538	341.57
192.926	99.41
193.314	98.33
193.702	-182.82
194.089	66.67
194.477	171.23
194.864	143.2
195.252	142.16
195.639	230.17
196.027	22.78
196.414	41.47
196.801	25.73
197.189	21.56
197.576	195.15
197.963	5.61
198.351	5.85
198.738	-57.58
199.125	-6.34
199.512	3.61
199.899	-4.65
200.286	-24.17
200.673	23.27
201.06	10.6
201.447	67.16
201.833	-13.89
202.22	-33.06
202.607	12.29
202.994	-7.2
203.38	-43.82
203.767	0.74
204.154	-5.38
204.54	-10.1
204.927	2.06
205.313	35.8
205.699	54.83
206.086	-15.8
206.472	-24.57
206.858	32.22
207.245	24.61
207.631	-0.7
208.017	10.93
208.403	-31.99
208.789	-10.58
209.175	4.96
209.561	10.07
209.947	18.2
210.333	-4.56
210.719	25.6
211.105	37.49
211.491	-59.91
211.876	-28.88
212.262	23.92
212.648	-49.2
213.034	4.6
213.419	-8.69
213.805	-0.12
214.19	-5.66
214.576	-25.9
214.961	-14.94
215.346	-39.24
215.732	-10.55
216.117	-28.62
216.502	-1.2
216.888	2.66
217.273	-17.98
217.658	21.51
218.043	17.89
218.428	-26.19
218.813	1.4
219.198	11.33
219.583	-6.92
219.968	19.56
220.353	-9.67
220.738	9.83
221.122	20.56
221.507	-8.8
221.892	-9.17
222.276	-7.11
222.661	13.74
223.046	15.8
223.43	-9.45
223.815	9.25
224.199	-11.37
224.583	5.14
224.968	1.5
225.352	9.16
225.736	13.02
226.121	-2.43
226.505	6.21
226.889	4.45
227.273	1.26
227.657	1.77
228.041	-0.69
228.425	2.99
228.809	3.49
229.193	2.17
229.577	2.71
229.961	3.29
230.344	3.41
230.728	3.48
231.112	3.21
231.495	3.79
231.879	4.6
232.263	4.96
232.646	3.59
233.03	2.86
233.413	1.54
233.797	4.98
234.18	3.17
234.563	3.12
234.946	2.84
235.33	2.55
235.713	3.14
236.096	2.06
236.479	4.33
236.862	3.12
237.245	4.65
237.628	3.37
238.011	5.42
238.394	4.88
238.777	3.17
239.16	2.54
239.543	1.51
239.925	1.88
240.308	3.62
240.691	4.83
241.073	3.52
241.456	3.27
241.838	3.39
242.221	4.05
242.603	3.4
242.986	4.16
243.368	3.75
243.75	4.19
244.133	4.22
244.515	3.73
244.897	3.55
245.279	3.31
245.661	4.31
246.043	4.18
246.425	4.26
246.807	3.47
247.189	4.39
247.571	4.19
247.953	3.98
248.335	3.82
248.717	3.84
249.098	3.72
249.48	3.46
249.862	3.7
250.243	3.82
250.625	4.54
251.006	4.75
251.388	3.35
251.769	4.14
252.151	3.63
252.532	3.03
252.913	3.66
253.295	4.01
253.676	4.11
254.057	2.98
254.438	3.19
254.819	4.28
255.2	5.3
255.581	4.24
255.962	4.77
256.343	2.88
256.724	3.12
257.105	4.45
257.486	3.8
257.867	4.27
258.247	4.11
258.628	3.73
259.009	3.06
259.389	3.64
259.77	3.57
260.15	3.45
260.531	4.02
260.911	3.48
261.292	3.69
261.672	3.71
262.052	3.86
262.432	3.63
262.813	3.84
263.193	4.03
263.573	4.52
263.953	3.77
264.333	4.2
264.713	3.32
265.093	2.96
265.473	4.2
265.853	4.39
266.233	3.78
266.612	3.58
266.992	2.83
267.372	4.25
267.752	3.73
268.131	4.39
268.511	4.03
268.89	3.42
269.27	3.83
269.649	3.82
270.029	3.3
270.408	3.41
270.787	3.18
271.167	3.2
271.546	3.22
271.925	3.81
272.304	3.61
272.683	3.55
273.062	3.29
273.441	3.39
273.82	3.87
274.199	3.35
274.578	3.42
274.957	2.9
275.336	3.52
275.715	3.6
276.093	4.29
276.472	3.95
276.851	3.97
277.229	3.38
277.608	3.29
277.986	3.47
278.365	3.57
278.743	3.29
279.122	3.22
279.5	3.46
279.878	3.3
280.257	3.69
280.635	3.08
281.013	3.05
281.391	3.91
281.769	3.85
282.147	3.55
282.525	3.31
282.903	3.5
283.281	3.34
283.659	3.11
284.037	2.86
284.415	3.35
284.792	3.36
285.17	3.9
285.548	3.73
285.925	3.68
286.303	3.48
286.68	3.75
287.058	3.57
287.435	3.24
287.813	3.82
288.19	3.26
288.567	3.6
288.945	3.8
289.322	3.85
289.699	3.02
290.076	3.91
290.453	3.27
290.83	3.99
291.207	3.81
291.584	3.59
291.961	3.63
292.338	3.28
292.715	3.65
293.092	4.26
293.469	3.84
293.845	3.71
294.222	3.66
294.599	4.56
294.975	3.54
295.352	4.46
295.728	3.77
296.105	4.48
296.481	3.29
296.858	4.1
297.234	3.65
297.61	4
297.986	3.68
298.363	3.93
298.739	3.72
299.115	3.84
299.491	4.07
299.867	3.84
300.243	4
300.619	4.15
300.995	3.52
301.371	3.85
301.746	4
302.122	4.39
302.498	4.05
302.874	4.24
303.249	4.17
303.625	4.29
304	4.53
304.376	4.1
304.751	4.41
305.127	3.76
305.502	4.12
305.878	4.2
306.253	3.91
306.628	3.96
307.003	4.22
307.378	3.52
307.754	4.09
308.129	3.7
308.504	4.4
308.879	4.41
309.254	4.42
309.629	4.3
310.003	3.71
310.378	4.52
310.753	4.33
311.128	3.95
311.502	4.37
311.877	4.58
312.252	4.13
312.626	4.26
313.001	4.31
313.375	4.65
313.75	4.27
314.124	4.14
314.498	4.4
314.873	4.61
315.247	4.42
315.621	4.39
315.995	3.99
316.369	4.36
316.743	3.93
317.117	4.37
317.491	4.45
317.865	4.69
318.239	4.63
318.613	4.56
318.987	4.34
319.361	4.36
319.734	3.67
320.108	4.68
320.482	4.39
320.855	4.5
321.229	4.67
321.602	3.81
321.976	4.89
322.349	4.87
322.723	5.17
323.096	4.71
323.469	4.39
323.843	4.32
324.216	4.1
324.589	5.41
324.962	4.39
325.335	5.2
325.708	4.53
326.081	4.82
326.454	4.25
326.827	4.37
327.2	5.15
327.573	4.63
327.945	4.64
328.318	4.37
328.691	5.13
329.063	4.69
329.436	4.35
329.809	4.76
330.181	4.9
330.553	4.17
330.926	4.62
331.298	4.54
331.671	4.83
332.043	4.84
332.415	4.83
332.787	4.84
333.159	4.94
333.532	4.65
333.904	5.18
334.276	4.73
334.648	4.6
335.02	4.47
335.391	4.98
335.763	4.88
336.135	4.83
336.507	4.58
336.879	5.28
337.25	4.32
337.622	4.56
337.993	4.52
338.365	4.62
338.736	4.83
339.108	4.55
339.479	4.94
339.851	4.65
340.222	4.15
340.593	4.84
340.964	5.25
341.336	4.56
341.707	4.38
342.078	4.68
342.449	4.22
342.82	4.76
343.191	4.4
343.562	4.89
343.933	4.94
344.303	4.62
344.674	5.18
345.045	4.86
345.416	4.78
345.786	4.75
346.157	4.87
346.527	4.82
346.898	4.59
347.268	4.92
347.639	5.15
348.009	4.87
348.38	5.15
348.75	4.78
349.12	4.94
349.49	4.94
349.861	4.85
350.231	4.66
350.601	4.94
350.971	4.74
351.341	4.88
351.711	5.06
352.081	4.69
352.45	4.8
352.82	4.87
353.19	4.61
353.56	4.92
353.929	4.84
354.299	5.29
354.669	4.74
355.038	4.8
355.408	4.73
355.777	5.03
356.147	5.33
356.516	4.65
356.885	4.77
357.254	5.09
357.624	4.88
357.993	4.75
358.362	5.1
358.731	5.29
359.1	4.64
359.469	5.03
359.838	4.72
360.207	5.56
360.576	4.62
360.945	5.31
361.314	5.05
361.682	4.92
362.051	4.67
362.42	4.78
362.788	4.9
363.157	4.8
363.525	4.58
363.894	4.95
364.262	5.29
364.631	4.79
364.999	4.79
365.367	5.1
365.735	5.26
366.104	4.94
366.472	4.86
366.84	5.15
367.208	5.12
367.576	4.92
367.944	5.08
368.312	4.7
368.68	5.36
369.048	4.64
369.416	4.91
369.783	5.06
370.151	5.22
370.519	5.2
370.886	5.08
371.254	5.39
371.621	4.95
371.989	5.38
372.356	4.78
372.724	5.24
373.091	4.78
373.458	4.88
373.826	4.92
374.193	5.14
374.56	4.83
374.927	4.64
375.294	4.87
375.661	5.37
376.028	5.01
376.395	5.63
376.762	4.95
377.129	5.18
377.496	4.92
377.863	4.77
378.229	5.08
378.596	4.9
378.963	5.17
379.329	5.31
379.696	4.99
380.062	5.12
380.429	5.59
380.795	4.97
381.161	5.03
381.528	5.36
381.894	5.3
382.26	4.92
382.626	5.12
382.993	4.93
383.359	5.21
383.725	5.16
384.091	5.19
384.457	4.94
384.823	5.16
385.188	5.25
385.554	4.84
385.92	4.91
386.286	5.12
386.651	5.28
387.017	5.15
387.383	5.26
387.748	5.64
388.114	5.18
388.479	5.29
388.845	5.49
389.21	5.04
389.575	5
389.94	5.41
390.306	5.34
390.671	5.37
391.036	5.26
391.401	5.22
391.766	5.25
392.131	5.46
392.496	5.04
392.861	5.2
393.226	5.18
393.591	5.31
393.956	5.38
394.32	5.31
394.685	5.43
395.05	5.09
395.414	5.53
395.779	5.09
396.143	5.36
396.508	5.2
396.872	5.09
397.236	5.29
397.601	5.59
397.965	5.19
398.329	5.25
398.694	5.09
399.058	5.2
399.422	5.31
399.786	5.25
400.15	5.03
400.514	5.49
400.878	5.23
401.242	5.58
401.605	5.43
401.969	5.31
402.333	5.33
402.697	5.6
403.06	5.19
403.424	5.3
403.787	5.34
404.151	5.28
404.514	5.25
404.878	5.15
405.241	5.25
405.604	5.34
405.968	5.35
406.331	5.32
406.694	5.32
407.057	5.29
407.42	5.4
407.783	5.38
408.146	5.36
408.509	5.45
408.872	5.51
409.235	5.48
409.598	5.39
409.961	5.29
410.323	5.6
410.686	5.45
411.049	5.49
411.411	5.28
411.774	5.3
412.136	5.36
412.499	5.42
412.861	5.56
413.223	5.52
413.586	5.49
413.948	5.36
414.31	5.27
414.672	5.57
415.035	5.36
415.397	5.46
415.759	5.72
416.121	5.58
416.483	5.3
416.845	5.48
417.206	5.42
417.568	5.52
417.93	5.39
418.292	5.52
418.653	5.4
419.015	5.44
419.377	5.42
419.738	5.43
420.1	5.32
420.461	5.4
420.822	5.32
421.184	5.19
421.545	5.36
421.906	5.36
422.267	5.3
422.629	5.27
422.99	5.28
423.351	5.3
423.712	5.33
424.073	5.3
424.434	5.41
424.795	5.38
425.155	5.44
425.516	5.27
425.877	5.33
426.238	5.36
426.598	5.47
426.959	5.35
427.32	5.4
427.68	5.49
428.041	5.57
428.401	5.43
428.761	5.51
429.122	5.41
429.482	5.49
429.842	5.43
430.202	5.6
430.563	5.53
430.923	5.65
431.283	5.37
431.643	5.51
432.003	5.47
432.363	5.65
432.722	5.69
433.082	5.63
433.442	5.44
433.802	5.58
434.161	5.57
434.521	5.5
434.881	5.5
435.24	5.6
435.6	5.54
435.959	5.72
436.319	5.64
436.678	5.52
437.037	5.64
437.396	5.56
437.756	5.52
438.115	5.56
438.474	5.55
438.833	5.59
439.192	5.54
439.551	5.51
439.91	5.72
440.269	5.59
440.628	5.6
440.987	5.49
441.345	5.6
441.704	5.52
442.063	5.61
442.421	5.45
442.78	5.57
443.138	5.73
443.497	5.59
443.855	5.51
444.214	5.64
444.572	5.78
444.93	5.59
445.288	5.56
445.647	5.57
446.005	5.47
446.363	5.51
446.721	5.61
447.079	5.65
447.437	5.52
447.795	5.46
448.153	5.56
448.51	5.57
448.868	5.53
449.226	5.64
449.584	5.67
449.941	5.72
450.299	5.74
450.656	5.66
451.014	5.76
451.371	5.73
451.729	5.67
452.086	6
452.443	5.7
452.801	5.73
453.158	5.83
453.515	5.75
453.872	5.73
454.229	5.63
454.586	5.74
454.943	5.68
455.3	5.9
455.657	5.75
456.014	5.84
456.371	5.65
456.727	5.75
457.084	5.67
457.441	5.91
457.797	5.81
458.154	5.76
458.51	5.7
458.867	5.77
459.223	6.01
459.58	5.78
459.936	5.86
460.292	5.64
460.648	5.6
461.005	5.62
461.361	5.67
461.717	5.75
462.073	5.85
462.429	5.84
462.785	5.8
463.141	5.97
463.496	5.93
463.852	6.01
464.208	5.95
464.564	5.91
464.919	5.98
465.275	6.06
465.631	5.74
465.986	6
466.342	5.83
466.697	5.93
467.052	5.87
467.408	5.89
467.763	5.68
468.118	6.1
468.473	6.01
468.829	6.02
469.184	5.85
469.539	5.77
469.894	5.87
470.249	5.92
470.603	5.91
470.958	5.98
471.313	5.98
471.668	5.85
472.023	5.9
472.377	5.76
472.732	6.09
473.086	6.04
473.441	5.91
473.795	6.01
474.15	6.08
474.504	5.97
474.859	6.12
475.213	6.13
475.567	6.22
475.921	5.86
476.275	6.1
476.63	6.17
476.984	6
477.338	6.07
477.692	5.95
478.045	6.08
478.399	6.01
478.753	5.97
479.107	5.93
479.461	6.06
479.814	6.07
480.168	6.08
480.521	6.13
480.875	6.12
481.228	6.01
481.582	6
481.935	6.03
482.289	5.93
482.642	5.92
482.995	5.96
483.348	6.06
483.701	5.88
484.055	5.92
484.408	5.79
484.761	5.67
485.114	5.58
485.466	5.57
485.819	5.72
486.172	5.85
486.525	5.97
486.878	5.99
487.23	5.99
487.583	6
487.936	5.98
488.288	5.83
488.641	5.84
488.993	5.75
489.345	5.81
489.698	5.9
490.05	5.94
490.402	6.06
490.754	6.02
491.107	6.05
491.459	6.13
491.811	6.14
492.163	6.04
492.515	5.97
492.866	5.84
493.218	5.86
493.57	5.93
493.922	6
494.274	6.13
494.625	6.15
494.977	6.26
495.328	6.15
495.68	6.28
496.031	6.26
496.383	6.35
496.734	6.22
497.086	6.22
497.437	6.25
497.788	6.22
498.139	6.11
498.49	6.2
498.842	6.02
499.193	6.22
499.544	6.21
499.894	6.35
500.245	6.3
500.596	6.26
500.947	6.29
501.298	6.35
501.648	6.26
501.999	6.32
502.35	6.44
502.7	6.38
503.051	6.49
503.401	6.44
503.752	6.46
504.102	6.34
504.452	6.51
504.803	6.33
505.153	6.35
505.503	6.49
505.853	6.39
506.203	6.4
506.553	6.55
506.903	6.43
507.253	6.5
507.603	6.5
507.953	6.5
508.303	6.63
508.652	6.41
509.002	6.44
509.352	6.5
509.701	6.42
510.051	6.38
510.4	6.39
510.75	6.41
511.099	6.4
511.449	6.45
511.798	6.48
512.147	6.54
512.496	6.66
512.846	6.61
513.195	6.58
513.544	6.56
513.893	6.51
514.242	6.51
514.591	6.7
514.939	6.65
515.288	6.62
515.637	6.68
515.986	6.6
516.334	6.61
516.683	6.64
517.032	6.58
517.38	6.6
517.729	6.59
518.077	6.52
518.426	6.72
518.774	6.62
519.122	6.58
519.47	6.53
519.819	6.53
520.167	6.52
520.515	6.51
520.863	6.56
521.211	6.66
521.559	6.66
521.907	6.7
522.255	6.71
522.602	6.62
522.95	6.78
523.298	6.65
523.645	6.75
523.993	6.81
524.341	6.86
524.688	6.69
525.036	6.77
525.383	6.88
525.73	6.68
526.078	6.9
526.425	6.73
526.772	6.64
527.119	6.65
527.466	6.7
527.814	6.76
528.161	6.79
528.508	6.71
528.854	6.76
529.201	6.64
529.548	6.55
529.895	6.44
530.242	6.45
530.588	6.53
530.935	6.68
531.282	6.66
531.628	6.75
531.975	6.86
532.321	6.91
532.667	6.9
533.014	6.93
533.36	6.95
533.706	6.87
534.052	6.87
534.399	6.78
534.745	6.72
535.091	6.73
535.437	6.76
535.783	6.89
536.129	7
536.474	7.03
536.82	7.02
537.166	6.96
537.512	7.04
537.857	6.94
538.203	6.94
538.549	6.95
538.894	7.16
539.239	7.12
539.585	7.19
539.93	7.2
540.276	7.29
540.621	7.26
540.966	7.1
541.311	7.13
541.656	7.16
542.001	7.03
542.346	6.91
542.691	6.78
543.036	6.83
543.381	6.99
543.726	7.06
544.071	7.1
544.415	7.24
544.76	7.16
545.105	7.26
545.449	7.28
545.794	7.32
546.138	7.39
546.483	7.43
546.827	7.33
547.171	7.35
547.516	7.28
547.86	7.41
548.204	7.34
548.548	7.36
548.892	7.41
549.236	7.4
549.58	7.45
549.924	7.57
550.268	7.45
550.612	7.73
550.956	7.58
551.3	7.71
551.643	7.48
551.987	7.77
552.33	7.5
552.674	7.54
553.017	7.7
553.361	7.67
553.704	7.79
554.048	7.63
554.391	7.74
554.734	7.7
555.077	7.68
555.42	7.77
555.764	7.71
556.107	7.74
556.45	7.85
556.793	7.88
557.135	7.83
557.478	7.79
557.821	7.92
558.164	7.89
558.507	7.77
558.849	8.04
559.192	8.04
559.534	8.07
559.877	8.04
560.219	8.16
560.562	7.94
560.904	8.02
561.246	8.07
561.589	8.1
561.931	7.79
562.273	8.04
562.615	7.97
562.957	7.92
563.299	8.08
563.641	8.21
563.983	8.34
564.325	8.2
564.667	8.12
565.008	8.11
565.35	8.3
565.692	8.02
566.033	8.13
566.375	8.12
566.716	8.32
567.058	8.19
567.399	8.16
567.741	8.13
568.082	8.17
568.423	8.21
568.764	8.27
569.105	8.3
569.447	8.29
569.788	8.45
570.129	8.32
570.47	8.24
570.811	8.21
571.151	8.42
571.492	8.27
571.833	8.45
572.174	8.36
572.514	8.41
572.855	8.47
573.195	8.58
573.536	8.44
573.876	8.41
574.217	8.41
574.557	8.5
574.898	8.46
575.238	8.73
575.578	8.56
575.918	8.7
576.258	8.5
576.598	8.54
576.938	8.63
577.278	8.74
577.618	8.75
577.958	8.62
578.298	8.77
578.638	8.83
578.977	9.07
579.317	8.81
579.657	8.78
579.996	9.07
580.336	8.97
580.675	9.19
581.014	8.93
581.354	9.16
581.693	9
582.032	9.07
582.372	9.17
582.711	8.92
583.05	9.27
583.389	9.18
583.728	9.1
584.067	9.21
584.406	9.27
584.745	9.11
585.083	9.09
585.422	9.34
585.761	9.26
586.1	9.36
586.438	9.41
586.777	9.3
587.115	9.24
587.454	9.5
587.792	9.19
588.13	9.47
588.469	9.69
588.807	9.4
589.145	9.36
589.483	9.4
589.821	9.42
590.159	9.42
590.497	9.5
590.835	9.47
591.173	9.57
591.511	9.59
591.849	9.69
592.187	9.31
592.524	9.73
592.862	9.57
593.2	9.66
593.537	9.72
593.875	9.94
594.212	9.62
594.55	9.7
594.887	9.55
595.224	9.87
595.561	9.54
595.899	9.74
596.236	9.92
596.573	9.86
596.91	9.75
597.247	9.81
597.584	9.66
597.921	9.91
598.258	9.86
598.594	9.65
598.931	9.93
599.268	9.81
599.604	9.88
599.941	10.07
600.277	10.14
600.614	9.88
600.95	10.19
601.287	10.07
601.623	10.09
601.959	10.18
602.296	9.99
602.632	9.96
602.968	10.26
603.304	9.84
603.64	10.35
603.976	9.93
604.312	10.34
604.648	10.22
604.984	9.97
605.319	9.99
605.655	10.26
605.991	10.12
606.326	10.32
606.662	10.35
606.998	10.46
607.333	10.4
607.668	10.39
608.004	10.63
608.339	10.6
608.674	10.73
609.01	10.46
609.345	10.58
609.68	10.61
610.015	10.73
610.35	10.6
610.685	10.34
611.02	10.3
611.355	10.52
611.689	10.67
612.024	10.63
612.359	10.64
612.694	10.62
613.028	10.66
613.363	10.74
613.697	10.94
614.032	11.04
614.366	11.01
614.7	10.96
615.035	10.89
615.369	10.68
615.703	10.89
616.037	10.85
616.371	10.55
616.705	11.05
617.039	11.28
617.373	10.88
617.707	11.27
618.041	10.95
618.375	10.92
618.709	11.08
619.042	10.78
619.376	11.17
619.71	11.25
620.043	11.27
620.377	10.97
620.71	11
621.043	11.28
621.377	10.89
621.71	11.02
622.043	11.03
622.376	11.62
622.709	11.68
623.043	11.74
623.376	11.84
623.709	11.75
624.041	11.33
624.374	11.51
624.707	11.52
625.04	11.78
625.373	11.84
625.705	11.55
626.038	11.65
626.37	11.36
626.703	11.54
627.035	11.51
627.368	11.74
627.7	11.67
628.032	11.59
628.365	11.82
628.697	11.89
629.029	11.9
629.361	11.77
629.693	11.97
630.025	12.02
630.357	11.8
630.689	11.58
631.021	12
631.353	12.15
631.684	11.9
632.016	11.8
632.348	12.13
632.679	11.73
633.011	12.28
633.342	12.32
633.674	11.72
634.005	12.14
634.336	12.21
634.668	12.28
634.999	12.19
635.33	12.03
635.661	12.31
635.992	12.54
636.323	12.45
636.654	12.27
636.985	12.42
637.316	12.27
637.647	12.36
637.977	12.8
638.308	12.3
638.639	12.58
638.969	12.27
639.3	12.55
639.63	12.64
639.961	12.39
640.291	12.34
640.622	12.71
640.952	12.82
641.282	12.3
641.612	12.93
641.943	12.79
642.273	12.88
642.603	12.45
642.933	13.03
643.263	12.51
643.592	12.52
643.922	13.27
644.252	13.04
644.582	12.67
644.911	13.03
645.241	12.77
645.571	12.71
645.9	12.9
646.23	12.92
646.559	13.12
646.888	13.2
647.218	12.73
647.547	12.88
647.876	12.85
648.205	13.05
648.534	13.28
648.863	12.95
649.192	13.64
649.521	13.24
649.85	13.84
650.179	13.31
650.508	13.05
650.837	13.2
651.165	12.64
651.494	13.32
651.822	13.74
652.151	13.74
652.479	13.18
652.808	12.92
653.136	13.08
653.465	13.63
653.793	13.34
654.121	13.68
654.449	13.5
654.777	13.29
655.105	13.81
655.433	13.41
655.761	13.9
656.089	13.37
656.417	13.82
656.745	13.75
657.073	13.44
657.4	13.74
657.728	13.78
658.056	13.61
658.383	13.86
658.711	13.98
659.038	13.87
659.365	13.83
659.693	13.71
660.02	13.88
660.347	14.05
660.674	13.96
661.001	13.68
661.329	13.59
661.656	13.59
661.982	14.04
662.309	14.01
662.636	14.25
662.963	13.8
663.29	13.97
663.616	14.37
663.943	14.74
664.27	14.52
664.596	14.29
664.923	13.96
665.249	14.32
665.576	14.96
665.902	14.35
666.228	14.23
666.554	14.19
666.881	14.57
667.207	14.81
667.533	14.65
667.859	14.33
668.185	14.88
668.511	14.63
668.837	14.33
669.162	14.7
669.488	14.34
669.814	14.75
670.139	14.82
670.465	14.28
670.791	15.01
671.116	14.96
671.442	14.66
671.767	14.81
672.092	15.48
672.418	14.69
672.743	14.15
673.068	14.28
673.393	14.66
673.718	15.38
674.043	14.81
674.368	14.83
674.693	15.4
675.018	14.66
675.343	14.74
675.667	15.28
675.992	15.4
676.317	14.81
676.641	15.71
676.966	15.03
677.29	14.98
677.615	15.19
677.939	14.75
678.264	15.01
678.588	15.56
678.912	14.91
679.236	15.29
679.56	15.36
679.885	15.43
680.209	15.28
680.532	15.72
680.856	15.9
681.18	15.61
681.504	14.88
681.828	15.56
682.152	15.62
682.475	15.61
682.799	15.86
683.122	15.78
683.446	15.18
683.769	15.83
684.093	16.11
684.416	15.56
684.739	15.69
685.062	15.38
685.386	15.87
685.709	14.95
686.032	15.57
686.355	15.4
686.678	15.58
687.001	15.68
687.324	16.02
687.646	15.6
687.969	15.6
688.292	15.76
688.614	16.14
688.937	15.93
689.26	16.13
689.582	15.81
689.904	16.73
690.227	15.42
690.549	16.41
690.871	16
691.194	16.36
691.516	15.84
691.838	16
692.16	15.93
692.482	16.56
692.804	15.4
693.126	16.4
693.448	15.5
693.769	15.85
694.091	16.36
694.413	15.52
694.735	16.89
695.056	16.74
695.378	16.9
695.699	16.43
696.021	15.38
696.342	15.92
696.663	16.31
696.984	15.97
697.306	16.18
697.627	16.9
697.948	16.79
698.269	16.71
698.59	16.18
698.911	16.24
699.232	16.7
699.553	16.46
699.873	16.45
700.194	16.94
700.515	16.2
700.835	16.67
701.156	17.01
701.477	16.7
701.797	16.63
702.117	17.02
702.438	17.29
702.758	17.1
703.078	16.81
703.398	17.15
703.719	16.83
704.039	17.66
704.359	18.22
704.679	17.11
704.999	17.28
705.319	17.69
705.638	16.53
705.958	17.89
706.278	17.01
706.597	16.57
706.917	17.17
707.237	16.68
707.556	16.95
707.876	17.21
708.195	16.73
708.514	17.69
708.834	17.2
709.153	17.54
709.472	17.38
709.791	18.04
710.11	17.22
710.429	18.68
710.748	17.01
711.067	17.13
711.386	17.64
711.705	17.56
712.023	17.47
712.342	17.72
712.661	17.47
712.979	17.95
713.298	17.86
713.616	17.08
713.935	17.89
714.253	17.8
714.572	18.02
714.89	17.81
715.208	18.22
715.526	17.22
715.844	18.75
716.162	17.29
716.48	17.58
716.798	18.9
717.116	18.8
717.434	17.98
717.752	17.36
718.069	17.46
718.387	18.31
718.705	18.3
719.022	17.64
719.34	18.06
719.657	17.25
719.975	18.75
720.292	17.88
720.609	18.29
720.927	17.63
721.244	17.96
721.561	18.11
721.878	18.18
722.195	17.49
722.512	19.64
722.829	17.72
723.146	18.28
723.463	18.61
723.779	17.89
724.096	17.94
724.413	19.68
724.729	18.39
725.046	18.92
725.362	20.18
725.679	18.8
725.995	18.82
726.311	18.78
726.628	19.57
726.944	18.39
727.26	18.46
727.576	19.36
727.892	18.76
728.208	17.73
728.524	19.49
728.84	18.66
729.156	19.72
729.472	18.43
729.787	18.86
730.103	18.18
730.419	19.06
730.734	19.28
731.05	17.52
731.365	17.47
731.681	18.82
731.996	19.44
732.311	17.34
732.626	19.13
732.942	19.6
733.257	18.4
733.572	19.41
733.887	19.04
734.202	18.89
734.517	19.29
734.832	17.99
735.146	19.31
735.461	18.7
735.776	20.02
736.091	19.83
736.405	18.63
736.72	19.21
737.034	17.33
737.349	19.79
737.663	19.74
737.977	19.31
738.292	20.88
738.606	18.55
738.92	20.18
739.234	18.59
739.548	20.02
739.862	17.84
740.176	19.33
740.49	20.13
740.804	19.27
741.117	20.35
741.431	18.74
741.745	20.91
742.058	20.53
742.372	20.14
742.685	18.77
742.999	19
743.312	21.4
743.626	18.76
743.939	19.49
744.252	21.26
744.565	19.86
744.878	20.38
745.191	20.95
745.505	22.21
745.817	18.86
746.13	22.52
746.443	20.72
746.756	19.56
747.069	21.66
747.381	19.35
747.694	20.09
748.007	20.49
748.319	19.87
748.632	20.04
748.944	21.24
749.256	19.19
749.569	21.35
749.881	20.69
750.193	20.15
750.505	20.32
750.817	21.4
751.129	19.89
751.441	20.55
751.753	20.8
752.065	20.01
752.377	20.88
752.689	21.37
753	22.02
753.312	20.61
753.624	21.21
753.935	21.75
754.247	20.26
754.558	22.46
754.869	21.31
755.181	20.71
755.492	20.83
755.803	20.37
756.114	21.02
756.425	20.44
756.736	20.85
757.047	21.62
757.358	21.82
757.669	21.87
757.98	21.41
758.291	21.47
758.601	21.65
758.912	18.7
759.223	20.69
759.533	20.19
759.844	21.21
760.154	22.62
760.464	18.27
760.775	21.9
761.085	20.69
761.395	21.84
761.705	21.28
762.016	20.98
762.326	20.7
762.636	23.35
762.945	19.63
763.255	19.32
763.565	21.27
763.875	22.36
764.185	21.88
764.494	22.16
764.804	20.17
765.113	20.08
765.423	21.48
765.732	21.58
766.042	20.98
766.351	21.15
766.66	20.25
766.97	20.83
767.279	21.82
767.588	19.54
767.897	20.24
768.206	22.01
768.515	21.24
768.824	21.24
769.133	22.04
769.441	18.48
769.75	21.68
770.059	20.96
770.367	22.64
770.676	23.64
770.984	21.65
771.293	21.28
771.601	19.81
771.91	20.02
772.218	20.74
772.526	21.17
772.834	21.85
773.142	22.1
773.45	19.7
773.758	23.13
774.066	20.77
774.374	21.37
774.682	22.86
774.99	20.98
775.298	22.39
775.605	22.77
775.913	21.27
776.22	20.08
776.528	20.12
776.835	20.72
777.143	21.71
777.45	21.32
777.757	22.15
778.065	25.36
778.372	19.88
778.679	24.01
778.986	23.72
779.293	19.63
779.6	22.33
779.907	23.3
780.214	24.19
780.52	24.16
780.827	20.75
781.134	22.28
781.44	21.72
781.747	23.43
782.053	22.53
782.36	23.52
782.666	22.03
782.973	21.23
783.279	26.86
783.585	24.84
783.891	20.44
784.197	20.2
784.503	22.47
784.809	20.5
785.115	21.24
785.421	25.35
785.727	21.21
786.033	22.5
786.339	24.04
786.644	20.08
786.95	27.12
787.255	22.58
787.561	17.87
787.866	23.87
788.172	21.65
788.477	23.37
788.782	21.41
789.088	22.75
789.393	23.79
789.698	22.53
790.003	23.01
790.308	21.79
790.613	22.29
790.918	21.52
791.223	22.39
791.527	22.71
791.832	27
792.137	22.06
792.441	25.26
792.746	21.1
793.05	24.8
793.355	21.67
793.659	21.64
793.963	24.38
794.268	24.7
794.572	23.23
794.876	22.93
795.18	22.85
795.484	23.28
795.788	23.94
796.092	22.88
796.396	22.8
796.7	23.88
797.004	24.68
797.307	22.56
797.611	23.87
797.915	23.81
798.218	24.58
798.522	22.8
798.825	22.73
799.128	20.14
799.432	23.23
799.735	25.77
800.038	23.53
800.341	24.95
800.644	20.9
800.947	27.05
801.25	23.48
801.553	18.79
801.856	24.84
802.159	26.29
802.462	20.19
802.764	23.38
803.067	26.2
803.37	24.43
803.672	27.31
803.975	23.68
804.277	23.39
804.579	25.67
804.882	22.96
805.184	20.54
805.486	24.98
805.788	22.13
806.09	26.55
806.392	23.8
806.694	20.28
806.996	22.04
807.298	24.08
807.6	24.97
807.902	23.86
808.203	24.25
808.505	26
808.807	23.5
809.108	21.11
809.409	25.02
809.711	27.47
810.012	24.46
810.313	23.88
810.615	26.56
810.916	25.51
811.217	24.27
811.518	20.89
811.819	21.56
812.12	20.06
812.421	24.79
812.722	21.87
813.023	25.43
813.323	30.54
813.624	26.01
813.925	30.4
814.225	27.6
814.526	26.21
814.826	24.86
815.126	21.95
815.427	20.16
815.727	25.36
816.027	21.7
816.327	26.07
816.627	23.32
816.927	18.3
817.227	22.48
817.527	25.68
817.827	22.73
818.127	22.79
818.427	26.63
818.727	25.2
819.026	26.41
819.326	20.45
819.625	27.98
819.925	21.87
820.224	23.5
820.524	27.21
820.823	27.03
821.122	25.27
821.421	19.88
821.72	22.2
822.019	27.61
822.318	29.28
822.617	25.99
822.916	27.29
823.215	25.25
823.514	23.37
823.813	26.16
824.111	26.22
824.41	25.51
824.709	26.1
825.007	25.26
825.306	25.76
825.604	26.5
825.902	25.76
826.201	26.45
826.499	24.23
826.797	26.22
827.095	25.75
827.393	25.05
827.691	24.73
827.989	27.01
828.287	25.66
828.585	26.9
828.882	26.5
829.18	25.68
829.478	25.44
829.775	25.31
830.073	26.42
830.37	27.43
830.668	26.9
830.965	26.57
831.263	27.43
831.56	22.36
831.857	23.06
832.154	23.63
832.451	29.44
832.748	26.13
833.045	27.67
833.342	27.88
833.639	26.55
833.936	24.37
834.232	24.84
834.529	31.21
834.826	27.42
835.122	29.74
835.419	23.71
835.715	25.53
836.012	24.24
836.308	26.31
836.604	25.23
836.901	26.76
837.197	27.9
837.493	27.64
837.789	25.01
838.085	29.47
838.381	27.03
838.677	26.73
838.972	27.15
839.268	24.26
839.564	28.65
839.86	29.34
840.155	25.36
840.451	24.61
840.746	26.71
841.042	19.77
841.337	18.32
841.632	23.94
841.928	27.94
842.223	27.59
842.518	21.24
842.813	30.5
843.108	31.99
843.403	29
843.698	17.45
843.993	28.8
844.287	29.23
844.582	32.16
844.877	23.26
845.171	24.83
845.466	20.47
845.761	16.77
846.055	21.91
846.349	33.53
846.644	33.24
846.938	28.46
847.232	22.3
847.526	6.83
847.82	15.79
848.114	20.53
848.408	33.84
848.702	33.69
848.996	17.36
849.29	20.11
849.584	18.18
849.877	26.07
850.171	18.3
850.465	20.81
850.758	32.96
851.052	22.58
851.345	27.77
851.638	22.6
851.932	21.46
852.225	26.81
852.518	22.38
852.811	11.84
853.104	38.95
853.397	11.82
853.69	20.39
853.983	38.79
854.276	9.28
854.569	-9.28
854.861	4.96
855.154	9.36
855.447	23.09
855.739	13.83
856.032	45.95
856.324	27.92
856.616	2.47
856.909	4.2
857.201	23.73
857.493	25.97
857.785	24.29
858.077	16.13
858.369	24.59
858.661	32.45
858.953	43.35
859.245	17.74
859.537	37.51
859.829	24.36
860.12	20.67
860.412	31.47
860.703	33.57
860.995	22.44
861.286	13.93
861.578	45.76
861.869	36.46
862.16	21.68
862.452	32.16
862.743	29.72
863.034	32.71
863.325	4.6
863.616	10.09
863.907	17.87
864.198	46.11
864.488	5.82
864.779	36.92
865.07	22.37
865.36	23.84
865.651	29.62
865.941	27.1
866.232	41
866.522	20.16
866.813	15.51
867.103	29.38
867.393	31.55
867.683	16.54
867.973	23.81
868.263	19.83
868.553	21.83
868.843	19.17
869.133	3.3
869.423	9.81
869.713	13.48
870.002	40.96
870.292	20.51
870.582	16.73
870.871	4.32
871.161	27.47
871.45	10.59
871.739	23.53
872.029	44.74
872.318	14.34
872.607	31.13
872.896	24.59
873.185	14.61
873.474	1.84
873.763	17.17
874.052	9.83
874.341	2.42
874.63	6.17
874.918	33.25
875.207	41.52
875.496	28.26
875.784	23.57
876.073	34.95
876.361	12.64
876.649	8.61
876.938	29.55
877.226	33.8
877.514	-11.26
877.802	11.55
878.09	42.66
878.378	24.52
878.666	25.74
878.954	31.51
879.242	29.2
879.53	30.49
879.817	30.26
880.105	16.15
880.392	14.77
880.68	10.53
880.967	35.25
881.255	27.5
881.542	8.86
881.83	27.82
882.117	9.97
882.404	15.72
882.691	21.84
882.978	20.06
883.265	32.05
883.552	23.03
883.839	40.6
884.126	31.24
884.413	19.98
884.699	27.14
884.986	25.07
885.273	33.44
885.559	33.44
885.846	33.44
