Data from 0042_chest_Reflection__4__94.txt Node

Date: Fri Nov 04 15:33:39 CDT 2022
User: ToomeyLab
Spectrometer: FLMS14357
Trigger mode: 0
Integration Time (sec): 1.000000E-2
Scans to average: 100
Electric dark correction enabled: true
Nonlinearity correction enabled: false
Boxcar width: 0
XAxis mode: Wavelengths
Number of Pixels in Spectrum: 2048
>>>>>Begin Spectral Data<<<<<
189.047	-61.53
189.435	-61.53
189.823	-61.53
190.211	-72.65
190.599	-39.93
190.987	171.38
191.375	-604.17
191.763	-13.33
192.151	-2821.35
192.538	76.78
192.926	176.25
193.314	28.84
193.702	122.05
194.089	74.06
194.477	126.12
194.864	577.68
195.252	131.76
195.639	80.27
196.027	90.64
196.414	-16.18
196.801	116.06
197.189	-447.04
197.576	41.59
197.963	21.77
198.351	-52.74
198.738	15.73
199.125	25.37
199.512	-4.99
199.899	49.37
200.286	-11.75
200.673	34.29
201.06	28.6
201.447	-48
201.833	34.55
202.22	-11.31
202.607	-21.02
202.994	21.88
203.38	28.83
203.767	23.23
204.154	51.1
204.54	-10.33
204.927	-25.06
205.313	12.62
205.699	32.58
206.086	2.09
206.472	-2.75
206.858	25.58
207.245	2.1
207.631	24.38
208.017	28.46
208.403	-10.63
208.789	33.64
209.175	5.08
209.561	-83.73
209.947	-43.05
210.333	27.85
210.719	7.84
211.105	-119.68
211.491	8.3
211.876	12.05
212.262	-6.86
212.648	-30.24
213.034	12.43
213.419	-6.14
213.805	-17.97
214.19	-17.98
214.576	-2.98
214.961	20.96
215.346	38.92
215.732	11.81
216.117	-35.67
216.502	-3.17
216.888	-13.64
217.273	13.1
217.658	-5.79
218.043	-10.44
218.428	18.49
218.813	3.22
219.198	2.47
219.583	-35.34
219.968	22.73
220.353	-13.61
220.738	-31.63
221.122	-14.8
221.507	11.02
221.892	-3.27
222.276	-10.84
222.661	28.15
223.046	13.33
223.43	-6.92
223.815	-9.34
224.199	15.75
224.583	10.25
224.968	1.42
225.352	9.04
225.736	-4.25
226.121	4.17
226.505	15.46
226.889	0.38
227.273	1.52
227.657	-0.87
228.041	3.56
228.425	8
228.809	7.6
229.193	2.54
229.577	2.88
229.961	4.94
230.344	4.73
230.728	4.08
231.112	3.46
231.495	3.84
231.879	4.99
232.263	4.75
232.646	4.1
233.03	3.26
233.413	2.55
233.797	3.85
234.18	3.81
234.563	3.62
234.946	3.22
235.33	5.62
235.713	2.05
236.096	4.89
236.479	2.86
236.862	3.76
237.245	3.55
237.628	3.98
238.011	2.03
238.394	4.25
238.777	2.54
239.16	3.75
239.543	3.33
239.925	5.25
240.308	4.77
240.691	4.2
241.073	4.67
241.456	4.54
241.838	2.83
242.221	3.87
242.603	3.44
242.986	3.55
243.368	4.46
243.75	3.61
244.133	3.86
244.515	3.72
244.897	3.59
245.279	3.5
245.661	3.83
246.043	3.32
246.425	4.4
246.807	3.98
247.189	4.06
247.571	4.32
247.953	4.08
248.335	3.59
248.717	3.7
249.098	3.6
249.48	3.57
249.862	3.64
250.243	3.47
250.625	3.51
251.006	3.63
251.388	3.54
251.769	3.97
252.151	4.71
252.532	3.17
252.913	2.97
253.295	3.36
253.676	3.35
254.057	3.38
254.438	3.69
254.819	3.57
255.2	3.37
255.581	4.43
255.962	4.39
256.343	3.3
256.724	3.91
257.105	2.96
257.486	2.63
257.867	5.02
258.247	3.31
258.628	3.42
259.009	2.82
259.389	3.34
259.77	3.55
260.15	3.49
260.531	3.91
260.911	3.34
261.292	3.09
261.672	3.39
262.052	3.28
262.432	3.43
262.813	3.34
263.193	2.88
263.573	2.95
263.953	2.9
264.333	3.38
264.713	3.43
265.093	3.54
265.473	3.87
265.853	2.34
266.233	3.34
266.612	3.53
266.992	4.47
267.372	2.67
267.752	3.43
268.131	3.76
268.511	3.63
268.89	3.82
269.27	3.22
269.649	3.11
270.029	2.93
270.408	3.85
270.787	3.42
271.167	3.27
271.546	4.13
271.925	3.51
272.304	3.15
272.683	3.43
273.062	3.16
273.441	3.37
273.82	3.02
274.199	3.17
274.578	2.97
274.957	3.18
275.336	2.88
275.715	3.36
276.093	3.17
276.472	3.03
276.851	3.12
277.229	3.08
277.608	3.32
277.986	3.06
278.365	3.17
278.743	3.39
279.122	3.17
279.5	3.03
279.878	3.32
280.257	3.15
280.635	2.85
281.013	2.93
281.391	3.32
281.769	3.19
282.147	2.58
282.525	3.3
282.903	3.2
283.281	3.43
283.659	3.19
284.037	2.76
284.415	3.17
284.792	3.11
285.17	2.69
285.548	3.53
285.925	3.27
286.303	3.51
286.68	3.16
287.058	3.29
287.435	3.16
287.813	2.98
288.19	3.33
288.567	3.05
288.945	3.33
289.322	3.01
289.699	3.52
290.076	3.55
290.453	2.57
290.83	3.23
291.207	3.15
291.584	3.26
291.961	3.01
292.338	3.22
292.715	3.44
293.092	3.52
293.469	3.07
293.845	2.73
294.222	3.02
294.599	2.79
294.975	3.16
295.352	3.22
295.728	3.44
296.105	3.25
296.481	3.04
296.858	3.4
297.234	3.55
297.61	3.27
297.986	3.43
298.363	3.12
298.739	3.16
299.115	3.34
299.491	3
299.867	3.31
300.243	3.17
300.619	3.44
300.995	3.48
301.371	3.43
301.746	3.32
302.122	3.34
302.498	3.47
302.874	3.18
303.249	2.94
303.625	3.32
304	3.08
304.376	3.1
304.751	2.99
305.127	2.94
305.502	2.95
305.878	3.36
306.253	3.14
306.628	2.74
307.003	2.98
307.378	3.32
307.754	2.95
308.129	2.6
308.504	3.05
308.879	3.36
309.254	3.33
309.629	3.43
310.003	3.45
310.378	3.14
310.753	3.52
311.128	3.06
311.502	3.23
311.877	3.21
312.252	3.18
312.626	3.26
313.001	3.04
313.375	3.29
313.75	3.09
314.124	3
314.498	3.05
314.873	3.26
315.247	3.32
315.621	3.4
315.995	3.95
316.369	3.81
316.743	3.77
317.117	3.6
317.491	3.83
317.865	3.21
318.239	3.36
318.613	3.6
318.987	3.08
319.361	3.2
319.734	3.88
320.108	3.57
320.482	3.04
320.855	3.35
321.229	2.86
321.602	2.82
321.976	3.18
322.349	4.24
322.723	3.38
323.096	3.84
323.469	3.37
323.843	3.38
324.216	3.8
324.589	3.17
324.962	3.7
325.335	3.43
325.708	3.03
326.081	3.33
326.454	2.98
326.827	3.19
327.2	3.31
327.573	3.21
327.945	3.38
328.318	2.85
328.691	3.4
329.063	3.28
329.436	3.24
329.809	3.27
330.181	3.12
330.553	2.84
330.926	3.6
331.298	3.37
331.671	3.01
332.043	3.45
332.415	3.14
332.787	2.84
333.159	3.66
333.532	3.03
333.904	3.47
334.276	3.04
334.648	3.62
335.02	3.07
335.391	3.57
335.763	3.26
336.135	3.2
336.507	3.25
336.879	3.32
337.25	3.78
337.622	3.04
337.993	3.46
338.365	2.88
338.736	3.62
339.108	3.54
339.479	3.75
339.851	3.42
340.222	3.08
340.593	3.62
340.964	3.43
341.336	3.24
341.707	3.01
342.078	3.56
342.449	3.68
342.82	3.16
343.191	3.29
343.562	3.28
343.933	3.34
344.303	3.23
344.674	3.46
345.045	3.14
345.416	2.96
345.786	3.28
346.157	3.13
346.527	3.36
346.898	3.61
347.268	3.01
347.639	3.59
348.009	3.74
348.38	3.54
348.75	3.33
349.12	3.23
349.49	3.38
349.861	3.55
350.231	3.67
350.601	3.58
350.971	3.44
351.341	3.24
351.711	3.16
352.081	3.86
352.45	3.59
352.82	3.85
353.19	3.34
353.56	3.51
353.929	3.55
354.299	3.67
354.669	3.56
355.038	3.55
355.408	2.91
355.777	3.52
356.147	3.55
356.516	3.08
356.885	3.34
357.254	3.59
357.624	3.74
357.993	3.51
358.362	3.56
358.731	3.37
359.1	3.6
359.469	3.43
359.838	3.62
360.207	3.34
360.576	3.59
360.945	3.53
361.314	3.77
361.682	3.51
362.051	3.28
362.42	3.62
362.788	3.47
363.157	3.62
363.525	3.43
363.894	3.56
364.262	3.64
364.631	3.79
364.999	3.32
365.367	3.53
365.735	3.99
366.104	3.54
366.472	3.56
366.84	3.47
367.208	3.29
367.576	3.41
367.944	3.7
368.312	3.8
368.68	3.59
369.048	3.52
369.416	3.52
369.783	3.17
370.151	3.26
370.519	3.93
370.886	3.4
371.254	3.68
371.621	3.51
371.989	3.32
372.356	3.75
372.724	3.71
373.091	3.68
373.458	3.6
373.826	3.71
374.193	3.5
374.56	3.56
374.927	3.69
375.294	3.6
375.661	3.62
376.028	3.63
376.395	3.73
376.762	3.74
377.129	3.85
377.496	3.72
377.863	3.66
378.229	3.64
378.596	3.48
378.963	3.62
379.329	3.6
379.696	3.56
380.062	3.89
380.429	3.54
380.795	3.61
381.161	3.45
381.528	3.65
381.894	3.62
382.26	3.73
382.626	3.64
382.993	3.68
383.359	3.78
383.725	3.73
384.091	3.72
384.457	3.47
384.823	3.68
385.188	3.47
385.554	3.58
385.92	3.44
386.286	3.66
386.651	3.8
387.017	3.74
387.383	3.64
387.748	3.51
388.114	3.46
388.479	4.21
388.845	3.96
389.21	3.96
389.575	4.03
389.94	3.58
390.306	3.85
390.671	3.91
391.036	3.34
391.401	3.86
391.766	3.43
392.131	3.52
392.496	3.71
392.861	4.02
393.226	3.7
393.591	3.86
393.956	3.79
394.32	3.71
394.685	3.72
395.05	3.79
395.414	3.86
395.779	3.59
396.143	3.74
396.508	3.78
396.872	3.72
397.236	3.86
397.601	3.82
397.965	3.57
398.329	3.68
398.694	3.97
399.058	3.74
399.422	3.69
399.786	3.55
400.15	3.76
400.514	3.89
400.878	3.63
401.242	4.02
401.605	3.81
401.969	3.98
402.333	3.77
402.697	3.76
403.06	3.84
403.424	3.91
403.787	3.92
404.151	3.94
404.514	3.95
404.878	3.92
405.241	3.88
405.604	4.01
405.968	3.83
406.331	3.72
406.694	3.73
407.057	3.88
407.42	3.95
407.783	3.82
408.146	3.72
408.509	3.94
408.872	3.86
409.235	3.72
409.598	3.78
409.961	3.96
410.323	3.82
410.686	3.89
411.049	3.99
411.411	3.82
411.774	3.93
412.136	3.92
412.499	3.87
412.861	3.85
413.223	3.94
413.586	3.75
413.948	3.93
414.31	3.92
414.672	4.05
415.035	4.17
415.397	3.76
415.759	4.13
416.121	3.83
416.483	3.95
416.845	4.09
417.206	3.8
417.568	4.09
417.93	3.99
418.292	3.9
418.653	3.91
419.015	3.89
419.377	3.86
419.738	3.83
420.1	4.05
420.461	3.87
420.822	3.86
421.184	3.96
421.545	3.84
421.906	3.94
422.267	3.75
422.629	3.88
422.99	3.86
423.351	3.79
423.712	3.88
424.073	3.91
424.434	3.78
424.795	3.9
425.155	3.9
425.516	3.92
425.877	3.82
426.238	3.84
426.598	3.88
426.959	3.8
427.32	3.84
427.68	3.92
428.041	3.91
428.401	4.07
428.761	4.08
429.122	3.92
429.482	4.17
429.842	3.89
430.202	4.08
430.563	4.07
430.923	3.94
431.283	3.96
431.643	4.03
432.003	4.21
432.363	4.13
432.722	4.07
433.082	4.04
433.442	3.9
433.802	3.92
434.161	4.05
434.521	4.02
434.881	4.1
435.24	3.84
435.6	4.1
435.959	3.99
436.319	4.05
436.678	4.09
437.037	4.06
437.396	4.14
437.756	4.09
438.115	3.86
438.474	4.1
438.833	4.15
439.192	4.06
439.551	4.15
439.91	4.11
440.269	4.02
440.628	4.13
440.987	4.03
441.345	4.16
441.704	4.11
442.063	4.03
442.421	4.22
442.78	4.11
443.138	4.19
443.497	4.04
443.855	3.99
444.214	4.2
444.572	4.06
444.93	4.15
445.288	4.04
445.647	3.98
446.005	4.08
446.363	4.07
446.721	3.93
447.079	4.07
447.437	4.12
447.795	4.15
448.153	4.01
448.51	4.09
448.868	4.04
449.226	4.03
449.584	4.09
449.941	4.02
450.299	4.2
450.656	4.21
451.014	4.22
451.371	4.27
451.729	4.12
452.086	4.06
452.443	4.14
452.801	4.21
453.158	4.21
453.515	4.4
453.872	4.12
454.229	4.34
454.586	4.13
454.943	4.17
455.3	4.25
455.657	4.07
456.014	4.24
456.371	4.1
456.727	4.43
457.084	4.34
457.441	4.17
457.797	4.23
458.154	4.17
458.51	4.41
458.867	4.12
459.223	4.35
459.58	4.47
459.936	4.13
460.292	4.2
460.648	4.16
461.005	4.21
461.361	4.31
461.717	4.22
462.073	4.2
462.429	4.24
462.785	4.19
463.141	4.24
463.496	4.2
463.852	4.2
464.208	4.31
464.564	4.25
464.919	4.48
465.275	4.3
465.631	4.42
465.986	4.38
466.342	4.43
466.697	4.42
467.052	4.3
467.408	4.22
467.763	4.3
468.118	4.53
468.473	4.27
468.829	4.25
469.184	4.32
469.539	4.4
469.894	4.46
470.249	4.23
470.603	4.33
470.958	4.19
471.313	4.36
471.668	4.27
472.023	4.32
472.377	4.48
472.732	4.45
473.086	4.44
473.441	4.27
473.795	4.37
474.15	4.33
474.504	4.57
474.859	4.34
475.213	4.5
475.567	4.44
475.921	4.31
476.275	4.55
476.63	4.34
476.984	4.41
477.338	4.53
477.692	4.59
478.045	4.5
478.399	4.33
478.753	4.45
479.107	4.54
479.461	4.58
479.814	4.54
480.168	4.49
480.521	4.42
480.875	4.51
481.228	4.47
481.582	4.47
481.935	4.37
482.289	4.35
482.642	4.48
482.995	4.58
483.348	4.45
483.701	4.47
484.055	4.39
484.408	4.44
484.761	4.42
485.114	4.32
485.466	4.27
485.819	4.23
486.172	4.23
486.525	4.27
486.878	4.29
487.23	4.42
487.583	4.38
487.936	4.37
488.288	4.44
488.641	4.44
488.993	4.42
489.345	4.35
489.698	4.38
490.05	4.4
490.402	4.39
490.754	4.45
491.107	4.42
491.459	4.54
491.811	4.43
492.163	4.6
492.515	4.54
492.866	4.51
493.218	4.46
493.57	4.39
493.922	4.5
494.274	4.45
494.625	4.48
494.977	4.58
495.328	4.56
495.68	4.54
496.031	4.59
496.383	4.61
496.734	4.65
497.086	4.82
497.437	4.7
497.788	4.73
498.139	4.65
498.49	4.61
498.842	4.78
499.193	4.68
499.544	4.77
499.894	4.7
500.245	4.73
500.596	4.71
500.947	4.76
501.298	4.76
501.648	4.69
501.999	4.76
502.35	4.8
502.7	4.69
503.051	4.81
503.401	4.84
503.752	4.9
504.102	4.83
504.452	4.87
504.803	4.83
505.153	4.74
505.503	4.77
505.853	4.81
506.203	4.83
506.553	4.85
506.903	4.87
507.253	4.84
507.603	4.85
507.953	4.92
508.303	4.96
508.652	4.8
509.002	4.99
509.352	4.96
509.701	4.91
510.051	4.96
510.4	4.95
510.75	4.89
511.099	4.93
511.449	4.79
511.798	4.87
512.147	5
512.496	4.97
512.846	4.83
513.195	4.99
513.544	4.79
513.893	5.05
514.242	5.07
514.591	4.99
514.939	5.03
515.288	5.04
515.637	5.04
515.986	4.98
516.334	5.06
516.683	5.04
517.032	5.11
517.38	5.16
517.729	5.11
518.077	5.07
518.426	5.15
518.774	5.16
519.122	5.16
519.47	5.08
519.819	5.11
520.167	5.06
520.515	5.02
520.863	4.95
521.211	5.08
521.559	5.17
521.907	5.07
522.255	5.24
522.602	5.21
522.95	5.2
523.298	5.31
523.645	5.2
523.993	5.28
524.341	5.26
524.688	5.43
525.036	5.33
525.383	5.39
525.73	5.34
526.078	5.28
526.425	5.29
526.772	5.33
527.119	5.33
527.466	5.42
527.814	5.34
528.161	5.23
528.508	5.29
528.854	5.32
529.201	5.33
529.548	5.28
529.895	5.26
530.242	5.25
530.588	5.18
530.935	5.24
531.282	5.26
531.628	5.22
531.975	5.35
532.321	5.39
532.667	5.4
533.014	5.46
533.36	5.51
533.706	5.47
534.052	5.45
534.399	5.53
534.745	5.56
535.091	5.46
535.437	5.49
535.783	5.48
536.129	5.5
536.474	5.6
536.82	5.53
537.166	5.61
537.512	5.7
537.857	5.63
538.203	5.63
538.549	5.58
538.894	5.65
539.239	5.73
539.585	5.73
539.93	5.7
540.276	5.82
540.621	5.9
540.966	5.92
541.311	5.81
541.656	5.92
542.001	5.8
542.346	5.81
542.691	5.82
543.036	5.7
543.381	5.7
543.726	5.77
544.071	5.73
544.415	5.82
544.76	5.84
545.105	5.85
545.449	5.92
545.794	5.89
546.138	5.88
546.483	6.06
546.827	6.01
547.171	6.1
547.516	6.04
547.86	6.13
548.204	6.15
548.548	6.04
548.892	6.13
549.236	6.19
549.58	6.21
549.924	6.21
550.268	6.34
550.612	6.15
550.956	6.16
551.3	6.36
551.643	6.44
551.987	6.27
552.33	6.33
552.674	6.4
553.017	6.6
553.361	6.56
553.704	6.28
554.048	6.36
554.391	6.41
554.734	6.56
555.077	6.53
555.42	6.5
555.764	6.73
556.107	6.62
556.45	6.68
556.793	6.62
557.135	6.65
557.478	6.58
557.821	6.8
558.164	6.75
558.507	6.57
558.849	6.91
559.192	6.77
559.534	6.77
559.877	6.97
560.219	6.84
560.562	7.05
560.904	7.19
561.246	6.96
561.589	6.96
561.931	6.69
562.273	7.12
562.615	6.94
562.957	6.94
563.299	6.91
563.641	6.94
563.983	6.94
564.325	7.01
564.667	7.08
565.008	6.98
565.35	7.08
565.692	7.28
566.033	7.28
566.375	7.11
566.716	7.12
567.058	7.37
567.399	7.23
567.741	7.19
568.082	7.27
568.423	7.27
568.764	7.26
569.105	7.38
569.447	7.45
569.788	7.45
570.129	7.39
570.47	7.55
570.811	7.57
571.151	7.52
571.492	7.73
571.833	7.51
572.174	7.75
572.514	7.51
572.855	7.48
573.195	7.59
573.536	7.63
573.876	7.61
574.217	7.78
574.557	7.78
574.898	7.83
575.238	7.74
575.578	8.03
575.918	7.92
576.258	7.85
576.598	7.83
576.938	8.01
577.278	7.78
577.618	7.69
577.958	7.94
578.298	7.89
578.638	8.13
578.977	8.19
579.317	8.14
579.657	8.09
579.996	8.06
580.336	8.07
580.675	7.95
581.014	8.3
581.354	8.41
581.693	8.45
582.032	8.41
582.372	8.44
582.711	8.44
583.05	8.33
583.389	8.27
583.728	8.56
584.067	8.74
584.406	8.44
584.745	8.63
585.083	8.34
585.422	8.7
585.761	8.39
586.1	8.52
586.438	8.58
586.777	8.53
587.115	8.75
587.454	8.76
587.792	9.05
588.13	8.97
588.469	8.84
588.807	8.92
589.145	8.91
589.483	8.83
589.821	9.14
590.159	8.99
590.497	9.12
590.835	8.93
591.173	8.81
591.511	9.25
591.849	9.19
592.187	9.11
592.524	9.38
592.862	9.43
593.2	9.46
593.537	9.11
593.875	9.5
594.212	9.29
594.55	9.2
594.887	9.74
595.224	9.47
595.561	9.18
595.899	9.26
596.236	9.6
596.573	9.66
596.91	9.58
597.247	9.47
597.584	9.4
597.921	9.73
598.258	9.82
598.594	9.42
598.931	9.75
599.268	9.71
599.604	9.74
599.941	9.74
600.277	9.78
600.614	9.8
600.95	9.83
601.287	9.85
601.623	10.03
601.959	9.97
602.296	9.95
602.632	10.14
602.968	10.3
603.304	10.07
603.64	10.17
603.976	10
604.312	10.24
604.648	10.23
604.984	9.87
605.319	10.13
605.655	10.28
605.991	10.57
606.326	10.37
606.662	10.34
606.998	10.37
607.333	10.31
607.668	10.41
608.004	10.41
608.339	10.77
608.674	10.74
609.01	10.7
609.345	10.59
609.68	10.61
610.015	10.51
610.35	10.7
610.685	10.95
611.02	10.94
611.355	10.91
611.689	10.93
612.024	10.91
612.359	10.71
612.694	10.84
613.028	11.06
613.363	11.22
613.697	11.02
614.032	11.02
614.366	10.9
614.7	11.09
615.035	11.31
615.369	11.24
615.703	11.57
616.037	11.25
616.371	11.51
616.705	11.19
617.039	11.57
617.373	11.59
617.707	11.48
618.041	11.51
618.375	11.41
618.709	11.58
619.042	11.4
619.376	11.76
619.71	11.56
620.043	11.61
620.377	11.72
620.71	11.88
621.043	11.78
621.377	11.72
621.71	11.88
622.043	12.09
622.376	12.17
622.709	12.14
623.043	11.96
623.376	12.31
623.709	11.76
624.041	12.18
624.374	12.28
624.707	11.93
625.04	12.38
625.373	12.32
625.705	11.91
626.038	12.47
626.37	12.46
626.703	12.52
627.035	12.65
627.368	12.35
627.7	12.51
628.032	12.37
628.365	13.1
628.697	12.77
629.029	12.51
629.361	12.56
629.693	12.44
630.025	12.58
630.357	12.59
630.689	13.02
631.021	12.53
631.353	12.78
631.684	12.99
632.016	12.9
632.348	13.06
632.679	12.95
633.011	13.27
633.342	12.76
633.674	12.93
634.005	13.31
634.336	13.24
634.668	13.17
634.999	13.7
635.33	12.95
635.661	13.38
635.992	12.94
636.323	13.42
636.654	13.21
636.985	13.39
637.316	13.3
637.647	13.64
637.977	13.84
638.308	13.49
638.639	13.49
638.969	13.66
639.3	13.89
639.63	13.65
639.961	13.61
640.291	14.17
640.622	13.95
640.952	13.48
641.282	13.98
641.612	14.25
641.943	13.71
642.273	14.07
642.603	14.17
642.933	13.86
643.263	13.77
643.592	14.35
643.922	14.48
644.252	14.25
644.582	14.56
644.911	14.07
645.241	14.09
645.571	14.34
645.9	14.29
646.23	14.51
646.559	15.09
646.888	14.9
647.218	14.9
647.547	14.45
647.876	14.85
648.205	14.02
648.534	14.9
648.863	14.81
649.192	14.86
649.521	14.29
649.85	15.18
650.179	15.06
650.508	15.07
650.837	15.41
651.165	15.07
651.494	14.68
651.822	15.35
652.151	14.86
652.479	15.05
652.808	15.04
653.136	15.35
653.465	15.3
653.793	15.59
654.121	15.01
654.449	15.38
654.777	15.19
655.105	15.29
655.433	15.02
655.761	15.53
656.089	15.44
656.417	15.82
656.745	15.14
657.073	15.57
657.4	15.23
657.728	15.66
658.056	15.28
658.383	16.07
658.711	15.56
659.038	15.61
659.365	16.23
659.693	16.22
660.02	16.16
660.347	15.99
660.674	15.95
661.001	16
661.329	15.95
661.656	16.14
661.982	15.84
662.309	16.12
662.636	16.16
662.963	15.99
663.29	16.08
663.616	16.53
663.943	16.81
664.27	16.85
664.596	16.2
664.923	16.19
665.249	16.97
665.576	16.43
665.902	15.98
666.228	15.99
666.554	16.89
666.881	16.65
667.207	16.82
667.533	16.76
667.859	16.41
668.185	16.72
668.511	17.11
668.837	17.38
669.162	16.75
669.488	16.76
669.814	16.97
670.139	16.94
670.465	16.94
670.791	17.34
671.116	16.56
671.442	17.27
671.767	17.16
672.092	17.1
672.418	17.49
672.743	18
673.068	17.28
673.393	17.48
673.718	16.96
674.043	17.19
674.368	17.03
674.693	17.91
675.018	17.47
675.343	17.32
675.667	17.42
675.992	18.12
676.317	17.45
676.641	18.33
676.966	17.56
677.29	17.74
677.615	18.13
677.939	17.34
678.264	18.24
678.588	18
678.912	18.69
679.236	18.34
679.56	18.31
679.885	18.25
680.209	18.2
680.532	18.1
680.856	18.12
681.18	18.36
681.504	18.09
681.828	18.19
682.152	19.18
682.475	18.32
682.799	18.58
683.122	18.85
683.446	18.59
683.769	18.55
684.093	18.68
684.416	18.21
684.739	18.89
685.062	18.71
685.386	18.29
685.709	18.93
686.032	19.21
686.355	19.7
686.678	18.67
687.001	18.85
687.324	19.52
687.646	19.63
687.969	18.96
688.292	18.77
688.614	19.01
688.937	18.93
689.26	19.05
689.582	19.4
689.904	20.31
690.227	19.24
690.549	19.17
690.871	19.13
691.194	19.53
691.516	19.69
691.838	19.46
692.16	20.03
692.482	18.99
692.804	19.62
693.126	19.48
693.448	19.7
693.769	19.72
694.091	20.09
694.413	18.98
694.735	19.35
695.056	19.27
695.378	20.08
695.699	20.85
696.021	20.78
696.342	19.28
696.663	19.95
696.984	20.02
697.306	19.53
697.627	20.13
697.948	19.28
698.269	20.48
698.59	20.39
698.911	20.41
699.232	20.39
699.553	20.77
699.873	19.92
700.194	20.22
700.515	20.5
700.835	20.36
701.156	20.35
701.477	20.28
701.797	21.28
702.117	20.73
702.438	20.71
702.758	20.72
703.078	20.74
703.398	20.61
703.719	20.74
704.039	20.8
704.359	21.23
704.679	21.25
704.999	21.04
705.319	20.96
705.638	20.91
705.958	20.37
706.278	20.99
706.597	20.74
706.917	19.68
707.237	20.75
707.556	21.26
707.876	20.13
708.195	21.1
708.514	21.44
708.834	21.56
709.153	21.73
709.472	21.09
709.791	22.16
710.11	21.51
710.429	21.66
710.748	21.43
711.067	21.82
711.386	20.69
711.705	22.39
712.023	21.86
712.342	21.87
712.661	21.38
712.979	22.29
713.298	22.14
713.616	22.08
713.935	21.18
714.253	22.14
714.572	20.6
714.89	21.87
715.208	23.51
715.526	22.63
715.844	22.35
716.162	22.47
716.48	22.76
716.798	22.96
717.116	23.04
717.434	22.49
717.752	23.01
718.069	22.97
718.387	21.51
718.705	23
719.022	23.36
719.34	23.3
719.657	22.46
719.975	22.89
720.292	23.02
720.609	23.26
720.927	23.2
721.244	23.21
721.561	24.69
721.878	22.67
722.195	22.99
722.512	23.79
722.829	23.99
723.146	22.72
723.463	23.23
723.779	23.87
724.096	23.35
724.413	23.72
724.729	23.29
725.046	22.69
725.362	23.12
725.679	25.13
725.995	22.63
726.311	24.17
726.628	24.22
726.944	22.98
727.26	24.19
727.576	24.27
727.892	23.62
728.208	23
728.524	23.14
728.84	22.83
729.156	24.01
729.472	24.99
729.787	23.44
730.103	24.65
730.419	24.96
730.734	24.05
731.05	24.91
731.365	24.44
731.681	23.41
731.996	26.09
732.311	24.44
732.626	24.98
732.942	23.98
733.257	23.89
733.572	25.08
733.887	24.73
734.202	23.98
734.517	24.02
734.832	26.44
735.146	24.86
735.461	25.02
735.776	24.35
736.091	24.11
736.405	25.35
736.72	23.92
737.034	24.76
737.349	25.12
737.663	24.68
737.977	26.47
738.292	24.9
738.606	24.61
738.92	26.03
739.234	25.22
739.548	24.64
739.862	23.4
740.176	24.39
740.49	25.11
740.804	25.95
741.117	25.05
741.431	25.43
741.745	26.36
742.058	26.1
742.372	23.45
742.685	25.45
742.999	26.31
743.312	25.86
743.626	24.38
743.939	26.48
744.252	26.02
744.565	25.52
744.878	25.76
745.191	26.87
745.505	24.26
745.817	25.47
746.13	25.83
746.443	24.78
746.756	25.4
747.069	25.63
747.381	25.4
747.694	25.91
748.007	24.52
748.319	26.22
748.632	25.2
748.944	28.08
749.256	26.25
749.569	27.19
749.881	25.36
750.193	27.08
750.505	25.82
750.817	26.63
751.129	27.31
751.441	26.17
751.753	25.69
752.065	27.24
752.377	25.46
752.689	27.08
753	26.21
753.312	26.73
753.624	25.58
753.935	29.73
754.247	28.25
754.558	27.63
754.869	27.56
755.181	27.23
755.492	26.42
755.803	27.28
756.114	26.74
756.425	25.91
756.736	29.47
757.047	27.91
757.358	27.28
757.669	26.53
757.98	26.53
758.291	26.55
758.601	28.51
758.912	27.02
759.223	27.94
759.533	28.74
759.844	26.92
760.154	27.78
760.464	26.16
760.775	28.05
761.085	26.14
761.395	28.73
761.705	27.39
762.016	29.26
762.326	28.03
762.636	27.69
762.945	26.96
763.255	28.58
763.565	29.06
763.875	28.72
764.185	27.63
764.494	27.65
764.804	28
765.113	30.34
765.423	29.76
765.732	28.32
766.042	28.36
766.351	28.49
766.66	28.71
766.97	27.87
767.279	28.91
767.588	28.02
767.897	28.27
768.206	29.94
768.515	26.8
768.824	29.24
769.133	29.72
769.441	27.72
769.75	31.57
770.059	28.38
770.367	27.12
770.676	28.94
770.984	29
771.293	28.91
771.601	30.2
771.91	28.14
772.218	27.44
772.526	29.32
772.834	28.75
773.142	28.68
773.45	27.06
773.758	28.91
774.066	30.47
774.374	30.14
774.682	27.03
774.99	29.68
775.298	29.51
775.605	32.79
775.913	27.67
776.22	27.86
776.528	31.05
776.835	30.87
777.143	29.37
777.45	27.67
777.757	32.3
778.065	29.48
778.372	29.75
778.679	29.9
778.986	29.89
779.293	30.72
779.6	30.32
779.907	32.22
780.214	29.83
780.52	29.95
780.827	34
781.134	28.89
781.44	29.08
781.747	31.19
782.053	29.43
782.36	27.78
782.666	29.55
782.973	33.1
783.279	30.06
783.585	33.43
783.891	29.3
784.197	29.2
784.503	30.13
784.809	32.27
785.115	33.01
785.421	30.12
785.727	28.74
786.033	27.81
786.339	32.36
786.644	30.36
786.95	29.67
787.255	29.62
787.561	29.71
787.866	30.67
788.172	30.3
788.477	32.12
788.782	29.33
789.088	30.01
789.393	31.99
789.698	30.11
790.003	33.49
790.308	32.29
790.613	24.2
790.918	32.75
791.223	34.77
791.527	35.01
791.832	31.26
792.137	30.42
792.441	32.9
792.746	32.33
793.05	32.23
793.355	30.19
793.659	30.99
793.963	34.5
794.268	29.5
794.572	34.02
794.876	36.24
795.18	34.89
795.484	29.98
795.788	33.06
796.092	32.42
796.396	34.44
796.7	35.56
797.004	30.78
797.307	32.01
797.611	32.03
797.915	33.24
798.218	29.3
798.522	32.76
798.825	32.2
799.128	30.8
799.432	31.11
799.735	30.13
800.038	32.71
800.341	32.6
800.644	33.87
800.947	33.43
801.25	36.77
801.553	37.47
801.856	33.3
802.159	33.36
802.462	31.11
802.764	32.72
803.067	33.84
803.37	31.41
803.672	35.5
803.975	36.17
804.277	35.49
804.579	30.95
804.882	34.13
805.184	33
805.486	35.01
805.788	35.32
806.09	31.46
806.392	31.37
806.694	28.59
806.996	30.45
807.298	31.23
807.6	36.94
807.902	35.99
808.203	28.94
808.505	39.13
808.807	29.41
809.108	32.85
809.409	39.11
809.711	29.87
810.012	31.66
810.313	27.45
810.615	32.5
810.916	30.97
811.217	37.21
811.518	36.92
811.819	36.97
812.12	34.87
812.421	32.68
812.722	33.82
813.023	30.81
813.323	39.64
813.624	33.34
813.925	34.21
814.225	36.13
814.526	35.16
814.826	29.65
815.126	29.85
815.427	32.89
815.727	38.34
816.027	30.48
816.327	38.24
816.627	38.86
816.927	30.53
817.227	36.6
817.527	37.65
817.827	36.13
818.127	35.45
818.427	31.59
818.727	31.5
819.026	35.08
819.326	36.6
819.625	31.36
819.925	34.39
820.224	35.18
820.524	36.29
820.823	34.53
821.122	32.8
821.421	37.39
821.72	41.24
822.019	34.97
822.318	37.21
822.617	37.62
822.916	36.9
823.215	35.25
823.514	35.43
823.813	34.18
824.111	37.73
824.41	36.16
824.709	36.59
825.007	37.15
825.306	35.67
825.604	35.69
825.902	35.4
826.201	36.14
826.499	36.62
826.797	36.13
827.095	37.41
827.393	35.69
827.691	35.82
827.989	35.95
828.287	36.85
828.585	37.5
828.882	34.79
829.18	36.97
829.478	34.72
829.775	36.81
830.073	34.99
830.37	35.44
830.668	37.1
830.965	37.03
831.263	39.37
831.56	37.5
831.857	34.9
832.154	37.76
832.451	37.91
832.748	34.21
833.045	38.48
833.342	39.05
833.639	38.35
833.936	37.73
834.232	34.2
834.529	40.4
834.826	37.42
835.122	40.2
835.419	41.2
835.715	29.04
836.012	37.92
836.308	34.77
836.604	35.81
836.901	34.14
837.197	37.94
837.493	32.95
837.789	31.42
838.085	35.52
838.381	36.27
838.677	39.74
838.972	39.22
839.268	41.42
839.564	36.19
839.86	36.49
840.155	34.96
840.451	36.28
840.746	40.03
841.042	32.13
841.337	38.68
841.632	30.23
841.928	33.69
842.223	37.89
842.518	36.66
842.813	35.42
843.108	46.81
843.403	36.81
843.698	25.05
843.993	31.09
844.287	40.23
844.582	38.91
844.877	35.43
845.171	42.09
845.466	34.6
845.761	36.39
846.055	32.34
846.349	38.22
846.644	38.56
846.938	37.32
847.232	17.59
847.526	30.43
847.82	31.73
848.114	33.39
848.408	41.09
848.702	39.56
848.996	23.02
849.29	45.44
849.584	28.13
849.877	41.98
850.171	40.79
850.465	33.9
850.758	30.37
851.052	41.57
851.345	34.83
851.638	7.65
851.932	49.32
852.225	39.49
852.518	41.1
852.811	35.07
853.104	43.48
853.397	7.11
853.69	38.85
853.983	47.52
854.276	34.19
854.569	25.6
854.861	25.05
855.154	40.65
855.447	31.26
855.739	35.88
856.032	52.35
856.324	33.98
856.616	42.25
856.909	27.32
857.201	45.65
857.493	53.05
857.785	68.61
858.077	34.08
858.369	42.58
858.661	43.8
858.953	38.51
859.245	25.24
859.537	35.81
859.829	45.55
860.12	43.43
860.412	55.03
860.703	24.21
860.995	33.6
861.286	39.01
861.578	55.98
861.869	42.36
862.16	40.47
862.452	41.59
862.743	60.41
863.034	55.28
863.325	31.5
863.616	48.95
863.907	30.55
864.198	34.74
864.488	4.54
864.779	34.38
865.07	38.9
865.36	44.91
865.651	34.07
865.941	42.37
866.232	16.53
866.522	53.84
866.813	58.99
867.103	45.81
867.393	37.9
867.683	5.11
867.973	58.93
868.263	33.65
868.553	23.87
868.843	25.56
869.133	45.44
869.423	23.04
869.713	28.86
870.002	50.35
870.292	20.13
870.582	34.01
870.871	31.28
871.161	18.63
871.45	28.02
871.739	49.94
872.029	27.9
872.318	41.28
872.607	44.56
872.896	40.06
873.185	51.55
873.474	41.73
873.763	34.18
874.052	45.05
874.341	20.49
874.63	57.7
874.918	24.61
875.207	31.11
875.496	39.22
875.784	30.38
876.073	40.83
876.361	52.88
876.649	40.38
876.938	37.74
877.226	54.4
877.514	57.12
877.802	51.93
878.09	21.43
878.378	21.75
878.666	37.03
878.954	57.42
879.242	28.4
879.53	21.65
879.817	50.58
880.105	24.82
880.392	30.17
880.68	12.35
880.967	39.89
881.255	49.9
881.542	34.78
881.83	42.59
882.117	41.44
882.404	7.35
882.691	38.57
882.978	46.06
883.265	35.28
883.552	19.51
883.839	40.79
884.126	39.65
884.413	36.33
884.699	30.1
884.986	39.03
885.273	44.21
885.559	44.21
885.846	44.21
