Data from 0033_crown_Reflection__2__174.txt Node

Date: Thu Oct 20 22:17:20 CDT 2022
User: ToomeyLab
Spectrometer: FLMS14357
Trigger mode: 0
Integration Time (sec): 1.000000E-2
Scans to average: 100
Electric dark correction enabled: true
Nonlinearity correction enabled: false
Boxcar width: 0
XAxis mode: Wavelengths
Number of Pixels in Spectrum: 2048
>>>>>Begin Spectral Data<<<<<
189.047	463.61
189.435	463.61
189.823	463.61
190.211	74
190.599	244.92
190.987	61.22
191.375	-955.89
191.763	1584.4
192.151	149.86
192.538	-239.06
192.926	390.11
193.314	-136.93
193.702	1022.68
194.089	215.11
194.477	130.74
194.864	-176.11
195.252	-0.54
195.639	-207.21
196.027	17.53
196.414	8.98
196.801	88.44
197.189	-17.94
197.576	-2128.76
197.963	397.56
198.351	-3.47
198.738	-50.05
199.125	-2.21
199.512	5.36
199.899	-23.18
200.286	-22.93
200.673	6.95
201.06	31.74
201.447	24.26
201.833	-73.8
202.22	9.98
202.607	33.12
202.994	-59.76
203.38	-43.76
203.767	16.77
204.154	-14.58
204.54	0.15
204.927	-10.79
205.313	33.19
205.699	13.53
206.086	4.36
206.472	-29.99
206.858	-24.96
207.245	-15.45
207.631	-14.18
208.017	-47.46
208.403	-96.83
208.789	-24.02
209.175	54.38
209.561	-2.71
209.947	7.06
210.333	0.53
210.719	12.32
211.105	20.41
211.491	-54.58
211.876	-44.85
212.262	17.64
212.648	-2.68
213.034	13.51
213.419	-21.97
213.805	-2.93
214.19	-51.75
214.576	-60
214.961	-53.69
215.346	27.17
215.732	9.97
216.117	-40.94
216.502	0.24
216.888	-11.46
217.273	-20.09
217.658	8.34
218.043	10.29
218.428	8.96
218.813	28.81
219.198	-10.17
219.583	5.46
219.968	21.08
220.353	-5.11
220.738	1.76
221.122	-1.56
221.507	0.25
221.892	1.08
222.276	9.43
222.661	1.61
223.046	10.72
223.43	-4.94
223.815	1.15
224.199	-7.27
224.583	-1.53
224.968	3.69
225.352	13.09
225.736	6.08
226.121	4.59
226.505	7.09
226.889	-2.37
227.273	2.91
227.657	3.59
228.041	1.99
228.425	4.86
228.809	5.56
229.193	5.31
229.577	5.11
229.961	6.88
230.344	6.24
230.728	5.61
231.112	6.16
231.495	5.23
231.879	7.78
232.263	6.18
232.646	5.09
233.03	5.15
233.413	1.75
233.797	3.85
234.18	4.75
234.563	6.72
234.946	5.67
235.33	6.82
235.713	5.08
236.096	4.7
236.479	5.71
236.862	7.22
237.245	4.12
237.628	6.37
238.011	5.48
238.394	6.73
238.777	6.65
239.16	5.2
239.543	4.15
239.925	5.67
240.308	5.73
240.691	6.96
241.073	4.54
241.456	5.7
241.838	5.53
242.221	5
242.603	5.46
242.986	5.73
243.368	6.12
243.75	5.66
244.133	5.79
244.515	5.39
244.897	5.87
245.279	4.78
245.661	6.15
246.043	6.33
246.425	4.97
246.807	5.32
247.189	5.66
247.571	6.1
247.953	5.46
248.335	5.53
248.717	5.28
249.098	5.34
249.48	5.15
249.862	5.3
250.243	5.31
250.625	5.83
251.006	5.67
251.388	4.8
251.769	4.69
252.151	5.39
252.532	4.38
252.913	4.59
253.295	5.1
253.676	5.52
254.057	4.25
254.438	5.01
254.819	5.56
255.2	5.31
255.581	4.67
255.962	4.91
256.343	4.37
256.724	5.06
257.105	5.58
257.486	4.66
257.867	6.12
258.247	5.85
258.628	4.22
259.009	4.52
259.389	4.97
259.77	5.24
260.15	5.28
260.531	5.07
260.911	5.02
261.292	5.23
261.672	4.89
262.052	4.79
262.432	5.12
262.813	4.49
263.193	5.08
263.573	5.09
263.953	4.95
264.333	4.68
264.713	4.99
265.093	4.22
265.473	4.78
265.853	5.5
266.233	4.02
266.612	4.62
266.992	4.39
267.372	4.9
267.752	5.2
268.131	5.39
268.511	5.18
268.89	4.64
269.27	4.51
269.649	4.33
270.029	4.43
270.408	4.1
270.787	4.03
271.167	3.96
271.546	4.2
271.925	4.97
272.304	4.61
272.683	4.47
273.062	4.33
273.441	4.62
273.82	4.99
274.199	4.29
274.578	4.44
274.957	4.55
275.336	4.54
275.715	4.47
276.093	4.35
276.472	5.02
276.851	4.91
277.229	4.12
277.608	4.15
277.986	4.44
278.365	4.12
278.743	4.57
279.122	4.56
279.5	3.67
279.878	4.78
280.257	4.73
280.635	4.42
281.013	4.48
281.391	5.21
281.769	5.08
282.147	3.84
282.525	4.27
282.903	4.4
283.281	3.84
283.659	4.17
284.037	3.72
284.415	4.34
284.792	4.28
285.17	4.63
285.548	4.06
285.925	3.81
286.303	4.17
286.68	4.81
287.058	4.29
287.435	4.15
287.813	4.15
288.19	4.23
288.567	4.26
288.945	4.19
289.322	3.86
289.699	3.81
290.076	4.1
290.453	3.66
290.83	4.02
291.207	4.28
291.584	4.32
291.961	4
292.338	3.81
292.715	3.83
293.092	4.23
293.469	4.17
293.845	4.48
294.222	4.47
294.599	4.36
294.975	3.82
295.352	4.25
295.728	4.36
296.105	4.19
296.481	3.62
296.858	4.16
297.234	4.02
297.61	4.09
297.986	3.7
298.363	3.95
298.739	3.98
299.115	3.73
299.491	4.11
299.867	3.75
300.243	3.94
300.619	3.78
300.995	4.04
301.371	4.22
301.746	3.77
302.122	4.23
302.498	3.88
302.874	3.94
303.249	4.69
303.625	3.46
304	3.97
304.376	3.55
304.751	4.05
305.127	3.56
305.502	3.92
305.878	4.31
306.253	3.48
306.628	3.95
307.003	3.89
307.378	3.59
307.754	4.12
308.129	3.89
308.504	3.53
308.879	3.45
309.254	4
309.629	3.69
310.003	3.5
310.378	3.98
310.753	4.36
311.128	3.82
311.502	3.77
311.877	3.81
312.252	3.7
312.626	3.83
313.001	3.94
313.375	4.1
313.75	3.69
314.124	3.74
314.498	4.11
314.873	3.89
315.247	4.02
315.621	3.79
315.995	3.69
316.369	4.14
316.743	3.54
317.117	3.86
317.491	3.98
317.865	3.9
318.239	4.45
318.613	4.21
318.987	3.67
319.361	4.19
319.734	3.44
320.108	3.68
320.482	3.93
320.855	3.86
321.229	3.55
321.602	3.11
321.976	3.47
322.349	3.8
322.723	4.22
323.096	3.66
323.469	3.67
323.843	3.79
324.216	3.5
324.589	4.18
324.962	3.43
325.335	4.28
325.708	4.07
326.081	4.11
326.454	3.72
326.827	3.93
327.2	4.7
327.573	3.77
327.945	4.05
328.318	3.46
328.691	4.03
329.063	4.12
329.436	3.57
329.809	4.33
330.181	3.8
330.553	3.68
330.926	4.04
331.298	3.24
331.671	4.2
332.043	3.87
332.415	3.88
332.787	4.03
333.159	4.12
333.532	3.9
333.904	3.89
334.276	4
334.648	3.75
335.02	3.5
335.391	3.86
335.763	4.09
336.135	4.52
336.507	3.57
336.879	4.72
337.25	3.64
337.622	4.52
337.993	3.62
338.365	4.08
338.736	3.64
339.108	3.84
339.479	4.02
339.851	3.74
340.222	4.13
340.593	3.78
340.964	3.63
341.336	3.82
341.707	3.93
342.078	3.96
342.449	3.87
342.82	3.85
343.191	3.94
343.562	4.31
343.933	3.91
344.303	4.19
344.674	4.16
345.045	4.32
345.416	3.95
345.786	3.99
346.157	4.29
346.527	3.83
346.898	4.11
347.268	3.96
347.639	4.35
348.009	4.06
348.38	3.94
348.75	3.89
349.12	3.88
349.49	4.25
349.861	4.26
350.231	4.53
350.601	4.22
350.971	4
351.341	4.91
351.711	4.17
352.081	4.22
352.45	4.23
352.82	4.15
353.19	4.38
353.56	3.85
353.929	3.95
354.299	4.69
354.669	3.93
355.038	4.22
355.408	3.99
355.777	4.16
356.147	4.38
356.516	4.25
356.885	3.97
357.254	4.33
357.624	4.38
357.993	4.26
358.362	4.46
358.731	4.44
359.1	4.1
359.469	4.33
359.838	4
360.207	4.22
360.576	4.19
360.945	4.67
361.314	4.26
361.682	4.44
362.051	4.06
362.42	4.39
362.788	4.31
363.157	4.2
363.525	4.17
363.894	4.17
364.262	4.4
364.631	4.43
364.999	4.13
365.367	4.49
365.735	4.38
366.104	3.95
366.472	4.41
366.84	4.69
367.208	4.43
367.576	4.66
367.944	4.8
368.312	4.53
368.68	4.61
369.048	4.05
369.416	4.12
369.783	4.62
370.151	4.8
370.519	4.54
370.886	4.37
371.254	4.74
371.621	4.35
371.989	4.63
372.356	4.48
372.724	4.69
373.091	4.42
373.458	4.22
373.826	4.73
374.193	4.6
374.56	4.35
374.927	4.48
375.294	4.19
375.661	4.99
376.028	4.47
376.395	4.72
376.762	4.42
377.129	4.34
377.496	4.25
377.863	4.31
378.229	4.44
378.596	4.38
378.963	4.64
379.329	4.64
379.696	4.53
380.062	4.38
380.429	4.73
380.795	4.32
381.161	4.54
381.528	4.57
381.894	4.69
382.26	4.43
382.626	4.51
382.993	4.45
383.359	4.66
383.725	4.65
384.091	4.92
384.457	4.46
384.823	4.26
385.188	4.49
385.554	4.43
385.92	4.36
386.286	4.3
386.651	4.38
387.017	4.33
387.383	4.43
387.748	4.81
388.114	4.55
388.479	4.63
388.845	4.65
389.21	4.41
389.575	4.64
389.94	4.78
390.306	4.81
390.671	4.63
391.036	4.55
391.401	4.53
391.766	4.78
392.131	4.77
392.496	4.74
392.861	4.34
393.226	4.62
393.591	4.74
393.956	4.71
394.32	4.66
394.685	4.92
395.05	4.62
395.414	4.58
395.779	4.7
396.143	4.72
396.508	4.58
396.872	4.79
397.236	4.52
397.601	4.87
397.965	4.7
398.329	4.72
398.694	4.57
399.058	4.72
399.422	4.92
399.786	4.62
400.15	4.87
400.514	4.81
400.878	4.6
401.242	4.69
401.605	4.92
401.969	4.74
402.333	4.55
402.697	5.04
403.06	4.65
403.424	4.68
403.787	4.87
404.151	4.62
404.514	4.8
404.878	4.78
405.241	4.77
405.604	4.81
405.968	4.67
406.331	4.6
406.694	4.68
407.057	4.81
407.42	4.73
407.783	4.77
408.146	4.88
408.509	4.59
408.872	4.99
409.235	4.66
409.598	4.72
409.961	4.91
410.323	4.88
410.686	4.83
411.049	4.71
411.411	4.75
411.774	4.67
412.136	4.86
412.499	4.89
412.861	4.95
413.223	4.57
413.586	4.69
413.948	4.6
414.31	4.52
414.672	4.95
415.035	4.75
415.397	4.69
415.759	4.73
416.121	4.9
416.483	4.66
416.845	4.9
417.206	4.82
417.568	4.67
417.93	4.73
418.292	5.07
418.653	4.81
419.015	4.96
419.377	4.77
419.738	4.73
420.1	4.77
420.461	4.77
420.822	4.68
421.184	4.64
421.545	4.73
421.906	4.69
422.267	4.62
422.629	4.73
422.99	4.66
423.351	4.69
423.712	4.61
424.073	4.76
424.434	4.7
424.795	4.67
425.155	4.59
425.516	4.73
425.877	4.74
426.238	4.69
426.598	4.69
426.959	4.65
427.32	4.75
427.68	4.73
428.041	4.75
428.401	4.73
428.761	4.72
429.122	4.74
429.482	4.81
429.842	4.9
430.202	4.74
430.563	4.64
430.923	5.07
431.283	4.75
431.643	4.67
432.003	4.86
432.363	4.9
432.722	4.97
433.082	4.82
433.442	4.73
433.802	4.83
434.161	4.88
434.521	4.74
434.881	4.8
435.24	4.66
435.6	4.65
435.959	4.8
436.319	4.87
436.678	4.7
437.037	4.93
437.396	4.85
437.756	4.8
438.115	4.79
438.474	4.74
438.833	4.76
439.192	4.77
439.551	4.84
439.91	4.73
440.269	4.83
440.628	4.82
440.987	4.91
441.345	4.76
441.704	4.77
442.063	4.91
442.421	4.66
442.78	4.67
443.138	4.75
443.497	4.79
443.855	4.71
444.214	4.78
444.572	4.85
444.93	4.75
445.288	4.7
445.647	4.79
446.005	4.75
446.363	4.79
446.721	4.76
447.079	4.71
447.437	4.61
447.795	4.64
448.153	4.65
448.51	4.68
448.868	4.68
449.226	4.6
449.584	4.58
449.941	4.76
450.299	4.81
450.656	4.7
451.014	4.81
451.371	4.78
451.729	4.59
452.086	4.78
452.443	4.56
452.801	4.82
453.158	4.85
453.515	5.02
453.872	4.74
454.229	4.78
454.586	4.81
454.943	4.63
455.3	4.82
455.657	4.69
456.014	4.76
456.371	4.6
456.727	4.88
457.084	4.66
457.441	4.99
457.797	4.74
458.154	4.83
458.51	4.5
458.867	4.76
459.223	4.99
459.58	4.83
459.936	4.84
460.292	4.82
460.648	4.64
461.005	4.66
461.361	4.74
461.717	4.77
462.073	4.73
462.429	4.77
462.785	4.83
463.141	4.85
463.496	4.84
463.852	4.71
464.208	4.79
464.564	4.74
464.919	4.76
465.275	4.8
465.631	4.82
465.986	4.93
466.342	4.82
466.697	4.69
467.052	4.81
467.408	4.77
467.763	4.76
468.118	4.8
468.473	4.93
468.829	4.88
469.184	4.86
469.539	4.73
469.894	4.52
470.249	4.79
470.603	4.79
470.958	4.91
471.313	4.76
471.668	4.6
472.023	4.75
472.377	4.79
472.732	4.84
473.086	4.82
473.441	4.98
473.795	4.82
474.15	4.82
474.504	4.65
474.859	4.88
475.213	4.76
475.567	4.85
475.921	4.6
476.275	4.86
476.63	4.83
476.984	4.69
477.338	4.75
477.692	4.8
478.045	4.73
478.399	4.85
478.753	4.71
479.107	4.74
479.461	4.8
479.814	4.83
480.168	4.82
480.521	4.78
480.875	4.79
481.228	4.71
481.582	4.84
481.935	4.75
482.289	4.68
482.642	4.61
482.995	4.71
483.348	4.81
483.701	4.64
484.055	4.63
484.408	4.63
484.761	4.63
485.114	4.54
485.466	4.5
485.819	4.44
486.172	4.44
486.525	4.42
486.878	4.47
487.23	4.55
487.583	4.57
487.936	4.63
488.288	4.59
488.641	4.57
488.993	4.53
489.345	4.49
489.698	4.46
490.05	4.47
490.402	4.56
490.754	4.57
491.107	4.51
491.459	4.65
491.811	4.59
492.163	4.62
492.515	4.71
492.866	4.62
493.218	4.59
493.57	4.55
493.922	4.48
494.274	4.56
494.625	4.46
494.977	4.64
495.328	4.65
495.68	4.68
496.031	4.73
496.383	4.78
496.734	4.7
497.086	4.77
497.437	4.85
497.788	4.74
498.139	4.67
498.49	4.8
498.842	4.56
499.193	4.63
499.544	4.73
499.894	4.7
500.245	4.73
500.596	4.77
500.947	4.71
501.298	4.75
501.648	4.8
501.999	4.79
502.35	4.79
502.7	4.8
503.051	4.87
503.401	4.82
503.752	4.78
504.102	4.67
504.452	4.83
504.803	4.58
505.153	4.72
505.503	4.96
505.853	4.67
506.203	4.75
506.553	4.78
506.903	4.63
507.253	4.75
507.603	4.84
507.953	4.77
508.303	4.88
508.652	4.7
509.002	4.73
509.352	4.7
509.701	4.72
510.051	4.67
510.4	4.62
510.75	4.61
511.099	4.64
511.449	4.71
511.798	4.73
512.147	4.75
512.496	4.8
512.846	4.78
513.195	4.7
513.544	4.71
513.893	4.76
514.242	4.69
514.591	4.8
514.939	4.63
515.288	4.69
515.637	4.72
515.986	4.75
516.334	4.62
516.683	4.78
517.032	4.71
517.38	4.72
517.729	4.73
518.077	4.74
518.426	4.8
518.774	4.64
519.122	4.77
519.47	4.67
519.819	4.67
520.167	4.59
520.515	4.61
520.863	4.52
521.211	4.62
521.559	4.63
521.907	4.62
522.255	4.66
522.602	4.63
522.95	4.66
523.298	4.72
523.645	4.77
523.993	4.7
524.341	4.74
524.688	4.74
525.036	4.61
525.383	4.74
525.73	4.63
526.078	4.7
526.425	4.68
526.772	4.65
527.119	4.62
527.466	4.68
527.814	4.58
528.161	4.52
528.508	4.57
528.854	4.65
529.201	4.63
529.548	4.65
529.895	4.57
530.242	4.47
530.588	4.43
530.935	4.44
531.282	4.39
531.628	4.48
531.975	4.51
532.321	4.47
532.667	4.61
533.014	4.67
533.36	4.58
533.706	4.62
534.052	4.58
534.399	4.69
534.745	4.66
535.091	4.56
535.437	4.53
535.783	4.48
536.129	4.52
536.474	4.53
536.82	4.53
537.166	4.6
537.512	4.61
537.857	4.64
538.203	4.68
538.549	4.56
538.894	4.48
539.239	4.5
539.585	4.65
539.93	4.59
540.276	4.78
540.621	4.67
540.966	4.74
541.311	4.71
541.656	4.63
542.001	4.51
542.346	4.65
542.691	4.57
543.036	4.46
543.381	4.5
543.726	4.43
544.071	4.48
544.415	4.62
544.76	4.44
545.105	4.64
545.449	4.52
545.794	4.61
546.138	4.67
546.483	4.7
546.827	4.7
547.171	4.61
547.516	4.65
547.86	4.64
548.204	4.75
548.548	4.69
548.892	4.65
549.236	4.63
549.58	4.6
549.924	4.67
550.268	4.67
550.612	4.75
550.956	4.67
551.3	4.68
551.643	4.66
551.987	4.7
552.33	4.58
552.674	4.56
553.017	4.61
553.361	4.81
553.704	4.8
554.048	4.71
554.391	4.73
554.734	4.76
555.077	4.65
555.42	4.65
555.764	4.55
556.107	4.5
556.45	4.72
556.793	4.7
557.135	4.52
557.478	4.66
557.821	4.76
558.164	4.69
558.507	4.51
558.849	4.8
559.192	4.69
559.534	4.96
559.877	4.68
560.219	4.77
560.562	4.78
560.904	4.66
561.246	4.75
561.589	4.84
561.931	4.65
562.273	4.65
562.615	4.87
562.957	4.63
563.299	4.6
563.641	4.52
563.983	4.75
564.325	4.56
564.667	4.66
565.008	4.7
565.35	4.77
565.692	4.61
566.033	4.52
566.375	4.74
566.716	4.63
567.058	4.6
567.399	4.75
567.741	4.59
568.082	4.69
568.423	4.85
568.764	4.58
569.105	4.72
569.447	4.7
569.788	4.6
570.129	4.71
570.47	4.63
570.811	4.48
571.151	4.61
571.492	4.56
571.833	4.54
572.174	4.64
572.514	4.69
572.855	4.73
573.195	4.64
573.536	4.64
573.876	4.44
574.217	4.66
574.557	4.63
574.898	4.45
575.238	4.72
575.578	4.57
575.918	4.68
576.258	4.68
576.598	4.59
576.938	4.54
577.278	4.47
577.618	4.68
577.958	4.64
578.298	4.73
578.638	4.55
578.977	4.61
579.317	4.52
579.657	4.47
579.996	4.7
580.336	5.03
580.675	4.87
581.014	4.63
581.354	4.81
581.693	4.57
582.032	4.6
582.372	4.71
582.711	4.56
583.05	4.69
583.389	4.76
583.728	4.65
584.067	4.52
584.406	4.84
584.745	4.51
585.083	4.65
585.422	4.84
585.761	4.81
586.1	4.9
586.438	4.86
586.777	4.73
587.115	4.78
587.454	4.76
587.792	4.68
588.13	4.77
588.469	4.9
588.807	4.55
589.145	4.52
589.483	4.59
589.821	4.47
590.159	4.79
590.497	4.55
590.835	4.55
591.173	4.54
591.511	4.75
591.849	4.63
592.187	4.55
592.524	4.41
592.862	4.57
593.2	4.79
593.537	4.65
593.875	4.52
594.212	4.66
594.55	4.36
594.887	4.4
595.224	4.85
595.561	4.58
595.899	4.73
596.236	4.69
596.573	4.78
596.91	4.65
597.247	4.63
597.584	4.52
597.921	4.52
598.258	4.52
598.594	4.6
598.931	4.68
599.268	4.54
599.604	4.36
599.941	4.55
600.277	4.35
600.614	4.61
600.95	4.66
601.287	4.57
601.623	4.49
601.959	4.38
602.296	4.43
602.632	4.48
602.968	4.66
603.304	4.5
603.64	4.57
603.976	4.54
604.312	4.67
604.648	4.58
604.984	4.48
605.319	4.28
605.655	4.64
605.991	4.27
606.326	4.74
606.662	4.51
606.998	4.58
607.333	4.4
607.668	4.37
608.004	4.44
608.339	4.7
608.674	4.7
609.01	4.65
609.345	4.29
609.68	4.49
610.015	4.74
610.35	4.6
610.685	4.48
611.02	4.33
611.355	4.44
611.689	4.48
612.024	4.34
612.359	4.47
612.694	4.52
613.028	4.46
613.363	4.58
613.697	4.66
614.032	4.73
614.366	4.38
614.7	4.36
615.035	4.39
615.369	4.44
615.703	4.28
616.037	4.61
616.371	4.41
616.705	4.55
617.039	4.69
617.373	4.3
617.707	4.61
618.041	4.38
618.375	4.27
618.709	4.53
619.042	4.41
619.376	4.38
619.71	4.68
620.043	4.41
620.377	4.39
620.71	4.55
621.043	4.39
621.377	4.13
621.71	4.53
622.043	4.4
622.376	4.68
622.709	4.89
623.043	4.39
623.376	4.95
623.709	4.4
624.041	4.67
624.374	4.44
624.707	4.42
625.04	5.11
625.373	4.7
625.705	4.48
626.038	4.66
626.37	4.41
626.703	4.59
627.035	4.74
627.368	4.72
627.7	4.59
628.032	4.66
628.365	4.56
628.697	4.69
629.029	4.77
629.361	4.33
629.693	4.47
630.025	4.72
630.357	4.42
630.689	4.48
631.021	4.71
631.353	4.79
631.684	4.67
632.016	4.41
632.348	4.5
632.679	4.22
633.011	4.72
633.342	4.78
633.674	4.14
634.005	4.19
634.336	4.55
634.668	4.51
634.999	4.42
635.33	4.64
635.661	4.55
635.992	4.61
636.323	4.93
636.654	4.54
636.985	4.56
637.316	4.47
637.647	4.47
637.977	4.77
638.308	4.41
638.639	4.66
638.969	4.34
639.3	4.32
639.63	4.49
639.961	4.13
640.291	4.23
640.622	4.68
640.952	4.51
641.282	4.73
641.612	4.65
641.943	4.7
642.273	4.43
642.603	4.21
642.933	4.77
643.263	4.25
643.592	4.4
643.922	4.62
644.252	4.47
644.582	4.49
644.911	4.81
645.241	4.47
645.571	4.41
645.9	5.03
646.23	4.9
646.559	4.87
646.888	4.59
647.218	3.99
647.547	4.54
647.876	4.44
648.205	4.49
648.534	4.16
648.863	4.4
649.192	4.53
649.521	4.18
649.85	4.79
650.179	4.32
650.508	4.71
650.837	4.01
651.165	4.2
651.494	4.48
651.822	4.89
652.151	4.32
652.479	4.31
652.808	4.19
653.136	4.27
653.465	4.66
653.793	4.77
654.121	4.69
654.449	4.95
654.777	4.24
655.105	4.67
655.433	4.62
655.761	4.43
656.089	4.03
656.417	4.44
656.745	4.79
657.073	4.55
657.4	4.9
657.728	4.37
658.056	4.61
658.383	4.43
658.711	4.91
659.038	4.91
659.365	4.34
659.693	4.48
660.02	4.71
660.347	4.56
660.674	4.98
661.001	4.24
661.329	4.18
661.656	4.11
661.982	4.5
662.309	4.41
662.636	4.77
662.963	4.32
663.29	4.44
663.616	4.59
663.943	4.74
664.27	4.75
664.596	5.15
664.923	4.43
665.249	4.87
665.576	5.04
665.902	4.49
666.228	3.9
666.554	4.42
666.881	4.75
667.207	4.81
667.533	4.5
667.859	4.71
668.185	5.15
668.511	4.27
668.837	4.44
669.162	5
669.488	5.02
669.814	4.64
670.139	4.73
670.465	4.72
670.791	4.82
671.116	5.15
671.442	4.69
671.767	4.91
672.092	4.6
672.418	4.67
672.743	4.21
673.068	4.26
673.393	4.35
673.718	4.76
674.043	4.41
674.368	4
674.693	4.33
675.018	5.34
675.343	4.66
675.667	4.69
675.992	4.77
676.317	5.41
676.641	4.68
676.966	4.68
677.29	4.91
677.615	4.51
677.939	4.95
678.264	4.42
678.588	4.77
678.912	4.08
679.236	5.02
679.56	4.12
679.885	4.43
680.209	4.52
680.532	4.74
680.856	4.96
681.18	4.77
681.504	4.46
681.828	4.48
682.152	5.49
682.475	4.43
682.799	4.89
683.122	4.7
683.446	4.24
683.769	5.01
684.093	5
684.416	5.12
684.739	4.94
685.062	4.35
685.386	4.44
685.709	4.29
686.032	4.7
686.355	4.29
686.678	4.58
687.001	4.31
687.324	4.78
687.646	4.32
687.969	4.43
688.292	5.14
688.614	4.58
688.937	4.49
689.26	4.34
689.582	4.38
689.904	4.71
690.227	4.77
690.549	5.7
690.871	3.76
691.194	4.81
691.516	4.91
691.838	4.51
692.16	5.01
692.482	4.63
692.804	5.29
693.126	5.21
693.448	4.35
693.769	4.26
694.091	4.66
694.413	5.13
694.735	5.39
695.056	4.47
695.378	5.04
695.699	4.87
696.021	4.49
696.342	4.36
696.663	4.56
696.984	4.72
697.306	4.98
697.627	4.93
697.948	3.7
698.269	4.6
698.59	4.74
698.911	4.45
699.232	4.83
699.553	5.07
699.873	4.79
700.194	5
700.515	4.66
700.835	5
701.156	4.99
701.477	4.33
701.797	4.51
702.117	4.4
702.438	4.98
702.758	4.33
703.078	4.91
703.398	4.5
703.719	4.75
704.039	5.38
704.359	5.78
704.679	4.9
704.999	5.15
705.319	4.78
705.638	5.32
705.958	3.94
706.278	5.07
706.597	4.27
706.917	4.94
707.237	3.67
707.556	5.08
707.876	5.17
708.195	3.46
708.514	4.93
708.834	4.77
709.153	4.61
709.472	4.94
709.791	4.96
710.11	4.37
710.429	5.44
710.748	4.43
711.067	4.89
711.386	4.3
711.705	4.65
712.023	4.66
712.342	4.82
712.661	4.71
712.979	5.37
713.298	5.49
713.616	3.89
713.935	5.38
714.253	4.92
714.572	5.53
714.89	4.93
715.208	5.33
715.526	4.13
715.844	6.02
716.162	4.76
716.48	4.82
716.798	5.43
717.116	5
717.434	5.44
717.752	4.29
718.069	5.45
718.387	5.08
718.705	5.26
719.022	3.88
719.34	5.27
719.657	5.79
719.975	5.48
720.292	3.88
720.609	4.93
720.927	4.77
721.244	5.28
721.561	5.09
721.878	4.95
722.195	5.16
722.512	5.45
722.829	5.54
723.146	4.82
723.463	6.27
723.779	4.03
724.096	4.61
724.413	5.29
724.729	5
725.046	6.32
725.362	6.04
725.679	4.03
725.995	5.28
726.311	5.95
726.628	6.05
726.944	3.96
727.26	3.9
727.576	6.32
727.892	4.51
728.208	3.78
728.524	6.29
728.84	3.96
729.156	5.8
729.472	5.13
729.787	5.59
730.103	5.87
730.419	4.96
730.734	4.8
731.05	4.62
731.365	5.59
731.681	4.49
731.996	5.11
732.311	3.62
732.626	4.09
732.942	4.69
733.257	5.31
733.572	4.51
733.887	5.41
734.202	5.45
734.517	4.95
734.832	3.42
735.146	4.85
735.461	4.13
735.776	5.06
736.091	3.76
736.405	4.01
736.72	3.64
737.034	5.29
737.349	6.89
737.663	4.87
737.977	3.81
738.292	4.05
738.606	3.75
738.92	4.77
739.234	5.19
739.548	4.89
739.862	5.23
740.176	4.74
740.49	5.05
740.804	4.8
741.117	5.45
741.431	4.48
741.745	6.21
742.058	7.17
742.372	5.23
742.685	4.83
742.999	2.82
743.312	5.95
743.626	4.38
743.939	4.52
744.252	5.77
744.565	5.06
744.878	6.98
745.191	8.25
745.505	5.94
745.817	5.33
746.13	6.5
746.443	5.4
746.756	5.17
747.069	6.14
747.381	4.01
747.694	6.04
748.007	4.88
748.319	7.4
748.632	4.34
748.944	4.85
749.256	5.01
749.569	5.08
749.881	5.03
750.193	4.57
750.505	2.7
750.817	5.79
751.129	4.94
751.441	6.17
751.753	5.73
752.065	4.69
752.377	5.61
752.689	6.68
753	7.17
753.312	4.59
753.624	5.35
753.935	5.97
754.247	5.86
754.558	7.37
754.869	5.71
755.181	4.87
755.492	4.97
755.803	5.08
756.114	6.4
756.425	5.22
756.736	5.71
757.047	4.49
757.358	6.47
757.669	7.35
757.98	5.98
758.291	4.69
758.601	4.53
758.912	3.73
759.223	6.1
759.533	5.41
759.844	4.48
760.154	6.93
760.464	3.38
760.775	6.61
761.085	5.8
761.395	6.17
761.705	6.25
762.016	4.73
762.326	4.75
762.636	6.76
762.945	4.24
763.255	5.59
763.565	6.85
763.875	6.26
764.185	5.71
764.494	4.93
764.804	4.79
765.113	5.29
765.423	6.64
765.732	6.56
766.042	5.69
766.351	5.51
766.66	5.5
766.97	5.59
767.279	5.65
767.588	5.45
767.897	4.39
768.206	5.57
768.515	6.28
768.824	6.58
769.133	6.66
769.441	4.85
769.75	6.25
770.059	5.68
770.367	7.02
770.676	4.35
770.984	4.15
771.293	4.92
771.601	4.64
771.91	7.85
772.218	6.1
772.526	5.39
772.834	7.22
773.142	8.92
773.45	5.4
773.758	3.39
774.066	4.04
774.374	5.44
774.682	4.68
774.99	3.91
775.298	6.91
775.605	6.12
775.913	5.4
776.22	6.49
776.528	1.97
776.835	4.17
777.143	7.3
777.45	4.72
777.757	5.95
778.065	7.14
778.372	4.01
778.679	7.17
778.986	5.15
779.293	2.51
779.6	4.66
779.907	8.02
780.214	6.88
780.52	4.95
780.827	0.94
781.134	7.04
781.44	5.96
781.747	4.91
782.053	5.31
782.36	5.35
782.666	6.81
782.973	2.74
783.279	8.48
783.585	3.74
783.891	6.21
784.197	3.57
784.503	6.68
784.809	5.7
785.115	3.77
785.421	6.48
785.727	3.46
786.033	6.4
786.339	7.8
786.644	1.92
786.95	7.3
787.255	6.57
787.561	1.66
787.866	4.26
788.172	6.54
788.477	7.54
788.782	6.6
789.088	-0.52
789.393	8.25
789.698	4.58
790.003	5.65
790.308	4.82
790.613	6.53
790.918	5.45
791.223	4.03
791.527	7.2
791.832	6.98
792.137	8.93
792.441	7.56
792.746	6.21
793.05	7.83
793.355	9.11
793.659	4.3
793.963	5.05
794.268	8.34
794.572	5.77
794.876	3.43
795.18	5.12
795.484	5.17
795.788	5.83
796.092	2.85
796.396	6.73
796.7	6.36
797.004	11.11
797.307	4.22
797.611	6.92
797.915	4.74
798.218	5.48
798.522	8.83
798.825	7.59
799.128	3.12
799.432	6.5
799.735	8.7
800.038	6.32
800.341	4.75
800.644	4.21
800.947	6.62
801.25	5.98
801.553	4.36
801.856	6.58
802.159	5.61
802.462	5.96
802.764	8.28
803.067	6.07
803.37	9.84
803.672	4.77
803.975	7.92
804.277	3.42
804.579	10.37
804.882	6.52
805.184	5.68
805.486	5.25
805.788	3.33
806.09	8.87
806.392	6.14
806.694	4.1
806.996	6.22
807.298	5.52
807.6	5.85
807.902	8.46
808.203	6.62
808.505	11.45
808.807	3.5
809.108	5.82
809.409	4.65
809.711	7.87
810.012	6.73
810.313	10.46
810.615	2.33
810.916	4.84
811.217	6.38
811.518	7.54
811.819	6.3
812.12	6.83
812.421	4.18
812.722	3.98
813.023	5.55
813.323	7.59
813.624	7.78
813.925	8.2
814.225	5.63
814.526	2.96
814.826	7.88
815.126	-1.35
815.427	2.52
815.727	5.68
816.027	-0.41
816.327	10.7
816.627	9.78
816.927	4.49
817.227	6.06
817.527	4.22
817.827	2.56
818.127	7.1
818.427	9.17
818.727	9.28
819.026	7.7
819.326	1.44
819.625	5.59
819.925	5.6
820.224	5.11
820.524	10.25
820.823	4.3
821.122	3
821.421	5.4
821.72	8.99
822.019	7.33
822.318	10.87
822.617	6.58
822.916	8.42
823.215	4.32
823.514	7.57
823.813	6.22
824.111	6.63
824.41	7.95
824.709	7.84
825.007	6.46
825.306	7.13
825.604	7.12
825.902	6.87
826.201	8.15
826.499	6.36
826.797	8.74
827.095	7.19
827.393	8.26
827.691	6.44
827.989	7.88
828.287	8.54
828.585	8.11
828.882	7.06
829.18	6.42
829.478	7.22
829.775	7.5
830.073	7.84
830.37	8.3
830.668	5.82
830.965	9.39
831.263	6.44
831.56	5.73
831.857	5.93
832.154	6.37
832.451	7.05
832.748	7.81
833.045	4.14
833.342	5.18
833.639	5.8
833.936	9.42
834.232	9.08
834.529	7.19
834.826	9.23
835.122	8
835.419	5.01
835.715	2.95
836.012	7.89
836.308	7.24
836.604	5.8
836.901	6.06
837.197	8.75
837.493	5.95
837.789	4.71
838.085	7.24
838.381	5.1
838.677	6.64
838.972	12.83
839.268	7.8
839.564	5.03
839.86	6.5
840.155	5.06
840.451	7.37
840.746	13.38
841.042	12.78
841.337	3.4
841.632	3.9
841.928	2.34
842.223	7.93
842.518	-0.55
842.813	6.81
843.108	7.7
843.403	7.44
843.698	1.11
843.993	8.73
844.287	6.15
844.582	2.14
844.877	0.4
845.171	7.37
845.466	-0.07
845.761	2.21
846.055	-0.27
846.349	15.45
846.644	6.43
846.938	11.8
847.232	15.3
847.526	-6.34
847.82	4.83
848.114	-27.67
848.408	5.65
848.702	-23.96
848.996	3.09
849.29	11.44
849.584	4.56
849.877	5.58
850.171	6.7
850.465	5.08
850.758	16.33
851.052	-1.18
851.345	8.79
851.638	9.99
851.932	-2.1
852.225	2.63
852.518	-15.41
852.811	6.27
853.104	-10.51
853.397	9.27
853.69	2.73
853.983	24.82
854.276	-7.34
854.569	-14.57
854.861	6.46
855.154	-6.36
855.447	-6.87
855.739	3.55
856.032	2.34
856.324	0.79
856.616	3.42
856.909	-33.72
857.201	4.12
857.493	5.77
857.785	6.25
858.077	6.43
858.369	0.56
858.661	6.51
858.953	-12.61
859.245	-0.53
859.537	9.16
859.829	6.2
860.12	7.21
860.412	14.49
860.703	12.09
860.995	16.51
861.286	5.84
861.578	36.71
861.869	4.71
862.16	-9.68
862.452	7.79
862.743	14.31
863.034	4.72
863.325	11.88
863.616	-12.57
863.907	1.6
864.198	-17.18
864.488	-0.76
864.779	8.85
865.07	-0.54
865.36	-12.89
865.651	5.28
865.941	7.37
866.232	20.85
866.522	11.83
866.813	5.55
867.103	-15.81
867.393	2.35
867.683	-21.24
867.973	-16.28
868.263	-11.26
868.553	8.99
868.843	-9.99
869.133	-7.82
869.423	0.8
869.713	-5.72
870.002	6.71
870.292	8.18
870.582	-13.85
870.871	4.57
871.161	19.76
871.45	15.46
871.739	6.09
872.029	13.29
872.318	11.26
872.607	7.43
872.896	-11.37
873.185	-14.46
873.474	-7.77
873.763	4.33
874.052	-18.98
874.341	2.89
874.63	-25.89
874.918	15.47
875.207	2.38
875.496	12.07
875.784	-10.02
876.073	-1.48
876.361	-21.23
876.649	9.1
876.938	-7.08
877.226	23.31
877.514	3.53
877.802	-16.74
878.09	10.37
878.378	16.31
878.666	15.44
878.954	4.65
879.242	31.04
879.53	-22.32
879.817	17.4
880.105	6.46
880.392	-16.33
880.68	18.21
880.967	-15.47
881.255	15.95
881.542	-3.6
881.83	16.42
882.117	-4.16
882.404	13.31
882.691	-17.2
882.978	4.66
883.265	4.96
883.552	1.38
883.839	9.59
884.126	11.38
884.413	9.15
884.699	13.5
884.986	9.33
885.273	11.19
885.559	11.19
885.846	11.19
