Data from 20-50_forehead_Reflection__1__41.txt Node

Date: Thu Feb 29 22:11:10 CST 2024
User: ToomeyLab
Spectrometer: FLMS14357
Trigger mode: 0
Integration Time (sec): 1.000000E-2
Scans to average: 100
Electric dark correction enabled: true
Nonlinearity correction enabled: false
Boxcar width: 0
XAxis mode: Wavelengths
Number of Pixels in Spectrum: 2048
>>>>>Begin Spectral Data<<<<<
189.047	8.96
189.435	8.96
189.823	8.96
190.211	-164.93
190.599	33.36
190.987	107.45
191.375	147.66
191.763	13.27
192.151	65.18
192.538	-306.76
192.926	167.25
193.314	-176.74
193.702	166
194.089	77.79
194.477	132.88
194.864	7.39
195.252	198.88
195.639	4794.44
196.027	44.89
196.414	39.64
196.801	-46.77
197.189	87.52
197.576	-56.51
197.963	70.75
198.351	-34.49
198.738	-2.38
199.125	114.8
199.512	-4.89
199.899	7.49
200.286	-13.48
200.673	22.89
201.06	30.98
201.447	75.16
201.833	24.18
202.22	16.17
202.607	10.33
202.994	-46.66
203.38	7.41
203.767	32.07
204.154	33.9
204.54	44.76
204.927	17.18
205.313	29.31
205.699	-32.85
206.086	41.4
206.472	45.59
206.858	5.46
207.245	24.17
207.631	15.02
208.017	32.13
208.403	-22.7
208.789	38.45
209.175	-12.18
209.561	19.22
209.947	20.8
210.333	14.86
210.719	24.86
211.105	8.6
211.491	8.68
211.876	24.97
212.262	22.83
212.648	-9.25
213.034	3.26
213.419	13.55
213.805	11.08
214.19	27.22
214.576	-2.72
214.961	1.09
215.346	25.12
215.732	20.98
216.117	-8.01
216.502	3.74
216.888	-1.24
217.273	26.9
217.658	40.75
218.043	20.27
218.428	1.74
218.813	5.24
219.198	8.77
219.583	16.32
219.968	14.67
220.353	-1.49
220.738	10.88
221.122	24.64
221.507	8.02
221.892	26.8
222.276	33.53
222.661	2.62
223.046	15.7
223.43	0.06
223.815	7.43
224.199	2.79
224.583	0.33
224.968	4.63
225.352	11.66
225.736	5.18
226.121	12.81
226.505	13.62
226.889	11.84
227.273	10.06
227.657	-0.2
228.041	6.62
228.425	6
228.809	8.18
229.193	5.76
229.577	7.77
229.961	6.51
230.344	5.76
230.728	7.07
231.112	7.57
231.495	6.31
231.879	6.22
232.263	4.81
232.646	6.81
233.03	6.51
233.413	5.71
233.797	6.81
234.18	6.11
234.563	5.33
234.946	7.52
235.33	7.34
235.713	6.14
236.096	8.22
236.479	8.04
236.862	7.67
237.245	6.44
237.628	6.2
238.011	8.2
238.394	6.21
238.777	5.26
239.16	5.89
239.543	8.08
239.925	6.22
240.308	8.12
240.691	9.52
241.073	7.67
241.456	7.09
241.838	7.95
242.221	7.59
242.603	8.71
242.986	7.94
243.368	7.8
243.75	7.91
244.133	7.28
244.515	7.33
244.897	7.98
245.279	7.68
245.661	7.89
246.043	6.76
246.425	8.85
246.807	8.52
247.189	8.12
247.571	8.31
247.953	7.6
248.335	7.52
248.717	7.58
249.098	7.41
249.48	7.42
249.862	7.79
250.243	7.42
250.625	7.48
251.006	7.86
251.388	7.3
251.769	8.3
252.151	8.71
252.532	8.06
252.913	7.49
253.295	7.67
253.676	7.5
254.057	7.48
254.438	7.88
254.819	8.18
255.2	6.77
255.581	7.42
255.962	7.94
256.343	7.57
256.724	7.42
257.105	8.58
257.486	7.37
257.867	7.49
258.247	8.62
258.628	7.94
259.009	8.22
259.389	6.72
259.77	7.26
260.15	8.65
260.531	7.91
260.911	7.69
261.292	7.36
261.672	7.46
262.052	7.45
262.432	7.29
262.813	6.71
263.193	8.12
263.573	7.66
263.953	6.81
264.333	7.49
264.713	7.82
265.093	7.5
265.473	7.22
265.853	7.59
266.233	7.57
266.612	7.34
266.992	7.81
267.372	7.07
267.752	7.05
268.131	6.96
268.511	7.35
268.89	7.54
269.27	7.15
269.649	7.18
270.029	7.17
270.408	7.03
270.787	7.14
271.167	7.05
271.546	7.37
271.925	7.1
272.304	7.58
272.683	7.28
273.062	6.93
273.441	7.08
273.82	7.43
274.199	7.51
274.578	7.11
274.957	7.26
275.336	7.88
275.715	7.61
276.093	6.71
276.472	7.99
276.851	7.19
277.229	7.51
277.608	6.93
277.986	7
278.365	7.43
278.743	7.3
279.122	6.8
279.5	7.52
279.878	6.84
280.257	6.77
280.635	7.04
281.013	7
281.391	6.59
281.769	7.31
282.147	7.03
282.525	7.52
282.903	7.14
283.281	7.17
283.659	7.12
284.037	6.9
284.415	6.51
284.792	6.68
285.17	6.49
285.548	7.29
285.925	7.09
286.303	7.01
286.68	6.77
287.058	7.09
287.435	7.14
287.813	7.16
288.19	7.12
288.567	7.45
288.945	7.01
289.322	7.25
289.699	7.13
290.076	7.12
290.453	7.36
290.83	7.67
291.207	7.13
291.584	7.27
291.961	7.31
292.338	7.65
292.715	7.37
293.092	7.87
293.469	7.74
293.845	7.13
294.222	7.48
294.599	7.05
294.975	8.18
295.352	8.34
295.728	8.22
296.105	8.36
296.481	7.46
296.858	8.38
297.234	7.66
297.61	8.39
297.986	8.49
298.363	8.06
298.739	7.89
299.115	8.49
299.491	7.83
299.867	8.14
300.243	8.2
300.619	8.01
300.995	8.7
301.371	8.92
301.746	8.34
302.122	9.45
302.498	8.85
302.874	8.82
303.249	9.04
303.625	8.74
304	8.95
304.376	9.01
304.751	8.56
305.127	8.94
305.502	9.24
305.878	9.76
306.253	9.05
306.628	9.49
307.003	9.57
307.378	9.7
307.754	10
308.129	9.46
308.504	9.65
308.879	9.51
309.254	9.35
309.629	9.6
310.003	10.13
310.378	9.97
310.753	9.56
311.128	9.99
311.502	10.46
311.877	10.11
312.252	10.14
312.626	10.03
313.001	10.45
313.375	10.56
313.75	10.82
314.124	10.74
314.498	10.67
314.873	10.91
315.247	9.75
315.621	11.01
315.995	11.2
316.369	11.18
316.743	10.54
317.117	10.62
317.491	10.98
317.865	11.08
318.239	11.48
318.613	11.36
318.987	11.62
319.361	10.89
319.734	11.83
320.108	11.84
320.482	11.49
320.855	11.76
321.229	12.2
321.602	11.31
321.976	11.02
322.349	11.39
322.723	12.2
323.096	12.24
323.469	11.92
323.843	11.43
324.216	11.94
324.589	11.29
324.962	11.25
325.335	11.64
325.708	12.44
326.081	11.66
326.454	11.7
326.827	11.73
327.2	12.55
327.573	12.39
327.945	11.92
328.318	11.68
328.691	12.09
329.063	11.81
329.436	11.98
329.809	12.35
330.181	12.67
330.553	12.44
330.926	12.11
331.298	12.62
331.671	11.87
332.043	12.68
332.415	12.04
332.787	11.83
333.159	12.4
333.532	12.28
333.904	12.33
334.276	12.41
334.648	12.85
335.02	11.58
335.391	12.11
335.763	12.26
336.135	11.68
336.507	11.95
336.879	12.41
337.25	13.06
337.622	12.14
337.993	12.67
338.365	12.08
338.736	12.53
339.108	12.76
339.479	12.77
339.851	13.11
340.222	12.6
340.593	12.85
340.964	13.08
341.336	12.46
341.707	12.7
342.078	12.57
342.449	13.34
342.82	12.78
343.191	12.7
343.562	12.8
343.933	12.41
344.303	12.97
344.674	12.8
345.045	12.73
345.416	12.76
345.786	12.71
346.157	13.41
346.527	12.63
346.898	13.04
347.268	12.97
347.639	12.87
348.009	12.98
348.38	12.93
348.75	12.92
349.12	13.14
349.49	13.06
349.861	13.08
350.231	13.07
350.601	13.08
350.971	12.83
351.341	12.88
351.711	13.31
352.081	13.41
352.45	12.87
352.82	13.09
353.19	13.37
353.56	13.8
353.929	13.47
354.299	13.22
354.669	13.32
355.038	13.25
355.408	12.99
355.777	13.28
356.147	13.35
356.516	13.09
356.885	13.02
357.254	12.99
357.624	12.75
357.993	13.31
358.362	13.46
358.731	13.46
359.1	13.53
359.469	13.42
359.838	13.29
360.207	13.36
360.576	13.58
360.945	13.3
361.314	13.57
361.682	13.37
362.051	13.49
362.42	13.61
362.788	13.63
363.157	13.45
363.525	13.4
363.894	13.69
364.262	13.23
364.631	13.42
364.999	13.44
365.367	13.62
365.735	13.51
366.104	13.85
366.472	13.39
366.84	14.04
367.208	14.13
367.576	13.63
367.944	13.54
368.312	13.9
368.68	13.54
369.048	13.86
369.416	14.16
369.783	13.74
370.151	13.96
370.519	14.15
370.886	14.43
371.254	13.94
371.621	14.19
371.989	13.85
372.356	14.01
372.724	14.35
373.091	14.32
373.458	13.85
373.826	14.18
374.193	14.03
374.56	14.19
374.927	13.96
375.294	13.89
375.661	14.13
376.028	14.17
376.395	14.1
376.762	14.74
377.129	14.03
377.496	14.37
377.863	14.23
378.229	13.82
378.596	14.16
378.963	14.06
379.329	14.26
379.696	13.77
380.062	13.91
380.429	13.79
380.795	14.07
381.161	14.27
381.528	14.13
381.894	13.98
382.26	14.05
382.626	14.19
382.993	14.05
383.359	13.99
383.725	13.76
384.091	14.26
384.457	14.07
384.823	14.18
385.188	14.19
385.554	13.92
385.92	14.06
386.286	13.73
386.651	14.08
387.017	14.18
387.383	14
387.748	14.25
388.114	13.6
388.479	14.4
388.845	13.95
389.21	13.69
389.575	13.69
389.94	13.84
390.306	13.74
390.671	13.93
391.036	14.08
391.401	13.71
391.766	13.65
392.131	13.84
392.496	13.69
392.861	13.73
393.226	13.99
393.591	13.97
393.956	13.97
394.32	13.89
394.685	13.91
395.05	13.82
395.414	13.62
395.779	13.62
396.143	13.51
396.508	13.58
396.872	13.78
397.236	13.61
397.601	13.64
397.965	13.84
398.329	13.44
398.694	13.29
399.058	13.77
399.422	13.43
399.786	13.57
400.15	13.23
400.514	13.31
400.878	13.3
401.242	13.38
401.605	13.44
401.969	13.76
402.333	13.34
402.697	12.96
403.06	13.52
403.424	13.44
403.787	13.19
404.151	13.19
404.514	13.18
404.878	13.13
405.241	13.23
405.604	12.85
405.968	13.05
406.331	12.89
406.694	13.18
407.057	13.12
407.42	13.19
407.783	12.86
408.146	13.19
408.509	13.29
408.872	13.09
409.235	12.97
409.598	13.32
409.961	13.03
410.323	13.24
410.686	13.1
411.049	12.98
411.411	13.1
411.774	12.87
412.136	12.91
412.499	13.08
412.861	13.08
413.223	12.97
413.586	13.19
413.948	12.96
414.31	13.14
414.672	13.03
415.035	13.36
415.397	13.14
415.759	13.26
416.121	13.5
416.483	13.37
416.845	13.23
417.206	13.31
417.568	13.57
417.93	13.4
418.292	13.51
418.653	13.66
419.015	13.45
419.377	13.61
419.738	13.61
420.1	13.65
420.461	13.62
420.822	13.59
421.184	13.74
421.545	13.85
421.906	13.89
422.267	13.82
422.629	13.9
422.99	14.02
423.351	14.06
423.712	14.14
424.073	14.03
424.434	14.17
424.795	14.3
425.155	14.51
425.516	14.55
425.877	14.56
426.238	14.65
426.598	14.68
426.959	14.78
427.32	15.06
427.68	14.98
428.041	14.97
428.401	15.23
428.761	15.31
429.122	15.59
429.482	15.53
429.842	15.77
430.202	15.64
430.563	15.9
430.923	16.06
431.283	15.85
431.643	16.3
432.003	16.24
432.363	16.18
432.722	16.16
433.082	16.38
433.442	16.54
433.802	16.66
434.161	16.76
434.521	16.51
434.881	16.83
435.24	16.82
435.6	16.81
435.959	16.98
436.319	17.09
436.678	16.85
437.037	16.92
437.396	17.24
437.756	17.22
438.115	17.37
438.474	17.47
438.833	17.57
439.192	17.63
439.551	17.9
439.91	17.83
440.269	17.6
440.628	17.75
440.987	17.76
441.345	17.91
441.704	18.01
442.063	18.06
442.421	18.02
442.78	18.05
443.138	18.23
443.497	18.15
443.855	18.24
444.214	18.58
444.572	18.61
444.93	18.69
445.288	18.71
445.647	18.63
446.005	18.65
446.363	18.59
446.721	18.86
447.079	18.78
447.437	18.78
447.795	18.86
448.153	18.77
448.51	18.84
448.868	18.81
449.226	19.1
449.584	19.09
449.941	19.1
450.299	19.24
450.656	19.41
451.014	19.4
451.371	19.5
451.729	19.52
452.086	19.54
452.443	19.61
452.801	19.76
453.158	19.8
453.515	19.78
453.872	20.01
454.229	19.97
454.586	19.7
454.943	20
455.3	20.16
455.657	20.06
456.014	20.27
456.371	20.33
456.727	20.22
457.084	20.22
457.441	20.61
457.797	20.37
458.154	20.67
458.51	20.52
458.867	20.93
459.223	20.56
459.58	20.76
459.936	20.93
460.292	20.77
460.648	20.69
461.005	20.69
461.361	20.63
461.717	20.77
462.073	20.69
462.429	20.94
462.785	21.06
463.141	21.27
463.496	21.44
463.852	21.32
464.208	21.52
464.564	21.55
464.919	21.56
465.275	21.48
465.631	21.74
465.986	21.73
466.342	21.58
466.697	21.75
467.052	21.83
467.408	22.04
467.763	22.09
468.118	21.74
468.473	21.99
468.829	21.95
469.184	22
469.539	22.23
469.894	22.18
470.249	22.45
470.603	22.38
470.958	22.51
471.313	22.24
471.668	22.5
472.023	22.37
472.377	22.48
472.732	22.7
473.086	22.55
473.441	22.78
473.795	22.75
474.15	22.89
474.504	22.78
474.859	22.69
475.213	22.96
475.567	22.87
475.921	23.1
476.275	23.16
476.63	23.1
476.984	23.18
477.338	23.23
477.692	23.13
478.045	22.99
478.399	23.27
478.753	23.33
479.107	23.4
479.461	23.34
479.814	23.53
480.168	23.31
480.521	23.46
480.875	23.53
481.228	23.49
481.582	23.61
481.935	23.66
482.289	23.5
482.642	23.47
482.995	23.5
483.348	23.4
483.701	23.5
484.055	23.52
484.408	23.45
484.761	23.24
485.114	22.94
485.466	22.9
485.819	22.88
486.172	23.05
486.525	23.19
486.878	23.27
487.23	23.36
487.583	23.54
487.936	23.69
488.288	23.62
488.641	23.55
488.993	23.46
489.345	23.41
489.698	23.42
490.05	23.63
490.402	23.66
490.754	23.77
491.107	24.03
491.459	24.14
491.811	24.21
492.163	24.27
492.515	24.29
492.866	24.14
493.218	23.97
493.57	23.98
493.922	24.07
494.274	24.18
494.625	24.37
494.977	24.57
495.328	24.73
495.68	24.93
496.031	24.83
496.383	24.87
496.734	25.04
497.086	24.83
497.437	25.21
497.788	25.25
498.139	25.09
498.49	25.12
498.842	25.08
499.193	25.11
499.544	25.27
499.894	25.39
500.245	25.19
500.596	25.22
500.947	25.27
501.298	25.38
501.648	25.49
501.999	25.57
502.35	25.53
502.7	25.67
503.051	25.7
503.401	25.49
503.752	25.73
504.102	25.85
504.452	25.75
504.803	25.77
505.153	25.66
505.503	25.84
505.853	26.12
506.203	25.88
506.553	26.05
506.903	25.82
507.253	25.98
507.603	26.17
507.953	26.03
508.303	26.15
508.652	26.07
509.002	26.26
509.352	26.21
509.701	26.22
510.051	26.11
510.4	26.15
510.75	26.1
511.099	26.26
511.449	26.3
511.798	26.44
512.147	26.26
512.496	26.29
512.846	26.46
513.195	26.32
513.544	26.53
513.893	26.47
514.242	26.55
514.591	26.28
514.939	26.32
515.288	26.55
515.637	26.69
515.986	26.76
516.334	26.52
516.683	26.75
517.032	26.86
517.38	26.82
517.729	26.9
518.077	26.86
518.426	26.69
518.774	26.82
519.122	26.81
519.47	26.68
519.819	26.61
520.167	26.49
520.515	26.59
520.863	26.55
521.211	26.8
521.559	26.69
521.907	26.89
522.255	26.87
522.602	27.01
522.95	27.08
523.298	26.96
523.645	26.98
523.993	27.23
524.341	27.21
524.688	27.2
525.036	27.22
525.383	27.36
525.73	27.27
526.078	27.22
526.425	27.34
526.772	27.03
527.119	27.05
527.466	27.05
527.814	27.01
528.161	27.07
528.508	26.97
528.854	27.01
529.201	27
529.548	26.86
529.895	26.62
530.242	26.48
530.588	26.52
530.935	26.61
531.282	26.72
531.628	26.79
531.975	26.94
532.321	27.08
532.667	27.41
533.014	27.41
533.36	27.38
533.706	27.41
534.052	27.56
534.399	27.32
534.745	27.06
535.091	27.14
535.437	27.13
535.783	27.24
536.129	27.57
536.474	27.52
536.82	27.58
537.166	27.84
537.512	27.96
537.857	27.89
538.203	27.77
538.549	27.65
538.894	27.81
539.239	27.83
539.585	28.03
539.93	28.04
540.276	28.16
540.621	28.26
540.966	28.21
541.311	28.45
541.656	28.4
542.001	28.22
542.346	28.06
542.691	27.98
543.036	27.75
543.381	27.78
543.726	27.9
544.071	28
544.415	28.01
544.76	28.28
545.105	28.27
545.449	28.43
545.794	28.53
546.138	28.7
546.483	28.98
546.827	28.92
547.171	28.9
547.516	28.9
547.86	29.06
548.204	28.97
548.548	28.92
548.892	28.85
549.236	29.2
549.58	29.12
549.924	29.25
550.268	29.21
550.612	29.35
550.956	29.45
551.3	29.96
551.643	29.55
551.987	29.49
552.33	29.73
552.674	29.89
553.017	29.79
553.361	29.95
553.704	29.93
554.048	29.91
554.391	29.91
554.734	30.03
555.077	29.91
555.42	29.85
555.764	30.01
556.107	30.35
556.45	30.22
556.793	30.23
557.135	30.17
557.478	30.41
557.821	30.37
558.164	30.5
558.507	30.71
558.849	30.56
559.192	30.44
559.534	30.58
559.877	30.74
560.219	30.46
560.562	30.77
560.904	30.86
561.246	30.58
561.589	30.86
561.931	30.71
562.273	30.81
562.615	30.94
562.957	30.78
563.299	30.96
563.641	30.84
563.983	31.03
564.325	30.69
564.667	31.21
565.008	31.39
565.35	31.24
565.692	31.36
566.033	31.35
566.375	31.34
566.716	31.33
567.058	31.49
567.399	31.48
567.741	31.27
568.082	31.38
568.423	31.32
568.764	31.53
569.105	31.49
569.447	31.45
569.788	31.59
570.129	31.74
570.47	31.6
570.811	31.63
571.151	31.86
571.492	32.05
571.833	32
572.174	31.82
572.514	32.04
572.855	31.94
573.195	32.03
573.536	32.05
573.876	32
574.217	32.24
574.557	31.98
574.898	32.17
575.238	32.17
575.578	32.45
575.918	32.32
576.258	32.17
576.598	32.15
576.938	32.39
577.278	32.39
577.618	32.47
577.958	32.58
578.298	32.6
578.638	32.83
578.977	32.76
579.317	32.82
579.657	32.98
579.996	33.24
580.336	33.51
580.675	33.19
581.014	33.47
581.354	33.27
581.693	33.75
582.032	33.54
582.372	33.66
582.711	33.75
583.05	33.67
583.389	33.9
583.728	33.22
584.067	34.01
584.406	33.94
584.745	34.1
585.083	33.96
585.422	33.97
585.761	34.07
586.1	34.41
586.438	34.48
586.777	33.98
587.115	33.87
587.454	34.14
587.792	34.47
588.13	34.57
588.469	34.8
588.807	34.58
589.145	34.72
589.483	34.46
589.821	34.83
590.159	34.82
590.497	34.79
590.835	35.04
591.173	35.1
591.511	35.18
591.849	35.15
592.187	35.32
592.524	35.08
592.862	35.22
593.2	35.26
593.537	35.36
593.875	35.7
594.212	35.16
594.55	35.51
594.887	35.87
595.224	35.53
595.561	35.77
595.899	36.05
596.236	35.93
596.573	35.85
596.91	36.05
597.247	36.1
597.584	35.77
597.921	35.84
598.258	35.82
598.594	35.83
598.931	35.76
599.268	35.91
599.604	36.32
599.941	36.34
600.277	36.41
600.614	36.57
600.95	36.52
601.287	36.38
601.623	36.5
601.959	36.45
602.296	36.94
602.632	36.61
602.968	36.7
603.304	37
603.64	36.82
603.976	36.84
604.312	37.19
604.648	36.87
604.984	36.87
605.319	36.96
605.655	36.92
605.991	36.65
606.326	36.92
606.662	37.07
606.998	37.11
607.333	37.06
607.668	37.27
608.004	37.77
608.339	37.34
608.674	37.57
609.01	37.28
609.345	37.61
609.68	37.22
610.015	37.78
610.35	37.9
610.685	37.91
611.02	37.51
611.355	37.73
611.689	37.85
612.024	37.99
612.359	38.07
612.694	38.37
613.028	38.13
613.363	38.36
613.697	38.14
614.032	38.2
614.366	38
614.7	38
615.035	38.13
615.369	38.21
615.703	38.35
616.037	38.71
616.371	38.8
616.705	38.38
617.039	38.7
617.373	38.99
617.707	38.77
618.041	38.17
618.375	38.99
618.709	38.63
619.042	38.63
619.376	38.64
619.71	38.74
620.043	38.85
620.377	39.31
620.71	38.58
621.043	39.26
621.377	39.07
621.71	39.75
622.043	39.4
622.376	39.3
622.709	39.77
623.043	39.05
623.376	39.83
623.709	39.81
624.041	40.01
624.374	39.57
624.707	40.04
625.04	39.57
625.373	40.25
625.705	39.88
626.038	39.77
626.37	39.29
626.703	39.57
627.035	40.02
627.368	40.27
627.7	40.53
628.032	39.75
628.365	40.55
628.697	39.92
629.029	40.65
629.361	39.98
629.693	40.2
630.025	40.38
630.357	40.82
630.689	40.55
631.021	40.87
631.353	40.75
631.684	41.04
632.016	40.55
632.348	41.18
632.679	40.83
633.011	41.33
633.342	41.24
633.674	40.83
634.005	41.23
634.336	41.19
634.668	41.73
634.999	41.43
635.33	41.57
635.661	41.47
635.992	41.47
636.323	41.74
636.654	41.74
636.985	41.89
637.316	41.78
637.647	41.88
637.977	41.83
638.308	42.14
638.639	42.4
638.969	42.36
639.3	42.42
639.63	42.16
639.961	42.33
640.291	42.06
640.622	43.21
640.952	42.01
641.282	42.08
641.612	42.77
641.943	42.92
642.273	42.49
642.603	42.96
642.933	42.61
643.263	43.52
643.592	43.07
643.922	43.48
644.252	43.25
644.582	42.56
644.911	43.29
645.241	43.58
645.571	43.98
645.9	43.28
646.23	43.81
646.559	43.86
646.888	43.58
647.218	44.06
647.547	43.72
647.876	44.44
648.205	43.74
648.534	44
648.863	44.55
649.192	44.92
649.521	44.63
649.85	44.5
650.179	44.36
650.508	44.77
650.837	44.55
651.165	44.54
651.494	44.83
651.822	44.56
652.151	44.85
652.479	44.96
652.808	44.76
653.136	45.01
653.465	44.4
653.793	44.57
654.121	44.87
654.449	45.82
654.777	45.16
655.105	45.83
655.433	45.65
655.761	45.33
656.089	45.59
656.417	45.37
656.745	44.99
657.073	46.2
657.4	45.75
657.728	45.43
658.056	45.91
658.383	45.61
658.711	46.23
659.038	45.84
659.365	46.14
659.693	45.63
660.02	46.26
660.347	46.18
660.674	46.68
661.001	46.08
661.329	45.97
661.656	46.47
661.982	47.2
662.309	47.24
662.636	46.49
662.963	46.29
663.29	46.62
663.616	46.57
663.943	47.5
664.27	47.11
664.596	46.86
664.923	46.53
665.249	47.22
665.576	46.72
665.902	46.98
666.228	47.68
666.554	47.25
666.881	47.42
667.207	47.74
667.533	47
667.859	47.74
668.185	47.23
668.511	47.36
668.837	47.77
669.162	47.33
669.488	47.01
669.814	47.47
670.139	47.11
670.465	47.79
670.791	47.79
671.116	48.18
671.442	47.5
671.767	47.7
672.092	47.94
672.418	48.22
672.743	48.28
673.068	48.3
673.393	47.47
673.718	48.55
674.043	47.79
674.368	49.19
674.693	48.5
675.018	48.34
675.343	49.14
675.667	48.38
675.992	48.93
676.317	48.71
676.641	49.13
676.966	48.93
677.29	48.93
677.615	49.08
677.939	48.72
678.264	48.42
678.588	48.97
678.912	48.52
679.236	48.52
679.56	49.39
679.885	50.12
680.209	49.73
680.532	49.12
680.856	49.51
681.18	50.04
681.504	50.52
681.828	49.55
682.152	49.68
682.475	49.56
682.799	49.46
683.122	50.83
683.446	50.3
683.769	50.05
684.093	50.22
684.416	49.76
684.739	49.68
685.062	50.04
685.386	50.12
685.709	50.68
686.032	49.52
686.355	50.54
686.678	50.28
687.001	49.56
687.324	49.47
687.646	50.26
687.969	50.55
688.292	50.77
688.614	50.55
688.937	50.64
689.26	51.02
689.582	51.14
689.904	50.63
690.227	50.42
690.549	50.62
690.871	50.92
691.194	49.74
691.516	50.82
691.838	50.02
692.16	51.2
692.482	51.3
692.804	51.72
693.126	51.35
693.448	50.45
693.769	52.14
694.091	50.5
694.413	51.13
694.735	50.43
695.056	51.91
695.378	51.36
695.699	50.79
696.021	50.92
696.342	51.9
696.663	51.13
696.984	51.74
697.306	52.3
697.627	51.52
697.948	52.28
698.269	52.66
698.59	51.86
698.911	52.22
699.232	51.29
699.553	51.51
699.873	52.08
700.194	52.72
700.515	52.58
700.835	52.62
701.156	52.06
701.477	52.42
701.797	52.29
702.117	52.35
702.438	52.47
702.758	53.51
703.078	52.87
703.398	52.6
703.719	52.84
704.039	53.93
704.359	52.93
704.679	52.02
704.999	52.02
705.319	51.87
705.638	51.81
705.958	52.87
706.278	52.36
706.597	52.5
706.917	53.19
707.237	53.17
707.556	52.87
707.876	52.87
708.195	53.12
708.514	52.82
708.834	53.58
709.153	54.07
709.472	53.5
709.791	52.41
710.11	53.05
710.429	53.14
710.748	52.86
711.067	53.49
711.386	53.19
711.705	53.26
712.023	53.32
712.342	52.22
712.661	54.22
712.979	53.78
713.298	53.98
713.616	53.09
713.935	52.83
714.253	53.43
714.572	52.84
714.89	52.69
715.208	53.89
715.526	54.26
715.844	54.27
716.162	54.05
716.48	52.95
716.798	54.05
717.116	54.99
717.434	55
717.752	53.34
718.069	54.63
718.387	53.98
718.705	53.83
719.022	55.5
719.34	54.8
719.657	54.95
719.975	54.2
720.292	53.86
720.609	54.02
720.927	54.47
721.244	55.4
721.561	55.33
721.878	54.94
722.195	55.14
722.512	54.94
722.829	54.27
723.146	54.08
723.463	53.85
723.779	55.66
724.096	54.84
724.413	55.78
724.729	54.87
725.046	53.33
725.362	55.59
725.679	56.03
725.995	55.04
726.311	54.73
726.628	54.39
726.944	56.05
727.26	52.69
727.576	54.9
727.892	54.09
728.208	54.57
728.524	53.94
728.84	54.75
729.156	54.33
729.472	54.58
729.787	55.03
730.103	56.36
730.419	54.98
730.734	55.88
731.05	57.66
731.365	56.65
731.681	55.8
731.996	56.27
732.311	54.87
732.626	54.12
732.942	55.76
733.257	55.94
733.572	55.73
733.887	55.41
734.202	57.48
734.517	55.26
734.832	55.35
735.146	55.86
735.461	55.93
735.776	55.09
736.091	53.42
736.405	56.22
736.72	56.68
737.034	55.87
737.349	55.25
737.663	55.73
737.977	55.83
738.292	55.47
738.606	56.29
738.92	57.32
739.234	55.45
739.548	57.36
739.862	56.36
740.176	54.15
740.49	57.27
740.804	57.73
741.117	57.98
741.431	56.22
741.745	54.53
742.058	54.18
742.372	55.75
742.685	53.89
742.999	55.48
743.312	57.31
743.626	56.26
743.939	57.52
744.252	56.23
744.565	55.75
744.878	55.36
745.191	54.67
745.505	53.83
745.817	56.5
746.13	56.56
746.443	57.23
746.756	55.88
747.069	55.84
747.381	57.46
747.694	56.39
748.007	54.95
748.319	57.87
748.632	57.11
748.944	54.83
749.256	57.52
749.569	56.95
749.881	57.81
750.193	55.37
750.505	58.39
750.817	57.26
751.129	58.8
751.441	58.18
751.753	58.86
752.065	59.17
752.377	58.62
752.689	58.28
753	60.38
753.312	58.42
753.624	54.47
753.935	57.7
754.247	57.49
754.558	57.78
754.869	56.07
755.181	57.91
755.492	56.29
755.803	57.34
756.114	59.68
756.425	58.01
756.736	56.13
757.047	57.8
757.358	58.83
757.669	57.82
757.98	58.36
758.291	57.57
758.601	57.38
758.912	57.78
759.223	56.66
759.533	56.66
759.844	57.17
760.154	58.86
760.464	59.26
760.775	58.2
761.085	59.08
761.395	58.05
761.705	58.07
762.016	57.66
762.326	58.48
762.636	59
762.945	58.43
763.255	58.97
763.565	59.79
763.875	60.21
764.185	58.61
764.494	60.46
764.804	58.57
765.113	59.48
765.423	58.15
765.732	59.02
766.042	59.02
766.351	57.98
766.66	57.74
766.97	58.29
767.279	58.77
767.588	58.75
767.897	58.27
768.206	57.89
768.515	57.56
768.824	55.53
769.133	60.51
769.441	58.78
769.75	60.32
770.059	56.94
770.367	56.79
770.676	56.59
770.984	56.28
771.293	58.58
771.601	61.17
771.91	60.42
772.218	59.39
772.526	55.58
772.834	58.01
773.142	56.31
773.45	59.55
773.758	59.28
774.066	57.73
774.374	56.86
774.682	59.73
774.99	62.31
775.298	54.2
775.605	59.74
775.913	55.85
776.22	58.72
776.528	60.09
776.835	59.05
777.143	61.28
777.45	58.91
777.757	57.75
778.065	58.32
778.372	56.96
778.679	62.38
778.986	58.66
779.293	55.65
779.6	59.27
779.907	62.94
780.214	60.02
780.52	58.78
780.827	56.9
781.134	62.08
781.44	60.48
781.747	59.16
782.053	60.66
782.36	59.24
782.666	59.36
782.973	60.02
783.279	55.59
783.585	57.39
783.891	62.08
784.197	55.17
784.503	58.56
784.809	60.35
785.115	58.83
785.421	62.83
785.727	57.42
786.033	62.83
786.339	63.49
786.644	57.68
786.95	56.45
787.255	59.8
787.561	58.28
787.866	56.2
788.172	59.17
788.477	60.53
788.782	56.14
789.088	58.55
789.393	59.87
789.698	62.5
790.003	63.34
790.308	60.76
790.613	61.78
790.918	58.01
791.223	63.21
791.527	59.38
791.832	59.59
792.137	62.26
792.441	61.13
792.746	59.46
793.05	58.31
793.355	61.85
793.659	65.46
793.963	62.46
794.268	60.02
794.572	52.94
794.876	59.03
795.18	62.4
795.484	56.17
795.788	55.31
796.092	61.43
796.396	58.68
796.7	59.75
797.004	62.51
797.307	61.65
797.611	59.32
797.915	60.5
798.218	59.83
798.522	58.92
798.825	62.93
799.128	61.77
799.432	58.68
799.735	55.9
800.038	58.46
800.341	58.09
800.644	62.67
800.947	59.4
801.25	61.47
801.553	61.93
801.856	58.03
802.159	58.35
802.462	57.73
802.764	59.64
803.067	60.98
803.37	58.25
803.672	57.99
803.975	65.12
804.277	58.79
804.579	60.63
804.882	60.02
805.184	59.41
805.486	61.32
805.788	56.5
806.09	64.8
806.392	62.79
806.694	55.58
806.996	61.04
807.298	55.83
807.6	58.48
807.902	63.67
808.203	63.14
808.505	65.57
808.807	58.2
809.108	62.62
809.409	66.04
809.711	61.04
810.012	55.6
810.313	58.1
810.615	60.91
810.916	60.64
811.217	60.91
811.518	61.73
811.819	61.57
812.12	63.94
812.421	58.34
812.722	62.41
813.023	64.05
813.323	63.64
813.624	56.28
813.925	58.07
814.225	52.17
814.526	60.89
814.826	58.47
815.126	57.48
815.427	62.58
815.727	61.3
816.027	59.13
816.327	51.47
816.627	63.92
816.927	57.2
817.227	60.76
817.527	64.6
817.827	66.5
818.127	54.95
818.427	57.38
818.727	55.2
819.026	59.4
819.326	60.08
819.625	62.58
819.925	64.27
820.224	65.27
820.524	55.49
820.823	58.21
821.122	54.24
821.421	62.02
821.72	56.45
822.019	62.44
822.318	64.24
822.617	59.62
822.916	59.34
823.215	59.17
823.514	57.25
823.813	62.32
824.111	65.69
824.41	62.11
824.709	63.57
825.007	64.25
825.306	64.33
825.604	63.06
825.902	62.76
826.201	61.78
826.499	64.35
826.797	62.5
827.095	62.23
827.393	60.6
827.691	61.88
827.989	62.54
828.287	60.67
828.585	64.61
828.882	61.54
829.18	64.41
829.478	63.64
829.775	61.2
830.073	62.54
830.37	60.45
830.668	63.43
830.965	63.64
831.263	63.22
831.56	63.21
831.857	65.41
832.154	63.46
832.451	60.17
832.748	63.93
833.045	54.79
833.342	63.52
833.639	63.98
833.936	69.03
834.232	62.12
834.529	63.49
834.826	62.09
835.122	65.86
835.419	57.83
835.715	59.45
836.012	60.57
836.308	60.92
836.604	60.14
836.901	63.9
837.197	66.57
837.493	60.38
837.789	67.02
838.085	63.21
838.381	63.89
838.677	61.72
838.972	60.59
839.268	66.86
839.564	64.05
839.86	58.85
840.155	56.07
840.451	66.45
840.746	52.94
841.042	59.31
841.337	56.07
841.632	64.58
841.928	66.45
842.223	64.19
842.518	64.51
842.813	58.79
843.108	60.54
843.403	64.4
843.698	64.26
843.993	57.24
844.287	72.77
844.582	67.1
844.877	50.02
845.171	52.74
845.466	57.12
845.761	69.12
846.055	55.42
846.349	48.79
846.644	44.55
846.938	69.48
847.232	60.04
847.526	41.43
847.82	44.96
848.114	61.22
848.408	42.3
848.702	30.24
848.996	58.62
849.29	69.33
849.584	58.52
849.877	43.62
850.171	54.4
850.465	42.13
850.758	52.92
851.052	75.83
851.345	62.11
851.638	59.05
851.932	45.23
852.225	52.05
852.518	58.49
852.811	65.54
853.104	29.71
853.397	60.64
853.69	41.77
853.983	67.15
854.276	73.5
854.569	62.3
854.861	58.11
855.154	75.19
855.447	48.38
855.739	70.83
856.032	65.57
856.324	67.59
856.616	55.69
856.909	67.6
857.201	76.79
857.493	47.1
857.785	60.85
858.077	59.48
858.369	48.77
858.661	37.24
858.953	77.41
859.245	56.66
859.537	70.91
859.829	64.95
860.12	66.3
860.412	53.53
860.703	68.02
860.995	33.21
861.286	52.4
861.578	113.46
861.869	65.52
862.16	36.9
862.452	31.65
862.743	28.3
863.034	52.15
863.325	66.88
863.616	86.69
863.907	54.91
864.198	69.2
864.488	50.8
864.779	42.77
865.07	35.16
865.36	29.02
865.651	78.19
865.941	51.99
866.232	36.53
866.522	53.22
866.813	41.67
867.103	38.63
867.393	44.09
867.683	44.29
867.973	45.28
868.263	84.06
868.553	41.71
868.843	62.92
869.133	52.12
869.423	34.13
869.713	25.27
870.002	47.5
870.292	21.99
870.582	36.06
870.871	64.27
871.161	46.76
871.45	76.48
871.739	87.61
872.029	64.68
872.318	35.54
872.607	101.12
872.896	57.41
873.185	50.76
873.474	56.94
873.763	67.84
874.052	62.71
874.341	17.4
874.63	56.44
874.918	52.87
875.207	34.24
875.496	80.91
875.784	60.07
876.073	70.28
876.361	63.1
876.649	57.91
876.938	65.41
877.226	38.15
877.514	48.65
877.802	45.96
878.09	80.55
878.378	47.5
878.666	38.83
878.954	62.41
879.242	60.3
879.53	94.74
879.817	68.15
880.105	31.26
880.392	38.62
880.68	51.92
880.967	73.73
881.255	57.71
881.542	38.53
881.83	82.46
882.117	58.19
882.404	65.08
882.691	85.39
882.978	58.7
883.265	54.84
883.552	52.82
883.839	52.96
884.126	44.78
884.413	65.19
884.699	70.24
884.986	60.79
885.273	63.01
885.559	63.01
885.846	63.01
