Data from 20-50_forehead_Reflection__3__43.txt Node

Date: Thu Feb 29 22:11:30 CST 2024
User: ToomeyLab
Spectrometer: FLMS14357
Trigger mode: 0
Integration Time (sec): 1.000000E-2
Scans to average: 100
Electric dark correction enabled: true
Nonlinearity correction enabled: false
Boxcar width: 0
XAxis mode: Wavelengths
Number of Pixels in Spectrum: 2048
>>>>>Begin Spectral Data<<<<<
189.047	-63.83
189.435	-63.83
189.823	-63.83
190.211	-630.22
190.599	19.02
190.987	40.25
191.375	96.17
191.763	-244.27
192.151	155.69
192.538	-1091.22
192.926	499.71
193.314	-155.21
193.702	62.79
194.089	-42.79
194.477	205.35
194.864	243.7
195.252	101.86
195.639	5552.78
196.027	210.96
196.414	158.61
196.801	-24.68
197.189	16.96
197.576	52.85
197.963	-120.23
198.351	5.53
198.738	-7.06
199.125	22.19
199.512	35.7
199.899	15.19
200.286	-16.42
200.673	9.22
201.06	7.97
201.447	-52.78
201.833	63.39
202.22	12.83
202.607	-61.86
202.994	13.08
203.38	-48.67
203.767	48.38
204.154	52.48
204.54	51.65
204.927	20.27
205.313	45
205.699	-44.83
206.086	30.21
206.472	57.1
206.858	13.47
207.245	28.12
207.631	11.41
208.017	14.74
208.403	2.47
208.789	23.41
209.175	-75.29
209.561	13.83
209.947	5.85
210.333	95.94
210.719	53.28
211.105	-6.19
211.491	-35.62
211.876	17.91
212.262	31.85
212.648	23.69
213.034	38.46
213.419	30.73
213.805	29.91
214.19	29.7
214.576	-13.3
214.961	1.62
215.346	25.55
215.732	24.91
216.117	26.58
216.502	10.84
216.888	-28.01
217.273	11.15
217.658	28.42
218.043	17.01
218.428	26.72
218.813	6.24
219.198	10.77
219.583	-1.74
219.968	13.86
220.353	-7.7
220.738	14.97
221.122	10.4
221.507	20.25
221.892	12.35
222.276	26.16
222.661	29.1
223.046	-1.34
223.43	1.24
223.815	-0.85
224.199	5.52
224.583	11.51
224.968	1.94
225.352	11.69
225.736	10.05
226.121	6.9
226.505	13.37
226.889	11.79
227.273	6.1
227.657	-2.43
228.041	8.4
228.425	7.87
228.809	9.67
229.193	4.77
229.577	7.97
229.961	4.14
230.344	5.85
230.728	6.22
231.112	6.37
231.495	4.85
231.879	6.12
232.263	3.86
232.646	6.43
233.03	6.67
233.413	6.65
233.797	5.29
234.18	4.73
234.563	3.91
234.946	4.61
235.33	6.66
235.713	2.91
236.096	6.19
236.479	5.21
236.862	7.77
237.245	6.39
237.628	3.99
238.011	7.79
238.394	4.44
238.777	4.06
239.16	6.57
239.543	5.2
239.925	6.79
240.308	6.4
240.691	7.53
241.073	6.66
241.456	5.7
241.838	5.03
242.221	6.1
242.603	6.23
242.986	5.76
243.368	5.87
243.75	6.46
244.133	5.52
244.515	5.48
244.897	5.94
245.279	6.39
245.661	6.08
246.043	5.27
246.425	7.26
246.807	6.72
247.189	5.29
247.571	5.17
247.953	6.12
248.335	5.76
248.717	6.08
249.098	5.95
249.48	5.61
249.862	5.88
250.243	5.92
250.625	5.97
251.006	6.78
251.388	6.49
251.769	6.41
252.151	7.32
252.532	6.48
252.913	5.84
253.295	6.14
253.676	6.25
254.057	6.01
254.438	6.26
254.819	6.6
255.2	5.67
255.581	6.16
255.962	7.52
256.343	6.61
256.724	7.77
257.105	5.18
257.486	6.88
257.867	6.22
258.247	5.65
258.628	5.13
259.009	6.12
259.389	4.92
259.77	7.09
260.15	7.01
260.531	6.34
260.911	5.84
261.292	5.79
261.672	6.01
262.052	5.8
262.432	5.8
262.813	5.47
263.193	5.92
263.573	6.32
263.953	5.93
264.333	6.06
264.713	5.63
265.093	5.25
265.473	6.21
265.853	6.39
266.233	6.56
266.612	5.69
266.992	6.31
267.372	5.84
267.752	5.54
268.131	6.06
268.511	6.16
268.89	6.25
269.27	5.9
269.649	6.15
270.029	5.59
270.408	5.69
270.787	5.79
271.167	5.69
271.546	6.39
271.925	5.75
272.304	5.39
272.683	6.29
273.062	5.31
273.441	5.55
273.82	5.82
274.199	5.41
274.578	5.44
274.957	5.26
275.336	5.86
275.715	6.01
276.093	5.28
276.472	6.26
276.851	5.23
277.229	5.9
277.608	5.95
277.986	5.8
278.365	6.42
278.743	5.61
279.122	5.46
279.5	5.28
279.878	5.69
280.257	6.45
280.635	5.71
281.013	6.32
281.391	4.98
281.769	5.62
282.147	5.86
282.525	5.71
282.903	5.48
283.281	5.6
283.659	5.9
284.037	5.84
284.415	5.02
284.792	5.09
285.17	4.87
285.548	6.03
285.925	5.27
286.303	5.88
286.68	5.46
287.058	5.65
287.435	5.48
287.813	5.34
288.19	5.48
288.567	5.3
288.945	5.86
289.322	5.82
289.699	6.16
290.076	5.73
290.453	5.61
290.83	5.4
291.207	5.61
291.584	5.53
291.961	5.82
292.338	6.21
292.715	5.79
293.092	5.69
293.469	6.11
293.845	6.18
294.222	5.67
294.599	6.37
294.975	6.21
295.352	6.19
295.728	6.64
296.105	6.43
296.481	6.09
296.858	6.83
297.234	5.84
297.61	6.73
297.986	6.74
298.363	6.39
298.739	6.53
299.115	6.74
299.491	6.54
299.867	6.55
300.243	6.79
300.619	6.61
300.995	6.82
301.371	7.43
301.746	6.62
302.122	7.43
302.498	7.38
302.874	7.41
303.249	6.84
303.625	7.53
304	7.44
304.376	7.24
304.751	7.37
305.127	6.93
305.502	7.03
305.878	8.11
306.253	7.3
306.628	7.16
307.003	7.72
307.378	8.4
307.754	8.43
308.129	7.51
308.504	7.78
308.879	8.09
309.254	7.76
309.629	8
310.003	8.02
310.378	8.21
310.753	7.79
311.128	8.53
311.502	8.3
311.877	8.26
312.252	8.63
312.626	8.86
313.001	8.48
313.375	8.95
313.75	8.74
314.124	9.02
314.498	8.82
314.873	8.89
315.247	9.04
315.621	10.06
315.995	9.76
316.369	9.5
316.743	8.88
317.117	9.6
317.491	8.97
317.865	9.47
318.239	9.85
318.613	9.66
318.987	10.14
319.361	9.89
319.734	10.23
320.108	10.38
320.482	10.17
320.855	9.74
321.229	9.72
321.602	9.98
321.976	10.16
322.349	9.81
322.723	10.9
323.096	10.22
323.469	10.2
323.843	10.04
324.216	10.95
324.589	10.33
324.962	10.38
325.335	10.21
325.708	11.25
326.081	10.54
326.454	11.11
326.827	10.14
327.2	10.91
327.573	10.3
327.945	11.2
328.318	10.83
328.691	11.25
329.063	11.15
329.436	11.44
329.809	11.12
330.181	11.15
330.553	11.66
330.926	11.09
331.298	11.54
331.671	11.96
332.043	11.96
332.415	11.35
332.787	10.78
333.159	11.72
333.532	11.67
333.904	11.97
334.276	11.92
334.648	11.91
335.02	11.38
335.391	11.26
335.763	11.38
336.135	11.44
336.507	11.51
336.879	12.06
337.25	12.22
337.622	11.83
337.993	12.12
338.365	11.63
338.736	12.24
339.108	12.25
339.479	12.45
339.851	12.15
340.222	12.67
340.593	12.5
340.964	12.75
341.336	12
341.707	12.3
342.078	12.31
342.449	12.8
342.82	12.56
343.191	12.21
343.562	12.71
343.933	12.42
344.303	12.67
344.674	12.63
345.045	12.6
345.416	12.36
345.786	12.53
346.157	12.29
346.527	12.87
346.898	13.13
347.268	12.91
347.639	12.93
348.009	12.67
348.38	12.43
348.75	13.15
349.12	12.88
349.49	13.5
349.861	13.46
350.231	12.89
350.601	13.36
350.971	13.35
351.341	13.03
351.711	13.43
352.081	13.66
352.45	12.95
352.82	12.97
353.19	14.18
353.56	14.05
353.929	13.33
354.299	13.48
354.669	13.26
355.038	13.22
355.408	13.65
355.777	13.42
356.147	13.59
356.516	13.36
356.885	13.75
357.254	13.53
357.624	13.91
357.993	13.69
358.362	13.56
358.731	13.65
359.1	13.95
359.469	14
359.838	13.65
360.207	13.87
360.576	14.13
360.945	13.36
361.314	14.31
361.682	13.73
362.051	14.01
362.42	13.95
362.788	14.05
363.157	13.91
363.525	14.05
363.894	14.19
364.262	13.92
364.631	14.23
364.999	13.96
365.367	14.23
365.735	14.6
366.104	14.34
366.472	13.93
366.84	14.53
367.208	14.55
367.576	14.54
367.944	14.25
368.312	14.3
368.68	14.49
369.048	14.4
369.416	14.82
369.783	14.34
370.151	14.86
370.519	14.49
370.886	14.6
371.254	15.25
371.621	15.1
371.989	14.59
372.356	14.84
372.724	15.27
373.091	15.01
373.458	14.82
373.826	14.59
374.193	14.69
374.56	15.48
374.927	15.22
375.294	14.8
375.661	15.05
376.028	15
376.395	15.34
376.762	15.35
377.129	15.26
377.496	15.29
377.863	15.11
378.229	15.07
378.596	15.03
378.963	15.14
379.329	15.18
379.696	15.05
380.062	15.42
380.429	15.21
380.795	15.59
381.161	15.93
381.528	15.32
381.894	15.21
382.26	15.35
382.626	15.79
382.993	15.53
383.359	15.73
383.725	15.59
384.091	15.75
384.457	15.7
384.823	15.62
385.188	15.51
385.554	15.57
385.92	16.02
386.286	15.29
386.651	15.29
387.017	15.57
387.383	15.6
387.748	15.72
388.114	15.6
388.479	15.81
388.845	15.62
389.21	16
389.575	15.93
389.94	15.78
390.306	15.38
390.671	15.63
391.036	15.98
391.401	15.95
391.766	15.83
392.131	15.66
392.496	15.88
392.861	15.76
393.226	16.06
393.591	16.02
393.956	16.02
394.32	16.03
394.685	16.01
395.05	15.78
395.414	16.09
395.779	15.8
396.143	16.09
396.508	15.98
396.872	16.04
397.236	15.9
397.601	15.9
397.965	15.98
398.329	16.09
398.694	15.62
399.058	16.13
399.422	15.75
399.786	16.06
400.15	16.03
400.514	15.82
400.878	16.07
401.242	16.05
401.605	15.93
401.969	16.16
402.333	15.82
402.697	16.04
403.06	16
403.424	15.83
403.787	16.06
404.151	16.21
404.514	15.8
404.878	15.91
405.241	16.07
405.604	15.85
405.968	16.03
406.331	15.99
406.694	15.87
407.057	15.96
407.42	16.06
407.783	16.09
408.146	16.39
408.509	16.13
408.872	16.35
409.235	16.25
409.598	16.26
409.961	16.22
410.323	16.42
410.686	16.14
411.049	16.23
411.411	16.28
411.774	16.28
412.136	16.09
412.499	16.5
412.861	15.97
413.223	16
413.586	16.26
413.948	16.33
414.31	16.49
414.672	16.66
415.035	16.6
415.397	16.61
415.759	16.96
416.121	17.1
416.483	16.67
416.845	16.63
417.206	16.61
417.568	16.51
417.93	16.83
418.292	16.82
418.653	16.99
419.015	16.87
419.377	16.91
419.738	16.62
420.1	16.95
420.461	16.99
420.822	16.92
421.184	17.1
421.545	16.96
421.906	16.93
422.267	17.09
422.629	17.04
422.99	17.11
423.351	17.19
423.712	17.23
424.073	17.11
424.434	17.41
424.795	17.54
425.155	17.59
425.516	17.57
425.877	17.63
426.238	17.7
426.598	17.69
426.959	17.61
427.32	17.97
427.68	18.03
428.041	18.02
428.401	18.25
428.761	18.48
429.122	18.24
429.482	18.53
429.842	18.66
430.202	18.59
430.563	18.72
430.923	18.84
431.283	18.68
431.643	18.67
432.003	19.17
432.363	18.75
432.722	18.94
433.082	18.97
433.442	19.03
433.802	19.12
434.161	19.35
434.521	19.29
434.881	19.34
435.24	19.45
435.6	19.29
435.959	19.43
436.319	19.36
436.678	19.54
437.037	19.54
437.396	19.66
437.756	19.89
438.115	19.95
438.474	19.83
438.833	20.3
439.192	20.23
439.551	20.07
439.91	20.13
440.269	20.22
440.628	20.41
440.987	20.25
441.345	20.27
441.704	20.29
442.063	20.31
442.421	20.38
442.78	20.42
443.138	20.48
443.497	20.5
443.855	20.63
444.214	20.81
444.572	20.81
444.93	20.7
445.288	21
445.647	20.92
446.005	20.92
446.363	20.93
446.721	21.01
447.079	20.92
447.437	20.99
447.795	21.04
448.153	21.05
448.51	21.06
448.868	21.02
449.226	21.13
449.584	21.25
449.941	21.22
450.299	21.45
450.656	21.52
451.014	21.49
451.371	21.66
451.729	21.73
452.086	21.87
452.443	21.82
452.801	21.87
453.158	22.08
453.515	21.79
453.872	22.15
454.229	21.81
454.586	21.86
454.943	22.28
455.3	22.28
455.657	22.22
456.014	22.48
456.371	22.41
456.727	22.44
457.084	22.46
457.441	22.7
457.797	22.54
458.154	23.11
458.51	22.58
458.867	23.03
459.223	22.85
459.58	22.99
459.936	23.06
460.292	22.77
460.648	22.86
461.005	22.73
461.361	22.88
461.717	22.72
462.073	22.77
462.429	22.99
462.785	22.92
463.141	23.19
463.496	23.4
463.852	23.35
464.208	23.55
464.564	23.58
464.919	23.69
465.275	23.83
465.631	23.77
465.986	23.9
466.342	23.6
466.697	23.77
467.052	23.79
467.408	23.79
467.763	24.42
468.118	24
468.473	24.04
468.829	24.18
469.184	24.36
469.539	24.16
469.894	24.37
470.249	24.22
470.603	24.22
470.958	24.59
471.313	24.35
471.668	24.57
472.023	24.39
472.377	24.39
472.732	24.58
473.086	24.71
473.441	24.95
473.795	24.86
474.15	24.63
474.504	24.72
474.859	24.76
475.213	24.78
475.567	25.04
475.921	24.96
476.275	25.07
476.63	25.14
476.984	25.28
477.338	25.31
477.692	25.08
478.045	25.19
478.399	25.31
478.753	25.31
479.107	25.36
479.461	25.33
479.814	25.32
480.168	25.36
480.521	25.56
480.875	25.33
481.228	25.69
481.582	25.75
481.935	25.71
482.289	25.72
482.642	25.59
482.995	25.74
483.348	25.63
483.701	25.59
484.055	25.58
484.408	25.57
484.761	25.25
485.114	25.02
485.466	24.79
485.819	24.86
486.172	24.89
486.525	25.09
486.878	25.12
487.23	25.39
487.583	25.54
487.936	25.71
488.288	25.71
488.641	25.53
488.993	25.59
489.345	25.47
489.698	25.35
490.05	25.64
490.402	25.69
490.754	25.89
491.107	26
491.459	26.17
491.811	26.4
492.163	26.41
492.515	26.31
492.866	26.22
493.218	26.02
493.57	26.07
493.922	26.03
494.274	26.24
494.625	26.53
494.977	26.79
495.328	26.85
495.68	27.31
496.031	27.08
496.383	26.99
496.734	27.32
497.086	27.29
497.437	27.38
497.788	27.26
498.139	27.31
498.49	27.4
498.842	27.36
499.193	27.44
499.544	27.37
499.894	27.48
500.245	27.7
500.596	27.56
500.947	27.57
501.298	27.69
501.648	27.74
501.999	27.93
502.35	27.76
502.7	28.12
503.051	28.09
503.401	28.11
503.752	28.13
504.102	28.34
504.452	28.45
504.803	28.26
505.153	28.28
505.503	28.51
505.853	28.43
506.203	28.35
506.553	28.59
506.903	28.37
507.253	28.71
507.603	28.67
507.953	28.61
508.303	28.71
508.652	28.82
509.002	28.78
509.352	28.82
509.701	28.9
510.051	28.89
510.4	28.84
510.75	28.82
511.099	28.88
511.449	28.78
511.798	28.93
512.147	29.01
512.496	28.95
512.846	29.13
513.195	29.19
513.544	29.26
513.893	29.16
514.242	29.29
514.591	29.3
514.939	29.23
515.288	29.46
515.637	29.42
515.986	29.53
516.334	29.53
516.683	29.8
517.032	29.86
517.38	29.79
517.729	29.78
518.077	29.89
518.426	29.87
518.774	29.68
519.122	29.74
519.47	29.79
519.819	29.78
520.167	29.48
520.515	29.48
520.863	29.69
521.211	29.79
521.559	29.92
521.907	30
522.255	30.08
522.602	30.09
522.95	30.06
523.298	30.23
523.645	30.31
523.993	30.42
524.341	30.49
524.688	30.52
525.036	30.5
525.383	30.65
525.73	30.45
526.078	30.58
526.425	30.61
526.772	30.46
527.119	30.33
527.466	30.36
527.814	30.24
528.161	30.43
528.508	30.51
528.854	30.45
529.201	30.4
529.548	30.27
529.895	30.04
530.242	29.87
530.588	29.97
530.935	30.07
531.282	30.2
531.628	30.34
531.975	30.48
532.321	30.71
532.667	31
533.014	30.9
533.36	31.11
533.706	31.18
534.052	31.17
534.399	31.08
534.745	30.99
535.091	30.79
535.437	30.89
535.783	30.87
536.129	31.23
536.474	31.24
536.82	31.45
537.166	31.61
537.512	31.83
537.857	31.68
538.203	31.64
538.549	31.43
538.894	31.69
539.239	31.7
539.585	31.85
539.93	31.99
540.276	32.15
540.621	32.15
540.966	32.32
541.311	32.48
541.656	32.55
542.001	32.27
542.346	32.25
542.691	31.84
543.036	31.82
543.381	31.8
543.726	31.95
544.071	32.03
544.415	32.13
544.76	32.24
545.105	32.31
545.449	32.44
545.794	32.68
546.138	32.88
546.483	32.77
546.827	33.01
547.171	33.12
547.516	33.18
547.86	33.24
548.204	33.14
548.548	32.8
548.892	33.08
549.236	33.27
549.58	33.4
549.924	33.44
550.268	33.6
550.612	33.78
550.956	33.66
551.3	34.11
551.643	33.9
551.987	34.03
552.33	34.12
552.674	34.3
553.017	34.07
553.361	34.26
553.704	34.18
554.048	34.19
554.391	34.26
554.734	34.29
555.077	34.3
555.42	34.48
555.764	34.55
556.107	34.82
556.45	34.6
556.793	34.8
557.135	34.63
557.478	34.8
557.821	34.93
558.164	35.18
558.507	35.19
558.849	35.03
559.192	34.95
559.534	35.01
559.877	35.24
560.219	35.36
560.562	35.44
560.904	35.65
561.246	35.38
561.589	35.48
561.931	35.21
562.273	35.73
562.615	35.61
562.957	35.8
563.299	35.54
563.641	35.38
563.983	35.84
564.325	35.59
564.667	35.73
565.008	35.86
565.35	35.91
565.692	36.1
566.033	36.32
566.375	36.14
566.716	36.4
567.058	36.29
567.399	36.36
567.741	35.77
568.082	36.12
568.423	36.11
568.764	36.23
569.105	36.48
569.447	36.35
569.788	36.37
570.129	36.24
570.47	36.4
570.811	36.29
571.151	36.65
571.492	36.66
571.833	36.68
572.174	36.59
572.514	36.72
572.855	36.68
573.195	36.79
573.536	36.82
573.876	36.93
574.217	37.12
574.557	37.16
574.898	37.09
575.238	37.08
575.578	37.42
575.918	37.42
576.258	37.51
576.598	37.36
576.938	37.3
577.278	37.33
577.618	37.45
577.958	37.63
578.298	37.77
578.638	38.1
578.977	37.98
579.317	38.1
579.657	38.03
579.996	38.31
580.336	38.38
580.675	38.05
581.014	38.4
581.354	38.53
581.693	38.45
582.032	38.61
582.372	38.82
582.711	38.75
583.05	38.68
583.389	38.96
583.728	38.58
584.067	39.04
584.406	38.96
584.745	38.75
585.083	39.15
585.422	39.08
585.761	39.33
586.1	39.22
586.438	39.14
586.777	39.38
587.115	39.31
587.454	39.19
587.792	39.41
588.13	39.27
588.469	39.53
588.807	39.59
589.145	40.03
589.483	39.54
589.821	39.89
590.159	39.8
590.497	39.61
590.835	39.88
591.173	39.95
591.511	40.01
591.849	40.06
592.187	40.26
592.524	39.98
592.862	40.28
593.2	40.44
593.537	40.43
593.875	40.43
594.212	40.18
594.55	40.43
594.887	41.14
595.224	40.67
595.561	40.83
595.899	40.78
596.236	40.74
596.573	40.8
596.91	40.96
597.247	40.86
597.584	40.74
597.921	40.6
598.258	40.96
598.594	40.53
598.931	40.92
599.268	40.61
599.604	40.94
599.941	41.08
600.277	41.26
600.614	41.52
600.95	41.35
601.287	41.62
601.623	41.98
601.959	41.41
602.296	41.49
602.632	41.66
602.968	41.63
603.304	41.65
603.64	41.85
603.976	42.02
604.312	41.98
604.648	41.85
604.984	41.71
605.319	41.8
605.655	42.07
605.991	42.18
606.326	41.95
606.662	41.93
606.998	41.97
607.333	42.02
607.668	42.05
608.004	42.52
608.339	42.07
608.674	42.58
609.01	42.95
609.345	42.62
609.68	42.29
610.015	42.62
610.35	42.88
610.685	43.08
611.02	42.57
611.355	42.63
611.689	42.57
612.024	42.52
612.359	42.81
612.694	42.95
613.028	42.87
613.363	43.47
613.697	43.09
614.032	43.25
614.366	43.28
614.7	43.23
615.035	43.57
615.369	43.72
615.703	44.07
616.037	43.84
616.371	43.79
616.705	44.05
617.039	43.79
617.373	44.2
617.707	43.73
618.041	43.85
618.375	44.89
618.709	44.17
619.042	44.38
619.376	43.68
619.71	44.11
620.043	44.48
620.377	44.3
620.71	44.06
621.043	44.34
621.377	44.57
621.71	45.26
622.043	44.78
622.376	44.57
622.709	45.34
623.043	44.66
623.376	45.27
623.709	44.65
624.041	45.07
624.374	45
624.707	45.4
625.04	44.91
625.373	44.92
625.705	45.29
626.038	45.52
626.37	45.39
626.703	44.78
627.035	45.51
627.368	45.29
627.7	45.56
628.032	45.41
628.365	45.44
628.697	45.29
629.029	45.74
629.361	45.3
629.693	45.81
630.025	45.71
630.357	45.77
630.689	46.26
631.021	45.78
631.353	45.96
631.684	46.08
632.016	45.94
632.348	46.41
632.679	46.13
633.011	46.23
633.342	46
633.674	46.02
634.005	46.58
634.336	46.54
634.668	46.78
634.999	46.62
635.33	46.27
635.661	46.36
635.992	46.5
636.323	46.73
636.654	47.22
636.985	47
637.316	46.89
637.647	46.43
637.977	46.92
638.308	47.09
638.639	47.1
638.969	47.14
639.3	47.36
639.63	46.98
639.961	47.09
640.291	47.36
640.622	47.93
640.952	46.67
641.282	47.71
641.612	48.22
641.943	48.14
642.273	47.99
642.603	47.99
642.933	47.56
643.263	48.64
643.592	48.02
643.922	48.06
644.252	47.94
644.582	47.25
644.911	48.21
645.241	48.72
645.571	47.83
645.9	47.8
646.23	48.85
646.559	48.34
646.888	48.33
647.218	49.17
647.547	48.23
647.876	48.93
648.205	48.82
648.534	48.8
648.863	49
649.192	48.88
649.521	48.84
649.85	49.6
650.179	48.98
650.508	49.79
650.837	48.87
651.165	49.28
651.494	49.28
651.822	48.67
652.151	48.96
652.479	48.68
652.808	49.23
653.136	49.51
653.465	49.04
653.793	49.73
654.121	49.41
654.449	49.91
654.777	50.19
655.105	49.9
655.433	49.66
655.761	49.57
656.089	49.85
656.417	50.69
656.745	49.68
657.073	50.39
657.4	50.78
657.728	50.27
658.056	50.3
658.383	49.68
658.711	50.31
659.038	50.09
659.365	50.71
659.693	50.05
660.02	50.15
660.347	50.75
660.674	50.67
661.001	50.39
661.329	50.81
661.656	50.78
661.982	51.06
662.309	51.35
662.636	51.16
662.963	50.96
663.29	51.94
663.616	50.63
663.943	51.17
664.27	51.37
664.596	50.62
664.923	50.66
665.249	51.05
665.576	52.07
665.902	51.94
666.228	51.94
666.554	51.41
666.881	51.91
667.207	51.8
667.533	51.52
667.859	52.06
668.185	52.13
668.511	52.17
668.837	52.12
669.162	51.21
669.488	52.26
669.814	52.25
670.139	52.12
670.465	52.28
670.791	52.14
671.116	52.21
671.442	52.3
671.767	52.29
672.092	52.76
672.418	51.62
672.743	51.96
673.068	52.54
673.393	53.03
673.718	52.32
674.043	52.28
674.368	53.65
674.693	53.5
675.018	53.32
675.343	53.42
675.667	53.44
675.992	53.42
676.317	52.99
676.641	52.78
676.966	52.5
677.29	53.83
677.615	53.89
677.939	53.13
678.264	53.74
678.588	52.73
678.912	53.02
679.236	53.19
679.56	53.93
679.885	54.35
680.209	53.73
680.532	54.13
680.856	54.71
681.18	53.84
681.504	53.55
681.828	54.17
682.152	54.06
682.475	54.01
682.799	53.78
683.122	54.87
683.446	54.42
683.769	54.87
684.093	54.87
684.416	54.71
684.739	53.74
685.062	53.89
685.386	55.57
685.709	54.47
686.032	54.12
686.355	54.87
686.678	55.44
687.001	54.77
687.324	55.26
687.646	54.39
687.969	54.33
688.292	55.62
688.614	55.03
688.937	54.96
689.26	55.26
689.582	55.62
689.904	54.76
690.227	55.16
690.549	54.38
690.871	55.94
691.194	55.19
691.516	54.89
691.838	55.82
692.16	55.53
692.482	55.56
692.804	55.43
693.126	56.51
693.448	55.49
693.769	55.96
694.091	54.83
694.413	55.3
694.735	55.6
695.056	56.33
695.378	56.32
695.699	55.86
696.021	55.95
696.342	56.59
696.663	55.33
696.984	56.64
697.306	57.8
697.627	55.39
697.948	56.21
698.269	56.58
698.59	56
698.911	56.89
699.232	55.92
699.553	54.51
699.873	56.28
700.194	56.76
700.515	56.58
700.835	57.32
701.156	56.73
701.477	56.65
701.797	56.81
702.117	56.64
702.438	57.17
702.758	57.28
703.078	56.56
703.398	57.56
703.719	57.68
704.039	57.45
704.359	58.46
704.679	57.21
704.999	56.95
705.319	56.36
705.638	56.63
705.958	56.56
706.278	57.79
706.597	58.22
706.917	57.15
707.237	58.03
707.556	58.19
707.876	57.23
708.195	58.4
708.514	58.62
708.834	57.81
709.153	56.81
709.472	57.43
709.791	57.66
710.11	58.03
710.429	58.34
710.748	57.74
711.067	58.35
711.386	56.66
711.705	58.41
712.023	57.67
712.342	57.58
712.661	58.66
712.979	59.77
713.298	59.91
713.616	57.68
713.935	58.6
714.253	57.78
714.572	58.95
714.89	58.24
715.208	59.24
715.526	58.5
715.844	58.33
716.162	58.5
716.48	58.45
716.798	59.15
717.116	59.45
717.434	59.65
717.752	57.9
718.069	59.07
718.387	58.69
718.705	59.44
719.022	59.22
719.34	59.87
719.657	60.68
719.975	59.01
720.292	59.59
720.609	58.06
720.927	59.56
721.244	59.12
721.561	60.99
721.878	59.72
722.195	58.9
722.512	60.13
722.829	59.76
723.146	60.17
723.463	59.24
723.779	60.88
724.096	60.34
724.413	59.63
724.729	60.6
725.046	58.98
725.362	61.23
725.679	60.6
725.995	58.37
726.311	59.95
726.628	59.69
726.944	59.53
727.26	60.4
727.576	60.15
727.892	59.56
728.208	61.47
728.524	60.35
728.84	60.33
729.156	59.62
729.472	59.71
729.787	60.79
730.103	61.23
730.419	59.87
730.734	60.57
731.05	60.97
731.365	61.08
731.681	59.53
731.996	61.19
732.311	60.17
732.626	62.44
732.942	63.06
733.257	61.75
733.572	61.62
733.887	60.3
734.202	61.97
734.517	60.21
734.832	59.59
735.146	60.9
735.461	61.53
735.776	60.92
736.091	60.39
736.405	60.34
736.72	61.08
737.034	60.82
737.349	59.38
737.663	63.3
737.977	61.37
738.292	61.58
738.606	62.29
738.92	61.77
739.234	60.1
739.548	62.82
739.862	60.93
740.176	59.95
740.49	61.11
740.804	61.78
741.117	61.91
741.431	62.88
741.745	61.43
742.058	61.21
742.372	62.67
742.685	60.66
742.999	64.07
743.312	62.53
743.626	61.86
743.939	60.96
744.252	62.53
744.565	59.82
744.878	61.65
745.191	61.58
745.505	61.87
745.817	63.52
746.13	59.86
746.443	64.1
746.756	64.29
747.069	60.09
747.381	62.71
747.694	60.8
748.007	62.1
748.319	63.61
748.632	62.14
748.944	62.21
749.256	63.77
749.569	61.85
749.881	62.55
750.193	61.34
750.505	62.06
750.817	64.03
751.129	62.6
751.441	61.91
751.753	63.84
752.065	62.3
752.377	64.76
752.689	61.75
753	64.35
753.312	64.82
753.624	62.69
753.935	64.28
754.247	63.66
754.558	62.85
754.869	62.39
755.181	64.39
755.492	62.37
755.803	64.06
756.114	64.56
756.425	63.7
756.736	61.35
757.047	64.6
757.358	64.23
757.669	64.06
757.98	65.93
758.291	63.43
758.601	65.11
758.912	64.72
759.223	64.62
759.533	63.04
759.844	63.04
760.154	63.62
760.464	64.3
760.775	63.99
761.085	64.37
761.395	65.53
761.705	62.07
762.016	63.66
762.326	65.02
762.636	65.17
762.945	64.04
763.255	64.67
763.565	65.69
763.875	66.02
764.185	64.13
764.494	63.25
764.804	65.01
765.113	62.83
765.423	65.01
765.732	65.09
766.042	65.15
766.351	63.87
766.66	64.87
766.97	63.59
767.279	62.96
767.588	63.74
767.897	64.65
768.206	63.9
768.515	63.84
768.824	63.43
769.133	66.28
769.441	65.96
769.75	64.1
770.059	62.98
770.367	62.05
770.676	62.81
770.984	63.77
771.293	65.91
771.601	64.51
771.91	66.4
772.218	65.22
772.526	62.75
772.834	63.74
773.142	63.5
773.45	67.16
773.758	63.2
774.066	66.27
774.374	62.3
774.682	66.7
774.99	63.93
775.298	58.65
775.605	66.82
775.913	64.95
776.22	66.78
776.528	68.34
776.835	64.42
777.143	69.58
777.45	65.05
777.757	64.15
778.065	62.43
778.372	64.2
778.679	65.42
778.986	66.45
779.293	64.08
779.6	66.7
779.907	65.64
780.214	67.45
780.52	66.86
780.827	68.38
781.134	67.01
781.44	67.87
781.747	67.66
782.053	67.26
782.36	68.34
782.666	66.9
782.973	67.09
783.279	67.72
783.585	67.89
783.891	65.4
784.197	67.62
784.503	65.28
784.809	65.64
785.115	69.82
785.421	67.96
785.727	61.76
786.033	67.86
786.339	66.6
786.644	68.37
786.95	67.12
787.255	64.75
787.561	64.08
787.866	68.46
788.172	67.65
788.477	68.86
788.782	67.92
789.088	67.7
789.393	66.98
789.698	68.32
790.003	65.11
790.308	73.29
790.613	69.21
790.918	64.26
791.223	64.95
791.527	64.39
791.832	62.91
792.137	71.47
792.441	64.33
792.746	65.75
793.05	68.55
793.355	66.4
793.659	66.02
793.963	64.05
794.268	65.97
794.572	62.3
794.876	66.53
795.18	68.35
795.484	66.79
795.788	65.16
796.092	65.44
796.396	61.32
796.7	68.8
797.004	69.12
797.307	67.24
797.611	59.66
797.915	65.35
798.218	65.51
798.522	63.64
798.825	66.12
799.128	68
799.432	66.55
799.735	67.34
800.038	65.37
800.341	67.09
800.644	66.22
800.947	64.92
801.25	71.53
801.553	68.9
801.856	66.61
802.159	68.13
802.462	62.39
802.764	67.05
803.067	65.67
803.37	67.91
803.672	71.97
803.975	68.81
804.277	68.4
804.579	69.6
804.882	64.13
805.184	63.62
805.486	69.57
805.788	70.21
806.09	67.51
806.392	65.21
806.694	62.59
806.996	64.03
807.298	60.67
807.6	59.66
807.902	75.08
808.203	63.41
808.505	67.12
808.807	68.48
809.108	70.49
809.409	73.09
809.711	72.41
810.012	66.17
810.313	64.85
810.615	65.6
810.916	68.51
811.217	64.81
811.518	63.74
811.819	68.8
812.12	67.14
812.421	64.31
812.722	66.81
813.023	66.03
813.323	66.23
813.624	67.24
813.925	69.66
814.225	65.6
814.526	67.52
814.826	74.06
815.126	71.84
815.427	69.82
815.727	74.26
816.027	66.7
816.327	62.3
816.627	67.53
816.927	69.49
817.227	66.79
817.527	69.15
817.827	64.43
818.127	58.05
818.427	68.18
818.727	68.44
819.026	69.09
819.326	73.3
819.625	66.9
819.925	71.71
820.224	69.97
820.524	65.27
820.823	66.05
821.122	65.3
821.421	72.94
821.72	66.57
822.019	67.68
822.318	69.72
822.617	70.46
822.916	67.69
823.215	69.64
823.514	67.65
823.813	70.33
824.111	71.42
824.41	70.04
824.709	69.22
825.007	70.75
825.306	71.27
825.604	71.22
825.902	70.37
826.201	70.49
826.499	70.84
826.797	70.13
827.095	67.77
827.393	67.23
827.691	67.53
827.989	70.24
828.287	69.6
828.585	68.32
828.882	67.38
829.18	71.77
829.478	71.22
829.775	69.27
830.073	69.68
830.37	71.75
830.668	68.95
830.965	69.07
831.263	67.52
831.56	70.29
831.857	68.7
832.154	72.19
832.451	70.46
832.748	69.01
833.045	66.85
833.342	70.79
833.639	70.75
833.936	69.01
834.232	73.35
834.529	62.98
834.826	67.35
835.122	74.07
835.419	70.15
835.715	64.46
836.012	70.18
836.308	69.04
836.604	70.62
836.901	68.24
837.197	70.65
837.493	68.13
837.789	74.38
838.085	72.78
838.381	68.9
838.677	70.19
838.972	66.88
839.268	69.91
839.564	62.21
839.86	69.26
840.155	65.59
840.451	67.76
840.746	59.8
841.042	72.93
841.337	67.89
841.632	66.91
841.928	71.23
842.223	66.33
842.518	61.1
842.813	65.15
843.108	59.01
843.403	68.85
843.698	62.33
843.993	68.49
844.287	65.75
844.582	61.49
844.877	58.35
845.171	76.24
845.466	66.56
845.761	70.92
846.055	46.86
846.349	59.75
846.644	71.31
846.938	79.55
847.232	71.41
847.526	68.9
847.82	60.88
848.114	67.17
848.408	55.29
848.702	52.53
848.996	62.38
849.29	86.74
849.584	55.38
849.877	55.26
850.171	46.33
850.465	63.88
850.758	55.86
851.052	68.32
851.345	64.08
851.638	64.32
851.932	54.71
852.225	60.02
852.518	61.59
852.811	59.51
853.104	78.53
853.397	66.17
853.69	45
853.983	43.21
854.276	47.52
854.569	68.02
854.861	47.72
855.154	71.26
855.447	50.47
855.739	87.47
856.032	79.19
856.324	100.18
856.616	61.81
856.909	64.5
857.201	69.08
857.493	71.6
857.785	77.54
858.077	70.95
858.369	69.96
858.661	76.12
858.953	50.91
859.245	65.92
859.537	88.33
859.829	98.37
860.12	44.28
860.412	70.38
860.703	81.95
860.995	87.76
861.286	62.61
861.578	96.67
861.869	55.89
862.16	56.96
862.452	56.68
862.743	52.29
863.034	48.89
863.325	69.67
863.616	80.4
863.907	76.04
864.198	91.48
864.488	49.99
864.779	80.61
865.07	59.05
865.36	48.51
865.651	65.24
865.941	58.92
866.232	72.57
866.522	75.02
866.813	60.89
867.103	57.43
867.393	65.47
867.683	60.39
867.973	76.56
868.263	74.07
868.553	79.67
868.843	85.18
869.133	74.67
869.423	61.93
869.713	33.33
870.002	71.22
870.292	31.66
870.582	67.21
870.871	47.16
871.161	95.12
871.45	64.93
871.739	61.01
872.029	69.68
872.318	65.06
872.607	112.57
872.896	45.65
873.185	74.65
873.474	79.3
873.763	60.95
874.052	74.23
874.341	11.77
874.63	55.94
874.918	36.39
875.207	66.58
875.496	96.93
875.784	83.78
876.073	75.12
876.361	62.17
876.649	64.35
876.938	69.58
877.226	67.88
877.514	89.04
877.802	44.95
878.09	74.45
878.378	56.87
878.666	79.22
878.954	69.97
879.242	121.19
879.53	111.61
879.817	94.29
880.105	26.42
880.392	56.6
880.68	60.75
880.967	89.69
881.255	65.01
881.542	93.77
881.83	111.38
882.117	68.7
882.404	61.13
882.691	71.32
882.978	90.93
883.265	44.91
883.552	51.93
883.839	52.9
884.126	68.92
884.413	62.57
884.699	77.33
884.986	64.31
885.273	73.59
885.559	73.59
885.846	73.59
