Data from 815652_chest_Reflection__2__42.txt Node

Date: Fri Sep 16 14:47:11 CDT 2022
User: ToomeyLab
Spectrometer: FLMS14357
Trigger mode: 0
Integration Time (sec): 1.000000E-2
Scans to average: 100
Electric dark correction enabled: true
Nonlinearity correction enabled: false
Boxcar width: 0
XAxis mode: Wavelengths
Number of Pixels in Spectrum: 2048
>>>>>Begin Spectral Data<<<<<
189.047	1232.1
189.435	1232.1
189.823	1232.1
190.211	144.8
190.599	-312.47
190.987	65.09
191.375	123.68
191.763	49.33
192.151	-160.01
192.538	-253.56
192.926	-10.57
193.314	123.53
193.702	128.02
194.089	59.75
194.477	33.93
194.864	15.83
195.252	-326.79
195.639	24.11
196.027	280.08
196.414	66.56
196.801	-27.61
197.189	58.29
197.576	79.12
197.963	-261.98
198.351	-20.57
198.738	25.93
199.125	53.27
199.512	0.17
199.899	49.31
200.286	-8.94
200.673	55.2
201.06	38.35
201.447	42.58
201.833	29.69
202.22	15.72
202.607	3.93
202.994	36.46
203.38	13.45
203.767	29.37
204.154	20.3
204.54	4.81
204.927	-37.19
205.313	24.75
205.699	39.7
206.086	12.64
206.472	35.99
206.858	50.83
207.245	15.03
207.631	41.4
208.017	24.99
208.403	-12.22
208.789	21.15
209.175	21.12
209.561	-19.82
209.947	-14.15
210.333	34.61
210.719	5.83
211.105	11.53
211.491	13.41
211.876	37.25
212.262	29.31
212.648	-7.55
213.034	4.25
213.419	58.98
213.805	37.09
214.19	39.29
214.576	-0.32
214.961	15.13
215.346	-13.13
215.732	-12.22
216.117	39.73
216.502	5.17
216.888	-8.29
217.273	15.25
217.658	11.43
218.043	-48.66
218.428	27.1
218.813	0.17
219.198	22.15
219.583	1.31
219.968	3.16
220.353	-18.77
220.738	4.52
221.122	-11.72
221.507	22.08
221.892	-17.45
222.276	2.94
222.661	3.12
223.046	16.24
223.43	13.17
223.815	-9.9
224.199	-0.66
224.583	-1.88
224.968	7.79
225.352	6.63
225.736	7.59
226.121	10.26
226.505	9.72
226.889	8.56
227.273	10.3
227.657	6.09
228.041	3.77
228.425	-0.04
228.809	8.51
229.193	4.71
229.577	4.39
229.961	3.66
230.344	5.91
230.728	4.22
231.112	4.84
231.495	4.17
231.879	4.54
232.263	3.02
232.646	3.81
233.03	5.48
233.413	5.24
233.797	5.43
234.18	5.02
234.563	4.39
234.946	5.11
235.33	4.83
235.713	3.78
236.096	4.35
236.479	4.93
236.862	3.3
237.245	2.49
237.628	4.48
238.011	6.06
238.394	3.92
238.777	4.37
239.16	3.95
239.543	4.68
239.925	4.52
240.308	4.3
240.691	4.72
241.073	3.85
241.456	3.7
241.838	3.28
242.221	3.57
242.603	4.68
242.986	3.7
243.368	4.03
243.75	4.05
244.133	4.42
244.515	3.67
244.897	4.21
245.279	4.04
245.661	4.04
246.043	3.78
246.425	4.14
246.807	4.01
247.189	3.86
247.571	3.45
247.953	3.98
248.335	3.9
248.717	3.91
249.098	3.94
249.48	3.77
249.862	3.92
250.243	4.14
250.625	4.13
251.006	4.22
251.388	4.43
251.769	4.03
252.151	4.18
252.532	4.28
252.913	4.5
253.295	3.92
253.676	4.43
254.057	3.33
254.438	3.34
254.819	2.89
255.2	3.61
255.581	4.83
255.962	4.31
256.343	4.47
256.724	3.28
257.105	3
257.486	4.86
257.867	4.06
258.247	4.77
258.628	4.59
259.009	4.66
259.389	3.85
259.77	3.72
260.15	3.48
260.531	3.64
260.911	3.57
261.292	3.47
261.672	3.71
262.052	3.47
262.432	3.55
262.813	4.17
263.193	3.61
263.573	4.05
263.953	4.33
264.333	3.91
264.713	2.96
265.093	3.32
265.473	3.52
265.853	3.93
266.233	3.46
266.612	4.62
266.992	2.87
267.372	4.27
267.752	3.21
268.131	3.89
268.511	4.38
268.89	3.63
269.27	3.31
269.649	3.59
270.029	3.77
270.408	3.86
270.787	3.35
271.167	3.28
271.546	3.71
271.925	3.76
272.304	3.36
272.683	3.65
273.062	3.46
273.441	3.38
273.82	3.34
274.199	3.8
274.578	3.79
274.957	3.99
275.336	3.53
275.715	4.18
276.093	3.57
276.472	3.07
276.851	3.26
277.229	3.33
277.608	3.96
277.986	3.92
278.365	2.98
278.743	3.75
279.122	3.35
279.5	3.24
279.878	3.75
280.257	3.56
280.635	3.9
281.013	3.47
281.391	3.77
281.769	3.97
282.147	4.29
282.525	3.59
282.903	3.59
283.281	3.58
283.659	3.76
284.037	3.54
284.415	3.82
284.792	4.04
285.17	3.88
285.548	3.24
285.925	3.01
286.303	3.75
286.68	3.56
287.058	3.41
287.435	3.34
287.813	3.84
288.19	3.78
288.567	3.41
288.945	3.67
289.322	3.46
289.699	3.39
290.076	3.35
290.453	3.59
290.83	3.81
291.207	3.73
291.584	2.95
291.961	3.64
292.338	3.48
292.715	3.4
293.092	3.77
293.469	3.67
293.845	3.41
294.222	3.79
294.599	3.59
294.975	3.75
295.352	4.09
295.728	3.73
296.105	4.05
296.481	3.41
296.858	3.18
297.234	3.46
297.61	3.89
297.986	3.6
298.363	3.19
298.739	3.44
299.115	3.77
299.491	3.71
299.867	3.41
300.243	3.46
300.619	3.71
300.995	4.12
301.371	3.96
301.746	3.44
302.122	3.99
302.498	3.83
302.874	3.69
303.249	3.86
303.625	3.54
304	4.05
304.376	3.64
304.751	3.74
305.127	3.69
305.502	3.77
305.878	3.51
306.253	3.43
306.628	3.27
307.003	3.69
307.378	3.77
307.754	4.06
308.129	4.28
308.504	4.17
308.879	3.44
309.254	3.75
309.629	3.49
310.003	3.88
310.378	3.22
310.753	3.71
311.128	3.93
311.502	3.38
311.877	3.8
312.252	3.65
312.626	3.92
313.001	3.69
313.375	3.94
313.75	3.83
314.124	3.63
314.498	3.88
314.873	4.03
315.247	3.34
315.621	3.62
315.995	3.56
316.369	3.41
316.743	4.28
317.117	3.82
317.491	3.5
317.865	4.53
318.239	4.19
318.613	3.38
318.987	3.54
319.361	3.36
319.734	4.03
320.108	3.88
320.482	3.84
320.855	3.75
321.229	3.58
321.602	3.76
321.976	3.62
322.349	3.9
322.723	3.79
323.096	3.27
323.469	3.56
323.843	4.11
324.216	4.22
324.589	3.9
324.962	4.04
325.335	4.14
325.708	3.73
326.081	4.34
326.454	4.1
326.827	3.83
327.2	3.93
327.573	3.66
327.945	3.99
328.318	3.86
328.691	3.36
329.063	3.52
329.436	3.59
329.809	3.46
330.181	4.12
330.553	3.91
330.926	3.86
331.298	3.95
331.671	3.8
332.043	3.51
332.415	4.14
332.787	3.79
333.159	3.87
333.532	4.16
333.904	3.63
334.276	4.05
334.648	3.66
335.02	3.86
335.391	3.99
335.763	3.36
336.135	3.48
336.507	3.77
336.879	3.98
337.25	3.35
337.622	3.98
337.993	3.81
338.365	4.04
338.736	4.23
339.108	3.59
339.479	4.15
339.851	3.99
340.222	3.92
340.593	3.88
340.964	3.91
341.336	3.62
341.707	3.8
342.078	4.31
342.449	3.91
342.82	3.85
343.191	3.66
343.562	3.94
343.933	4.29
344.303	3.88
344.674	3.53
345.045	3.91
345.416	3.65
345.786	3.91
346.157	3.81
346.527	3.86
346.898	3.75
347.268	3.67
347.639	3.67
348.009	3.86
348.38	3.78
348.75	3.28
349.12	4.22
349.49	4.23
349.861	4.02
350.231	3.64
350.601	4.36
350.971	3.82
351.341	4.17
351.711	4.17
352.081	3.87
352.45	4.07
352.82	4.15
353.19	3.88
353.56	4.34
353.929	4.02
354.299	4.01
354.669	3.82
355.038	3.8
355.408	4.06
355.777	3.88
356.147	3.93
356.516	3.85
356.885	3.91
357.254	3.79
357.624	3.79
357.993	3.62
358.362	3.57
358.731	3.95
359.1	3.86
359.469	3.8
359.838	3.94
360.207	4.07
360.576	4.02
360.945	3.95
361.314	3.69
361.682	3.6
362.051	3.81
362.42	3.91
362.788	4.24
363.157	3.88
363.525	3.9
363.894	4.12
364.262	3.96
364.631	3.97
364.999	4.05
365.367	3.78
365.735	3.94
366.104	3.9
366.472	3.86
366.84	4.12
367.208	4.16
367.576	3.81
367.944	3.92
368.312	3.81
368.68	4.09
369.048	4.43
369.416	3.97
369.783	4.08
370.151	3.94
370.519	3.74
370.886	3.99
371.254	3.78
371.621	3.89
371.989	3.93
372.356	4.23
372.724	4.18
373.091	3.68
373.458	3.84
373.826	3.73
374.193	4.2
374.56	3.84
374.927	3.74
375.294	3.96
375.661	3.87
376.028	4.29
376.395	3.75
376.762	4.34
377.129	3.79
377.496	4
377.863	4.09
378.229	4.03
378.596	3.91
378.963	3.88
379.329	4
379.696	4.31
380.062	3.75
380.429	4.04
380.795	4.13
381.161	4.44
381.528	4.19
381.894	4.15
382.26	4.05
382.626	3.93
382.993	3.87
383.359	4.2
383.725	4.22
384.091	4.1
384.457	3.82
384.823	3.84
385.188	3.82
385.554	3.84
385.92	4.13
386.286	4.23
386.651	4.11
387.017	4
387.383	3.81
387.748	3.67
388.114	3.65
388.479	4.03
388.845	4.19
389.21	4.2
389.575	3.97
389.94	4.13
390.306	4.14
390.671	4.17
391.036	4.06
391.401	4.04
391.766	4.04
392.131	4.12
392.496	3.73
392.861	4.02
393.226	3.91
393.591	3.94
393.956	4.14
394.32	4.56
394.685	4.02
395.05	4.14
395.414	4.09
395.779	4.05
396.143	4.07
396.508	3.96
396.872	4.11
397.236	4.09
397.601	4.06
397.965	4.01
398.329	4.05
398.694	4.12
399.058	4.28
399.422	4.28
399.786	4.3
400.15	4.2
400.514	4.18
400.878	4.23
401.242	3.95
401.605	4.08
401.969	4.06
402.333	3.91
402.697	4.18
403.06	4.31
403.424	4.01
403.787	4.22
404.151	4.2
404.514	4.08
404.878	4.17
405.241	3.85
405.604	4.26
405.968	4.25
406.331	4.08
406.694	4.04
407.057	4.01
407.42	4.05
407.783	4.14
408.146	4.33
408.509	4.11
408.872	4.36
409.235	4.12
409.598	4.03
409.961	4.13
410.323	4.25
410.686	4.21
411.049	4.11
411.411	3.87
411.774	4.33
412.136	4.08
412.499	4.06
412.861	4.14
413.223	4.06
413.586	4.36
413.948	4.36
414.31	4.36
414.672	4.12
415.035	4.15
415.397	4.07
415.759	4.28
416.121	4.25
416.483	4.24
416.845	4.45
417.206	4.22
417.568	4.24
417.93	4.4
418.292	4.15
418.653	4.06
419.015	4.06
419.377	4.16
419.738	4.05
420.1	4.32
420.461	4.25
420.822	4.09
421.184	4.13
421.545	4.11
421.906	4.18
422.267	4.09
422.629	4.07
422.99	4.07
423.351	4.16
423.712	3.99
424.073	4.18
424.434	4.14
424.795	4.1
425.155	4.11
425.516	4.22
425.877	4.12
426.238	4.1
426.598	4.07
426.959	4.22
427.32	4.11
427.68	4.26
428.041	4.11
428.401	4.08
428.761	4.44
429.122	4.32
429.482	4.16
429.842	4.27
430.202	4.43
430.563	4.26
430.923	4.32
431.283	4.52
431.643	4.33
432.003	4.44
432.363	4.45
432.722	4.34
433.082	4.27
433.442	4.35
433.802	4.26
434.161	4.09
434.521	4.34
434.881	4.26
435.24	4.15
435.6	4.4
435.959	4.38
436.319	4.32
436.678	4.42
437.037	4.32
437.396	4.25
437.756	4.46
438.115	4.26
438.474	4.29
438.833	4.32
439.192	4.38
439.551	4.35
439.91	4.2
440.269	4.41
440.628	4.32
440.987	4.34
441.345	4.3
441.704	4.36
442.063	4.22
442.421	4.33
442.78	4.29
443.138	4.39
443.497	4.45
443.855	4.37
444.214	4.34
444.572	4.48
444.93	4.32
445.288	4.35
445.647	4.46
446.005	4.28
446.363	4.39
446.721	4.35
447.079	4.31
447.437	4.41
447.795	4.38
448.153	4.4
448.51	4.28
448.868	4.37
449.226	4.36
449.584	4.38
449.941	4.28
450.299	4.36
450.656	4.4
451.014	4.51
451.371	4.38
451.729	4.45
452.086	4.43
452.443	4.42
452.801	4.57
453.158	4.46
453.515	4.46
453.872	4.27
454.229	4.43
454.586	4.38
454.943	4.43
455.3	4.53
455.657	4.48
456.014	4.56
456.371	4.43
456.727	4.51
457.084	4.71
457.441	4.47
457.797	4.66
458.154	4.54
458.51	4.56
458.867	4.37
459.223	4.6
459.58	4.52
459.936	4.53
460.292	4.47
460.648	4.39
461.005	4.49
461.361	4.42
461.717	4.43
462.073	4.4
462.429	4.43
462.785	4.57
463.141	4.55
463.496	4.51
463.852	4.56
464.208	4.54
464.564	4.59
464.919	4.55
465.275	4.73
465.631	4.55
465.986	4.65
466.342	4.62
466.697	4.51
467.052	4.44
467.408	4.64
467.763	4.64
468.118	4.66
468.473	4.58
468.829	4.69
469.184	4.59
469.539	4.73
469.894	4.64
470.249	4.76
470.603	4.68
470.958	4.59
471.313	4.72
471.668	4.69
472.023	4.44
472.377	4.55
472.732	4.63
473.086	4.57
473.441	4.54
473.795	4.71
474.15	4.71
474.504	4.75
474.859	4.65
475.213	4.72
475.567	4.54
475.921	4.69
476.275	4.66
476.63	4.71
476.984	4.69
477.338	4.83
477.692	4.76
478.045	4.73
478.399	4.75
478.753	4.69
479.107	4.65
479.461	4.72
479.814	4.7
480.168	4.74
480.521	4.76
480.875	4.82
481.228	4.65
481.582	4.83
481.935	4.76
482.289	4.76
482.642	4.73
482.995	4.74
483.348	4.69
483.701	4.78
484.055	4.68
484.408	4.71
484.761	4.55
485.114	4.44
485.466	4.45
485.819	4.49
486.172	4.5
486.525	4.55
486.878	4.6
487.23	4.69
487.583	4.7
487.936	4.7
488.288	4.66
488.641	4.64
488.993	4.6
489.345	4.61
489.698	4.55
490.05	4.67
490.402	4.63
490.754	4.72
491.107	4.76
491.459	4.79
491.811	4.75
492.163	4.83
492.515	4.76
492.866	4.7
493.218	4.61
493.57	4.65
493.922	4.69
494.274	4.81
494.625	4.85
494.977	4.87
495.328	4.86
495.68	4.85
496.031	4.94
496.383	4.89
496.734	4.98
497.086	5.03
497.437	4.96
497.788	5
498.139	5.07
498.49	4.94
498.842	4.98
499.193	5.07
499.544	4.94
499.894	4.95
500.245	5
500.596	5
500.947	5.05
501.298	5.08
501.648	5.07
501.999	5.01
502.35	5.17
502.7	5.22
503.051	5.18
503.401	5.1
503.752	5.19
504.102	5.15
504.452	5.16
504.803	5.19
505.153	5.14
505.503	5.17
505.853	5.11
506.203	5.17
506.553	5.13
506.903	5.2
507.253	5.18
507.603	5.23
507.953	5.2
508.303	5.13
508.652	5.15
509.002	5.24
509.352	5.16
509.701	5.16
510.051	5.26
510.4	5.2
510.75	5.17
511.099	5.24
511.449	5.09
511.798	5.14
512.147	5.21
512.496	5.27
512.846	5.28
513.195	5.27
513.544	5.25
513.893	5.23
514.242	5.2
514.591	5.35
514.939	5.36
515.288	5.37
515.637	5.29
515.986	5.34
516.334	5.31
516.683	5.49
517.032	5.47
517.38	5.63
517.729	5.42
518.077	5.45
518.426	5.46
518.774	5.5
519.122	5.47
519.47	5.38
519.819	5.36
520.167	5.37
520.515	5.26
520.863	5.37
521.211	5.36
521.559	5.51
521.907	5.5
522.255	5.43
522.602	5.46
522.95	5.54
523.298	5.46
523.645	5.68
523.993	5.54
524.341	5.67
524.688	5.69
525.036	5.62
525.383	5.62
525.73	5.62
526.078	5.61
526.425	5.55
526.772	5.61
527.119	5.53
527.466	5.61
527.814	5.53
528.161	5.65
528.508	5.62
528.854	5.66
529.201	5.58
529.548	5.51
529.895	5.47
530.242	5.49
530.588	5.51
530.935	5.54
531.282	5.55
531.628	5.61
531.975	5.59
532.321	5.65
532.667	5.78
533.014	5.83
533.36	5.81
533.706	5.79
534.052	5.88
534.399	5.74
534.745	5.73
535.091	5.71
535.437	5.69
535.783	5.77
536.129	5.82
536.474	5.88
536.82	5.9
537.166	6.06
537.512	5.96
537.857	5.98
538.203	5.89
538.549	5.97
538.894	5.9
539.239	6.08
539.585	6.03
539.93	6.04
540.276	6.17
540.621	6.25
540.966	6.1
541.311	6.11
541.656	6.1
542.001	6.07
542.346	6.11
542.691	6.06
543.036	5.97
543.381	5.95
543.726	6.05
544.071	6.09
544.415	6.09
544.76	6.13
545.105	6.17
545.449	6.23
545.794	6.38
546.138	6.27
546.483	6.47
546.827	6.4
547.171	6.37
547.516	6.24
547.86	6.39
548.204	6.38
548.548	6.33
548.892	6.39
549.236	6.46
549.58	6.57
549.924	6.65
550.268	6.53
550.612	6.63
550.956	6.61
551.3	6.7
551.643	6.64
551.987	6.76
552.33	6.77
552.674	6.6
553.017	6.93
553.361	6.9
553.704	6.82
554.048	6.71
554.391	6.83
554.734	6.87
555.077	6.87
555.42	6.82
555.764	6.9
556.107	7.14
556.45	6.82
556.793	7.12
557.135	7.06
557.478	7.07
557.821	7.11
558.164	7.02
558.507	7.13
558.849	7.07
559.192	7.23
559.534	7.25
559.877	7
560.219	7.11
560.562	7.28
560.904	7.16
561.246	7.12
561.589	7.42
561.931	7.33
562.273	7.23
562.615	7.42
562.957	7.32
563.299	7.43
563.641	7.36
563.983	7.41
564.325	7.55
564.667	7.68
565.008	7.56
565.35	7.48
565.692	7.64
566.033	7.51
566.375	7.59
566.716	7.63
567.058	7.63
567.399	7.58
567.741	7.5
568.082	7.77
568.423	7.57
568.764	7.64
569.105	7.74
569.447	7.82
569.788	7.72
570.129	7.8
570.47	7.86
570.811	8
571.151	7.93
571.492	7.85
571.833	7.84
572.174	8.09
572.514	8.06
572.855	8.05
573.195	8.11
573.536	8.03
573.876	8.2
574.217	8.01
574.557	8.22
574.898	8.11
575.238	8.06
575.578	8.03
575.918	8.18
576.258	8.27
576.598	8.07
576.938	8.22
577.278	8.2
577.618	8.28
577.958	8.32
578.298	8.41
578.638	8.41
578.977	8.24
579.317	8.42
579.657	8.58
579.996	8.45
580.336	8.68
580.675	8.43
581.014	8.61
581.354	8.83
581.693	8.55
582.032	8.87
582.372	8.77
582.711	8.95
583.05	8.89
583.389	8.7
583.728	8.88
584.067	8.81
584.406	9.12
584.745	9.15
585.083	9.15
585.422	8.96
585.761	9.15
586.1	8.83
586.438	9.31
586.777	8.98
587.115	9.1
587.454	9.25
587.792	9.05
588.13	9.38
588.469	9.23
588.807	9.07
589.145	9.26
589.483	9.54
589.821	9.56
590.159	9.27
590.497	9.29
590.835	9.52
591.173	9.49
591.511	9.48
591.849	9.66
592.187	9.7
592.524	9.71
592.862	9.67
593.2	9.67
593.537	9.75
593.875	9.89
594.212	9.85
594.55	9.76
594.887	9.84
595.224	9.89
595.561	9.9
595.899	10.02
596.236	9.94
596.573	9.81
596.91	10.18
597.247	9.96
597.584	10.13
597.921	10.21
598.258	10.07
598.594	9.85
598.931	10.15
599.268	10.25
599.604	9.97
599.941	10.05
600.277	10.29
600.614	10.37
600.95	10.36
601.287	10.32
601.623	10.61
601.959	10.54
602.296	10.34
602.632	10.56
602.968	10.57
603.304	10.61
603.64	10.69
603.976	10.96
604.312	10.86
604.648	10.84
604.984	10.76
605.319	10.9
605.655	10.76
605.991	10.79
606.326	10.72
606.662	10.97
606.998	10.76
607.333	10.87
607.668	11.01
608.004	10.97
608.339	10.82
608.674	11.18
609.01	11.09
609.345	11.38
609.68	11.13
610.015	11.3
610.35	11.26
610.685	11.53
611.02	11.28
611.355	11.28
611.689	11.42
612.024	11.33
612.359	11.54
612.694	11.21
613.028	11.59
613.363	11.4
613.697	11.45
614.032	11.57
614.366	11.52
614.7	11.61
615.035	11.83
615.369	11.4
615.703	11.63
616.037	11.83
616.371	11.91
616.705	11.74
617.039	12.08
617.373	11.69
617.707	11.86
618.041	11.97
618.375	12.03
618.709	12.12
619.042	11.84
619.376	12.08
619.71	12.42
620.043	12.28
620.377	12.38
620.71	12.57
621.043	12.48
621.377	12.54
621.71	12.55
622.043	11.88
622.376	12.55
622.709	12.49
623.043	12.58
623.376	12.5
623.709	12.18
624.041	12.79
624.374	12.78
624.707	12.77
625.04	12.72
625.373	12.94
625.705	12.76
626.038	13.37
626.37	12.72
626.703	12.71
627.035	12.88
627.368	13.23
627.7	13.25
628.032	12.89
628.365	12.99
628.697	12.87
629.029	13.28
629.361	12.9
629.693	13.29
630.025	13.33
630.357	13.04
630.689	13.15
631.021	13.31
631.353	13.76
631.684	13.29
632.016	13.35
632.348	13.33
632.679	13.52
633.011	13.46
633.342	13.54
633.674	13.79
634.005	13.68
634.336	13.89
634.668	13.68
634.999	13.51
635.33	13.51
635.661	13.76
635.992	13.98
636.323	13.61
636.654	13.84
636.985	13.89
637.316	13.91
637.647	14.23
637.977	13.86
638.308	14.17
638.639	14.43
638.969	14.11
639.3	14.28
639.63	14.2
639.961	14.47
640.291	14.28
640.622	14.18
640.952	14.53
641.282	14.55
641.612	14.59
641.943	14.5
642.273	14.5
642.603	14.53
642.933	14.67
643.263	14.39
643.592	14.37
643.922	14.48
644.252	14.82
644.582	14.66
644.911	15.08
645.241	14.71
645.571	15.05
645.9	15.06
646.23	15.06
646.559	14.93
646.888	14.96
647.218	15.09
647.547	15.41
647.876	15.37
648.205	15.2
648.534	15.05
648.863	15.32
649.192	15.47
649.521	15.3
649.85	15.94
650.179	15.44
650.508	15.61
650.837	15.51
651.165	15.24
651.494	15.26
651.822	14.89
652.151	15.74
652.479	15.94
652.808	15.96
653.136	15.39
653.465	16.19
653.793	15.65
654.121	15.7
654.449	16.12
654.777	16
655.105	15.98
655.433	15.71
655.761	16.21
656.089	15.63
656.417	16.01
656.745	15.98
657.073	16.45
657.4	16.01
657.728	16.73
658.056	15.51
658.383	16.1
658.711	16.53
659.038	16.4
659.365	16.61
659.693	16.22
660.02	16.73
660.347	16.34
660.674	16.36
661.001	16.59
661.329	16.54
661.656	16.56
661.982	16.8
662.309	16.69
662.636	16.74
662.963	17.33
663.29	17.28
663.616	17.17
663.943	16.87
664.27	16.61
664.596	17.34
664.923	16.83
665.249	17.35
665.576	17.28
665.902	17.22
666.228	17.05
666.554	17.38
666.881	17.24
667.207	17.63
667.533	17.05
667.859	16.96
668.185	17.31
668.511	17.17
668.837	17.29
669.162	17.84
669.488	18.15
669.814	17.67
670.139	17.3
670.465	17.48
670.791	17.56
671.116	18.05
671.442	17.84
671.767	17.89
672.092	17.58
672.418	17.44
672.743	17.76
673.068	18.47
673.393	17.66
673.718	19.06
674.043	17.87
674.368	18.14
674.693	18.97
675.018	18.43
675.343	18.35
675.667	18.2
675.992	18.27
676.317	18.01
676.641	17.9
676.966	18.16
677.29	18.54
677.615	18.68
677.939	18.4
678.264	18.47
678.588	18.29
678.912	18.45
679.236	18.07
679.56	19.06
679.885	18.49
680.209	18.7
680.532	19.04
680.856	18.4
681.18	18.98
681.504	18.96
681.828	19.35
682.152	19.08
682.475	18.96
682.799	18.72
683.122	19.21
683.446	19.03
683.769	18.83
684.093	19.04
684.416	18.86
684.739	19.32
685.062	19.24
685.386	19
685.709	18.99
686.032	19.55
686.355	19.24
686.678	19.99
687.001	19.4
687.324	19.31
687.646	20.35
687.969	19.67
688.292	19.8
688.614	19.41
688.937	19.5
689.26	19.86
689.582	19.95
689.904	19.85
690.227	19.85
690.549	20.29
690.871	19.98
691.194	19.76
691.516	19.05
691.838	20.17
692.16	19.79
692.482	19.82
692.804	20.68
693.126	20.74
693.448	20.07
693.769	20.4
694.091	20.44
694.413	20.97
694.735	20.43
695.056	20.02
695.378	20.91
695.699	20.2
696.021	21.1
696.342	21.2
696.663	20.7
696.984	21.19
697.306	20.96
697.627	21.59
697.948	20.6
698.269	20.95
698.59	21.04
698.911	21.57
699.232	20.83
699.553	21.27
699.873	20.71
700.194	21.42
700.515	20.77
700.835	21.05
701.156	21.22
701.477	21.41
701.797	21.2
702.117	21.02
702.438	21.18
702.758	20.81
703.078	20.7
703.398	21.74
703.719	21.6
704.039	21.06
704.359	22.42
704.679	20.92
704.999	21.3
705.319	20.97
705.638	21.2
705.958	21.63
706.278	21.6
706.597	21.77
706.917	22.03
707.237	22.11
707.556	20.9
707.876	21.65
708.195	21.87
708.514	22.11
708.834	22.04
709.153	22.05
709.472	22.29
709.791	22.11
710.11	23.19
710.429	22.46
710.748	22.36
711.067	23.16
711.386	22.78
711.705	22.29
712.023	22.33
712.342	23.01
712.661	23.21
712.979	23.37
713.298	22.87
713.616	22.93
713.935	23.2
714.253	22.3
714.572	22.61
714.89	22.71
715.208	22.55
715.526	23.14
715.844	23.15
716.162	22.97
716.48	23.19
716.798	22.69
717.116	23.36
717.434	23.22
717.752	23.62
718.069	22.98
718.387	22.65
718.705	23.36
719.022	22.74
719.34	23.22
719.657	23.47
719.975	23.63
720.292	23.36
720.609	23.86
720.927	24.4
721.244	23.2
721.561	23.71
721.878	23.6
722.195	23.31
722.512	23.65
722.829	23.64
723.146	24.32
723.463	23.89
723.779	22.11
724.096	24.11
724.413	24.07
724.729	22.59
725.046	24.33
725.362	24.25
725.679	24.21
725.995	23.79
726.311	23.45
726.628	24.07
726.944	23.77
727.26	24.25
727.576	24.23
727.892	24.97
728.208	23.84
728.524	24.83
728.84	24.35
729.156	24.94
729.472	24.58
729.787	23.44
730.103	23.74
730.419	24.1
730.734	24.91
731.05	25.6
731.365	24.71
731.681	24.2
731.996	24.96
732.311	25.26
732.626	24.1
732.942	25.39
733.257	26.01
733.572	24.55
733.887	24.13
734.202	25.12
734.517	25.29
734.832	24.9
735.146	25.84
735.461	24.6
735.776	24.9
736.091	25.08
736.405	26.06
736.72	25.92
737.034	26.08
737.349	24.69
737.663	26.89
737.977	26.35
738.292	25.87
738.606	25.76
738.92	24.85
739.234	26.14
739.548	25.25
739.862	26.05
740.176	27.23
740.49	26.95
740.804	26.29
741.117	24.99
741.431	26.83
741.745	27.24
742.058	25.44
742.372	26.78
742.685	25.9
742.999	26.52
743.312	27.4
743.626	26.08
743.939	25.94
744.252	26.82
744.565	26.37
744.878	24.91
745.191	25.2
745.505	25.62
745.817	27.16
746.13	25.93
746.443	24.65
746.756	26.68
747.069	25.43
747.381	25.42
747.694	26.13
748.007	27.46
748.319	26.28
748.632	26.53
748.944	26.87
749.256	26.09
749.569	26.8
749.881	26.43
750.193	26.62
750.505	26.57
750.817	28.42
751.129	26.91
751.441	27.81
751.753	27.96
752.065	27.52
752.377	27.46
752.689	26.13
753	28.55
753.312	27.8
753.624	26.12
753.935	26.5
754.247	26.84
754.558	29.16
754.869	27.3
755.181	27.31
755.492	26.93
755.803	27.5
756.114	26.17
756.425	27.16
756.736	28.72
757.047	28.32
757.358	26.66
757.669	27.43
757.98	27.55
758.291	27.02
758.601	27.58
758.912	27.67
759.223	29.02
759.533	28.22
759.844	27.73
760.154	28.34
760.464	28.92
760.775	28.17
761.085	29.66
761.395	27.16
761.705	27.98
762.016	27.76
762.326	28.29
762.636	26.44
762.945	27.44
763.255	28.95
763.565	29.17
763.875	29.36
764.185	29.19
764.494	28.05
764.804	30.05
765.113	28.39
765.423	27.62
765.732	28.11
766.042	29.49
766.351	28.75
766.66	29.21
766.97	29.49
767.279	28.4
767.588	29.17
767.897	29.24
768.206	27.25
768.515	27.93
768.824	29.47
769.133	28.04
769.441	29.07
769.75	30.25
770.059	29.73
770.367	31.08
770.676	29.51
770.984	27.35
771.293	30.6
771.601	27.6
771.91	30.33
772.218	29.67
772.526	27.85
772.834	32.23
773.142	30.1
773.45	26.8
773.758	30.39
774.066	28.77
774.374	30.12
774.682	30.46
774.99	32.19
775.298	33.81
775.605	30.05
775.913	28.29
776.22	31.08
776.528	30.26
776.835	31.79
777.143	28.43
777.45	30.54
777.757	29.39
778.065	30.13
778.372	28.61
778.679	31.37
778.986	30.45
779.293	30.57
779.6	29.87
779.907	30.23
780.214	31.42
780.52	28.49
780.827	31.09
781.134	31.62
781.44	33.8
781.747	30.63
782.053	29.31
782.36	31.91
782.666	30.76
782.973	27.9
783.279	30.29
783.585	32.45
783.891	28.57
784.197	33.74
784.503	29.38
784.809	35.01
785.115	30.06
785.421	32.56
785.727	34.93
786.033	29.7
786.339	32.51
786.644	27.05
786.95	32.63
787.255	29.36
787.561	30.05
787.866	30.35
788.172	30.11
788.477	29.79
788.782	35.22
789.088	33.23
789.393	31.15
789.698	28.94
790.003	29.67
790.308	31.13
790.613	32.65
790.918	33.78
791.223	29.91
791.527	29.83
791.832	30.75
792.137	29.42
792.441	36.13
792.746	27.33
793.05	28.8
793.355	33.79
793.659	36.95
793.963	35.12
794.268	32.63
794.572	30.84
794.876	33.59
795.18	31.47
795.484	35.94
795.788	29.73
796.092	28.99
796.396	33.11
796.7	34.58
797.004	34.65
797.307	32.9
797.611	31.74
797.915	31.51
798.218	34.56
798.522	30.66
798.825	33.42
799.128	36.95
799.432	33.52
799.735	31.43
800.038	33.45
800.341	32.59
800.644	34.29
800.947	34.88
801.25	31.76
801.553	37.16
801.856	30.1
802.159	33.57
802.462	33.38
802.764	32.4
803.067	31.19
803.37	32.87
803.672	31.89
803.975	30.19
804.277	32.84
804.579	28.52
804.882	33.47
805.184	29.69
805.486	34.86
805.788	30.89
806.09	31.92
806.392	34.57
806.694	32.94
806.996	34.29
807.298	32.99
807.6	31.72
807.902	34.79
808.203	34.32
808.505	34.4
808.807	31
809.108	39.16
809.409	32.81
809.711	31.71
810.012	35.91
810.313	38.06
810.615	33.49
810.916	33.9
811.217	35.42
811.518	34.55
811.819	38.31
812.12	31.98
812.421	31.21
812.722	35.19
813.023	33.56
813.323	35.23
813.624	33.77
813.925	36.93
814.225	40.08
814.526	39.09
814.826	37.05
815.126	34.25
815.427	36.17
815.727	34.39
816.027	38.9
816.327	34.92
816.627	34.75
816.927	29.22
817.227	32.98
817.527	33.83
817.827	29.1
818.127	37.44
818.427	32.9
818.727	37.63
819.026	37.27
819.326	34.39
819.625	30.95
819.925	29.7
820.224	35.79
820.524	37.6
820.823	35.13
821.122	34.96
821.421	39.15
821.72	33.87
822.019	34.01
822.318	37.25
822.617	35.28
822.916	38.18
823.215	35.39
823.514	32.03
823.813	33.55
824.111	35.19
824.41	34.33
824.709	36.3
825.007	35.45
825.306	35.52
825.604	34.93
825.902	34.37
826.201	35.3
826.499	35.01
826.797	35.32
827.095	34.83
827.393	35.91
827.691	36.41
827.989	35.07
828.287	36.19
828.585	38.16
828.882	32.03
829.18	34.85
829.478	35.45
829.775	36.77
830.073	36.32
830.37	35.11
830.668	35.59
830.965	36.18
831.263	34.16
831.56	35.57
831.857	40.36
832.154	35.67
832.451	35.53
832.748	37.68
833.045	28.68
833.342	38.95
833.639	40.26
833.936	31.01
834.232	36.28
834.529	33.36
834.826	39.81
835.122	37.66
835.419	36.94
835.715	36.21
836.012	35.8
836.308	34.78
836.604	37.04
836.901	37.76
837.197	36.44
837.493	35.52
837.789	39.73
838.085	33.45
838.381	35.11
838.677	38.16
838.972	35.96
839.268	34.67
839.564	38.37
839.86	43.79
840.155	35.16
840.451	32.39
840.746	27.64
841.042	31.51
841.337	35.28
841.632	36.08
841.928	44.98
842.223	36.39
842.518	28.62
842.813	37.86
843.108	32.49
843.403	37.17
843.698	33.87
843.993	35.24
844.287	34.22
844.582	31.56
844.877	38.44
845.171	41.19
845.466	24.98
845.761	32.04
846.055	39.99
846.349	26.9
846.644	36.56
846.938	36.97
847.232	38.62
847.526	43
847.82	39.67
848.114	30.5
848.408	37.19
848.702	32.26
848.996	39.35
849.29	17.88
849.584	38.95
849.877	34.76
850.171	31.3
850.465	48.72
850.758	34.68
851.052	31.92
851.345	37.98
851.638	27.82
851.932	32.23
852.225	48.41
852.518	42.91
852.811	42.34
853.104	33.82
853.397	14.76
853.69	38.76
853.983	26.49
854.276	38.51
854.569	25.09
854.861	47.9
855.154	51.12
855.447	43.54
855.739	33.97
856.032	54.36
856.324	38.27
856.616	42.12
856.909	33.34
857.201	28.33
857.493	46.05
857.785	29.24
858.077	42.51
858.369	31.47
858.661	37.8
858.953	49.03
859.245	36.51
859.537	44.03
859.829	39.2
860.12	42.06
860.412	30.81
860.703	52.21
860.995	42.16
861.286	52.84
861.578	22.5
861.869	53.28
862.16	48.86
862.452	45.38
862.743	28.02
863.034	50.06
863.325	29.71
863.616	32.54
863.907	42.98
864.198	46.78
864.488	57.03
864.779	32.55
865.07	51.98
865.36	53.1
865.651	9.24
865.941	27.48
866.232	33.39
866.522	30.49
866.813	24.49
867.103	38.13
867.393	59.27
867.683	40.34
867.973	68.37
868.263	20.85
868.553	45.05
868.843	25.32
869.133	3.27
869.423	35.32
869.713	37.97
870.002	43.89
870.292	37.12
870.582	39.3
870.871	23.23
871.161	21.81
871.45	-21.83
871.739	59.36
872.029	32.79
872.318	32.61
872.607	37.67
872.896	35.56
873.185	30.93
873.474	32.07
873.763	51.9
874.052	42.26
874.341	46.32
874.63	41.41
874.918	69.18
875.207	61.7
875.496	40.75
875.784	13.63
876.073	16.1
876.361	36.38
876.649	28.5
876.938	31.12
877.226	52.73
877.514	45.48
877.802	12.03
878.09	28.73
878.378	46.76
878.666	19
878.954	45.96
879.242	50.02
879.53	32.57
879.817	41.65
880.105	53.8
880.392	21.97
880.68	20.87
880.967	73.48
881.255	48.28
881.542	35.21
881.83	16.76
882.117	65.98
882.404	45.55
882.691	34.97
882.978	32.92
883.265	37.51
883.552	45.44
883.839	28.73
884.126	44.01
884.413	40.63
884.699	45.21
884.986	35.73
885.273	40.8
885.559	40.8
885.846	40.8
