Data from 815655_forehead_Reflection__1__146.txt Node

Date: Fri Sep 16 15:53:02 CDT 2022
User: ToomeyLab
Spectrometer: FLMS14357
Trigger mode: 0
Integration Time (sec): 1.000000E-2
Scans to average: 100
Electric dark correction enabled: true
Nonlinearity correction enabled: false
Boxcar width: 0
XAxis mode: Wavelengths
Number of Pixels in Spectrum: 2048
>>>>>Begin Spectral Data<<<<<
189.047	-163.77
189.435	-163.77
189.823	-163.77
190.211	2053.42
190.599	-120.05
190.987	81.62
191.375	95.67
191.763	1982.16
192.151	-185.51
192.538	83.31
192.926	-178.02
193.314	-59.96
193.702	136.5
194.089	170.27
194.477	378.09
194.864	134.05
195.252	-899.33
195.639	-14.69
196.027	500.37
196.414	-26.91
196.801	19.5
197.189	225.26
197.576	63.68
197.963	-65.73
198.351	-19.03
198.738	-38.66
199.125	67.42
199.512	-21.14
199.899	71.54
200.286	-54.21
200.673	74.8
201.06	10.23
201.447	33.7
201.833	21.43
202.22	52.31
202.607	32.72
202.994	19.13
203.38	3.84
203.767	22.94
204.154	37.46
204.54	14.1
204.927	0.74
205.313	37.33
205.699	57.4
206.086	30.51
206.472	15.69
206.858	34.14
207.245	22.95
207.631	82.03
208.017	55.91
208.403	-4.46
208.789	13.3
209.175	43.73
209.561	18.6
209.947	-17.38
210.333	29.89
210.719	-15.33
211.105	17.2
211.491	50.14
211.876	55.07
212.262	11.72
212.648	10.02
213.034	-12.54
213.419	19.04
213.805	37.79
214.19	20.53
214.576	11.25
214.961	-0.54
215.346	8.59
215.732	-31.3
216.117	46.77
216.502	14.87
216.888	-20.44
217.273	28.89
217.658	14.21
218.043	-35.43
218.428	40.79
218.813	20.8
219.198	29.07
219.583	3.21
219.968	3.63
220.353	18.67
220.738	32.32
221.122	-27.71
221.507	12.34
221.892	-1.01
222.276	17.06
222.661	13.63
223.046	18.79
223.43	4.15
223.815	8.79
224.199	19.73
224.583	15.16
224.968	10.93
225.352	5.8
225.736	7.22
226.121	3.03
226.505	5.42
226.889	5.87
227.273	9.2
227.657	11.08
228.041	4.5
228.425	2.95
228.809	10.05
229.193	3.79
229.577	3.71
229.961	2.38
230.344	4.94
230.728	3.37
231.112	3.31
231.495	3.19
231.879	4.83
232.263	2.73
232.646	2.86
233.03	5.56
233.413	5.03
233.797	5.89
234.18	5.4
234.563	3.62
234.946	4.31
235.33	3.76
235.713	4.21
236.096	3.55
236.479	4.58
236.862	4.13
237.245	4.14
237.628	5.67
238.011	5.57
238.394	5.05
238.777	5.96
239.16	4.41
239.543	5.8
239.925	5.37
240.308	3.07
240.691	5.04
241.073	3.99
241.456	4.17
241.838	3.26
242.221	4.84
242.603	3.78
242.986	3.01
243.368	4.24
243.75	3.65
244.133	3.97
244.515	4.01
244.897	4.54
245.279	4.15
245.661	3.96
246.043	3.49
246.425	4.45
246.807	4.82
247.189	4.2
247.571	4
247.953	4.18
248.335	4.16
248.717	3.72
249.098	3.93
249.48	3.86
249.862	3.92
250.243	4.16
250.625	4.16
251.006	4.42
251.388	4.16
251.769	3.55
252.151	4.44
252.532	3.65
252.913	4.57
253.295	4.04
253.676	4.41
254.057	3.33
254.438	2.92
254.819	3.32
255.2	3.98
255.581	4.15
255.962	4.56
256.343	3.99
256.724	3.42
257.105	3.73
257.486	4.28
257.867	3.77
258.247	4.34
258.628	4.97
259.009	4.31
259.389	4.61
259.77	4.12
260.15	4.18
260.531	3.89
260.911	3.83
261.292	3.64
261.672	3.93
262.052	3.79
262.432	3.9
262.813	4.26
263.193	4.25
263.573	4.01
263.953	4
264.333	4.5
264.713	3.83
265.093	3.99
265.473	3.84
265.853	4.77
266.233	3.71
266.612	4.95
266.992	3.55
267.372	4.34
267.752	3.81
268.131	4.17
268.511	4.09
268.89	4.71
269.27	3.54
269.649	3.82
270.029	4.43
270.408	4.54
270.787	3.93
271.167	4.11
271.546	3.82
271.925	3.82
272.304	3.91
272.683	3.51
273.062	3.97
273.441	3.74
273.82	3.94
274.199	3.85
274.578	4.21
274.957	4.05
275.336	3.77
275.715	4.37
276.093	3.75
276.472	4.1
276.851	3.9
277.229	3.87
277.608	3.97
277.986	4
278.365	3.37
278.743	4.04
279.122	4.16
279.5	3.62
279.878	3.93
280.257	4.48
280.635	4.43
281.013	4.14
281.391	4.46
281.769	4.09
282.147	3.72
282.525	3.78
282.903	4.09
283.281	3.77
283.659	4.18
284.037	4.25
284.415	4.49
284.792	4.72
285.17	4.25
285.548	3.88
285.925	3.95
286.303	4.52
286.68	3.74
287.058	3.78
287.435	3.83
287.813	3.97
288.19	3.73
288.567	3.66
288.945	4.16
289.322	4.09
289.699	4.47
290.076	3.62
290.453	4.42
290.83	4.13
291.207	4.44
291.584	3.55
291.961	4.8
292.338	4.48
292.715	4.31
293.092	4.54
293.469	4.28
293.845	4.53
294.222	4.15
294.599	4.23
294.975	4.17
295.352	4.42
295.728	4.22
296.105	4.9
296.481	4.49
296.858	4.67
297.234	4.67
297.61	5.03
297.986	4.76
298.363	4.55
298.739	4.55
299.115	4.89
299.491	4.93
299.867	4.84
300.243	4.73
300.619	4.67
300.995	4.67
301.371	5.04
301.746	4.77
302.122	5.24
302.498	4.97
302.874	5.1
303.249	5.23
303.625	5.45
304	5.18
304.376	4.82
304.751	5.14
305.127	5.63
305.502	4.92
305.878	5.44
306.253	5.46
306.628	5.34
307.003	5.69
307.378	5.33
307.754	5.95
308.129	6.1
308.504	5.84
308.879	5.97
309.254	6.15
309.629	5.95
310.003	5.76
310.378	5.18
310.753	5.79
311.128	5.67
311.502	5.76
311.877	6.06
312.252	6.11
312.626	5.73
313.001	6.38
313.375	6.27
313.75	6.2
314.124	6.36
314.498	6.18
314.873	6.44
315.247	6.78
315.621	6.41
315.995	6.04
316.369	6.5
316.743	6.93
317.117	6.73
317.491	6.39
317.865	7.26
318.239	7.18
318.613	6.77
318.987	6.53
319.361	6.48
319.734	7.03
320.108	7.08
320.482	7.18
320.855	6.68
321.229	7
321.602	7.7
321.976	6.77
322.349	7.28
322.723	7.23
323.096	7.18
323.469	6.91
323.843	8.07
324.216	8.34
324.589	7.89
324.962	7.18
325.335	8.02
325.708	7.79
326.081	7.61
326.454	7.97
326.827	7.83
327.2	7.71
327.573	7.57
327.945	7.8
328.318	7.58
328.691	8.19
329.063	7.7
329.436	7.68
329.809	7.74
330.181	8.16
330.553	8.12
330.926	8.2
331.298	8.63
331.671	8.12
332.043	8.14
332.415	8.57
332.787	8.21
333.159	8.47
333.532	8.84
333.904	8.6
334.276	8.48
334.648	8.57
335.02	8.5
335.391	8.61
335.763	8.43
336.135	8.27
336.507	8.62
336.879	8.79
337.25	8.52
337.622	8.96
337.993	9.25
338.365	9
338.736	9.49
339.108	8.89
339.479	9.29
339.851	9.25
340.222	8.79
340.593	9.5
340.964	9.29
341.336	9.28
341.707	9.34
342.078	9.69
342.449	9.54
342.82	9.27
343.191	8.94
343.562	9.63
343.933	9.66
344.303	9.94
344.674	9.26
345.045	9.81
345.416	9.27
345.786	10.02
346.157	9.27
346.527	9.83
346.898	9.74
347.268	9.82
347.639	9.72
348.009	9.94
348.38	10.22
348.75	9.96
349.12	10.34
349.49	10.19
349.861	10.25
350.231	9.89
350.601	10.44
350.971	10.17
351.341	10.7
351.711	10.41
352.081	10.12
352.45	10.89
352.82	10.83
353.19	10.23
353.56	10.89
353.929	10.86
354.299	10.57
354.669	10.58
355.038	10.9
355.408	10.74
355.777	10.87
356.147	11.13
356.516	10.99
356.885	11.07
357.254	11.08
357.624	11.23
357.993	10.99
358.362	11.09
358.731	11.36
359.1	11.29
359.469	11.08
359.838	11.14
360.207	11.58
360.576	11.43
360.945	11.55
361.314	11.5
361.682	11.28
362.051	11.81
362.42	11.81
362.788	11.78
363.157	11.67
363.525	11.69
363.894	11.86
364.262	11.55
364.631	11.96
364.999	12.02
365.367	11.61
365.735	12.27
366.104	12.33
366.472	12.11
366.84	12.61
367.208	12.39
367.576	12.38
367.944	12.25
368.312	12.06
368.68	12.4
369.048	12.69
369.416	12.37
369.783	12.5
370.151	12.5
370.519	12.47
370.886	12.75
371.254	12.27
371.621	12.77
371.989	13.03
372.356	12.91
372.724	13.08
373.091	12.89
373.458	12.72
373.826	12.85
374.193	13.11
374.56	13.15
374.927	13.47
375.294	13.65
375.661	13.22
376.028	13.67
376.395	12.97
376.762	13.46
377.129	13.26
377.496	13.35
377.863	13.5
378.229	13.82
378.596	13.44
378.963	13.8
379.329	13.53
379.696	13.89
380.062	13.68
380.429	14.04
380.795	14
381.161	14.21
381.528	14.34
381.894	13.95
382.26	14.28
382.626	13.98
382.993	14.03
383.359	14.05
383.725	14.3
384.091	14.21
384.457	13.99
384.823	14.04
385.188	14.26
385.554	14.35
385.92	14.24
386.286	14.45
386.651	14.27
387.017	14.61
387.383	14.49
387.748	14.37
388.114	14.56
388.479	14.53
388.845	14.82
389.21	15.11
389.575	14.93
389.94	15.27
390.306	14.86
390.671	14.97
391.036	15.09
391.401	15.13
391.766	15.28
392.131	15.24
392.496	15.26
392.861	15.11
393.226	15.31
393.591	15.39
393.956	15.4
394.32	15.68
394.685	15.12
395.05	15.67
395.414	15.44
395.779	15.78
396.143	15.74
396.508	15.61
396.872	15.8
397.236	15.73
397.601	15.76
397.965	15.94
398.329	15.98
398.694	15.79
399.058	16.14
399.422	15.87
399.786	16.15
400.15	16.39
400.514	16.21
400.878	16.29
401.242	16.21
401.605	16.43
401.969	16.17
402.333	16.44
402.697	16.7
403.06	16.54
403.424	16.47
403.787	16.58
404.151	16.43
404.514	16.77
404.878	16.65
405.241	16.69
405.604	16.99
405.968	16.85
406.331	16.71
406.694	16.67
407.057	16.78
407.42	16.85
407.783	16.95
408.146	17.17
408.509	17.22
408.872	17.28
409.235	17.45
409.598	17.22
409.961	17.21
410.323	17.54
410.686	17.47
411.049	17.29
411.411	17.28
411.774	17.7
412.136	17.52
412.499	17.73
412.861	17.62
413.223	17.81
413.586	17.79
413.948	17.78
414.31	17.83
414.672	17.96
415.035	17.94
415.397	18.09
415.759	18.04
416.121	17.92
416.483	18.21
416.845	18.29
417.206	18.07
417.568	18.01
417.93	18.12
418.292	18.23
418.653	18.08
419.015	18.19
419.377	18.16
419.738	18.11
420.1	18.27
420.461	18.32
420.822	18.2
421.184	18.11
421.545	18.25
421.906	18.33
422.267	18.3
422.629	18.19
422.99	18.15
423.351	18.38
423.712	18.2
424.073	18.46
424.434	18.52
424.795	18.59
425.155	18.61
425.516	18.55
425.877	18.47
426.238	18.62
426.598	18.61
426.959	18.8
427.32	18.77
427.68	18.89
428.041	19.05
428.401	19.02
428.761	19.47
429.122	19.18
429.482	19.41
429.842	19.38
430.202	19.46
430.563	19.28
430.923	19.86
431.283	19.67
431.643	19.76
432.003	19.66
432.363	19.69
432.722	19.68
433.082	19.82
433.442	19.71
433.802	19.75
434.161	19.81
434.521	19.89
434.881	19.98
435.24	19.79
435.6	19.91
435.959	20.02
436.319	20.26
436.678	20.11
437.037	20.22
437.396	20.34
437.756	20.37
438.115	20.22
438.474	20.39
438.833	20.36
439.192	20.33
439.551	20.52
439.91	20.61
440.269	20.39
440.628	20.3
440.987	20.39
441.345	20.52
441.704	20.54
442.063	20.59
442.421	20.54
442.78	20.47
443.138	20.56
443.497	20.69
443.855	20.61
444.214	20.75
444.572	20.93
444.93	21.08
445.288	20.91
445.647	20.96
446.005	21
446.363	20.96
446.721	21.08
447.079	20.91
447.437	21
447.795	20.92
448.153	21.01
448.51	21
448.868	21.08
449.226	21.11
449.584	21.3
449.941	21.21
450.299	21.4
450.656	21.53
451.014	21.61
451.371	21.68
451.729	21.63
452.086	21.57
452.443	21.83
452.801	21.86
453.158	21.79
453.515	21.92
453.872	22
454.229	21.97
454.586	21.92
454.943	21.83
455.3	22.26
455.657	22.29
456.014	22.33
456.371	22.27
456.727	22.42
457.084	22.53
457.441	22.38
457.797	22.35
458.154	22.67
458.51	22.69
458.867	22.67
459.223	22.63
459.58	22.55
459.936	22.69
460.292	22.81
460.648	22.59
461.005	22.58
461.361	22.39
461.717	22.48
462.073	22.5
462.429	22.55
462.785	22.62
463.141	22.92
463.496	23.14
463.852	23.12
464.208	23.19
464.564	23.34
464.919	23.21
465.275	23.46
465.631	23.4
465.986	23.51
466.342	23.48
466.697	23.5
467.052	23.46
467.408	23.59
467.763	23.57
468.118	23.64
468.473	23.75
468.829	23.64
469.184	23.56
469.539	23.75
469.894	23.81
470.249	23.91
470.603	24.14
470.958	23.84
471.313	24.23
471.668	24.12
472.023	24.07
472.377	24.3
472.732	24.16
473.086	24.28
473.441	24.11
473.795	24.21
474.15	24.15
474.504	24.45
474.859	24.37
475.213	24.34
475.567	24.26
475.921	24.34
476.275	24.53
476.63	24.58
476.984	24.78
477.338	24.72
477.692	24.42
478.045	24.65
478.399	24.65
478.753	24.63
479.107	24.68
479.461	24.64
479.814	24.71
480.168	24.77
480.521	24.78
480.875	24.87
481.228	24.88
481.582	24.92
481.935	24.97
482.289	25.04
482.642	25.06
482.995	24.75
483.348	24.91
483.701	24.95
484.055	24.77
484.408	24.7
484.761	24.5
485.114	24.17
485.466	24.2
485.819	24.2
486.172	24.42
486.525	24.48
486.878	24.56
487.23	24.75
487.583	24.89
487.936	24.88
488.288	24.92
488.641	24.91
488.993	24.78
489.345	24.72
489.698	24.79
490.05	24.88
490.402	24.95
490.754	25.13
491.107	25.27
491.459	25.42
491.811	25.47
492.163	25.54
492.515	25.51
492.866	25.34
493.218	25.1
493.57	25.23
493.922	25.45
494.274	25.5
494.625	25.63
494.977	25.94
495.328	26.03
495.68	26.27
496.031	26.32
496.383	26.53
496.734	26.54
497.086	26.62
497.437	26.68
497.788	26.77
498.139	26.53
498.49	26.56
498.842	26.59
499.193	26.62
499.544	26.68
499.894	26.58
500.245	26.84
500.596	26.9
500.947	26.9
501.298	26.85
501.648	27.22
501.999	27.03
502.35	27.16
502.7	27.23
503.051	27.38
503.401	27.41
503.752	27.36
504.102	27.47
504.452	27.51
504.803	27.5
505.153	27.51
505.503	27.46
505.853	27.43
506.203	27.62
506.553	27.57
506.903	27.59
507.253	27.77
507.603	27.74
507.953	27.87
508.303	27.89
508.652	27.83
509.002	27.93
509.352	27.9
509.701	27.78
510.051	27.94
510.4	27.64
510.75	27.86
511.099	27.93
511.449	27.88
511.798	27.92
512.147	28.17
512.496	28.15
512.846	27.95
513.195	28.22
513.544	28.2
513.893	28.11
514.242	28.33
514.591	28.41
514.939	28.46
515.288	28.38
515.637	28.48
515.986	28.7
516.334	28.47
516.683	28.67
517.032	28.64
517.38	28.94
517.729	28.88
518.077	28.74
518.426	28.84
518.774	28.73
519.122	28.66
519.47	28.67
519.819	28.59
520.167	28.52
520.515	28.54
520.863	28.74
521.211	28.89
521.559	28.8
521.907	29.03
522.255	28.92
522.602	29.27
522.95	29.23
523.298	29.28
523.645	29.4
523.993	29.47
524.341	29.5
524.688	29.7
525.036	29.57
525.383	29.58
525.73	29.39
526.078	29.53
526.425	29.57
526.772	29.52
527.119	29.37
527.466	29.32
527.814	29.37
528.161	29.27
528.508	29.47
528.854	29.48
529.201	29.44
529.548	29.24
529.895	29.17
530.242	29.02
530.588	29.14
530.935	29.3
531.282	29.41
531.628	29.37
531.975	29.56
532.321	29.76
532.667	30
533.014	30.12
533.36	30.04
533.706	29.96
534.052	30.23
534.399	29.99
534.745	29.89
535.091	29.77
535.437	29.95
535.783	29.99
536.129	30.22
536.474	30.36
536.82	30.3
537.166	30.62
537.512	30.67
537.857	30.62
538.203	30.53
538.549	30.6
538.894	30.58
539.239	30.82
539.585	30.78
539.93	30.88
540.276	31.24
540.621	31.29
540.966	31.19
541.311	31.41
541.656	31.18
542.001	31.21
542.346	30.98
542.691	30.76
543.036	30.61
543.381	30.61
543.726	30.83
544.071	30.97
544.415	31.03
544.76	31.09
545.105	31.23
545.449	31.4
545.794	31.51
546.138	31.72
546.483	31.83
546.827	31.86
547.171	31.79
547.516	31.79
547.86	31.93
548.204	31.94
548.548	31.79
548.892	31.77
549.236	32.2
549.58	32.28
549.924	32.29
550.268	32.35
550.612	32.7
550.956	32.69
551.3	32.77
551.643	32.72
551.987	32.77
552.33	32.83
552.674	32.75
553.017	33
553.361	32.82
553.704	32.69
554.048	33.02
554.391	33.04
554.734	32.83
555.077	33.11
555.42	33.15
555.764	33.27
556.107	33.2
556.45	33.14
556.793	33.36
557.135	33.34
557.478	33.45
557.821	33.53
558.164	33.61
558.507	33.34
558.849	33.7
559.192	33.77
559.534	33.8
559.877	33.84
560.219	33.74
560.562	34.02
560.904	34.01
561.246	33.84
561.589	34.07
561.931	34.11
562.273	34.09
562.615	34.23
562.957	34.2
563.299	34.1
563.641	34.22
563.983	34.27
564.325	34.36
564.667	34.24
565.008	34.4
565.35	34.56
565.692	34.54
566.033	34.49
566.375	34.49
566.716	34.49
567.058	34.37
567.399	34.72
567.741	34.29
568.082	34.55
568.423	34.67
568.764	34.31
569.105	34.82
569.447	34.71
569.788	34.94
570.129	34.98
570.47	35.03
570.811	34.9
571.151	35.02
571.492	35.09
571.833	35.03
572.174	35.13
572.514	35.22
572.855	35.21
573.195	35.1
573.536	34.99
573.876	35.19
574.217	35.14
574.557	35.28
574.898	35.41
575.238	35.42
575.578	35.53
575.918	35.58
576.258	35.45
576.598	35.33
576.938	35.69
577.278	35.41
577.618	35.67
577.958	35.7
578.298	35.89
578.638	35.97
578.977	35.71
579.317	35.79
579.657	36.13
579.996	36.35
580.336	36.11
580.675	36.24
581.014	36.32
581.354	36.39
581.693	36.33
582.032	36.51
582.372	36.58
582.711	36.35
583.05	36.63
583.389	36.66
583.728	36.77
584.067	36.68
584.406	36.89
584.745	37.01
585.083	36.73
585.422	37.28
585.761	36.79
586.1	37.02
586.438	37.26
586.777	36.96
587.115	37.08
587.454	37.23
587.792	36.98
588.13	37.15
588.469	37.07
588.807	37.21
589.145	37.12
589.483	37.42
589.821	37.4
590.159	37.23
590.497	37.16
590.835	37.48
591.173	37.23
591.511	37.37
591.849	37.75
592.187	37.49
592.524	37.47
592.862	37.54
593.2	37.53
593.537	37.88
593.875	37.64
594.212	37.5
594.55	37.53
594.887	37.74
595.224	37.94
595.561	38.03
595.899	37.78
596.236	38.07
596.573	37.89
596.91	38.02
597.247	37.84
597.584	37.92
597.921	38.02
598.258	37.8
598.594	37.77
598.931	37.81
599.268	38.05
599.604	38.09
599.941	38.06
600.277	38.32
600.614	38.32
600.95	38.65
601.287	38.15
601.623	38.28
601.959	38.72
602.296	38.91
602.632	38.55
602.968	38.94
603.304	38.63
603.64	38.71
603.976	38.83
604.312	38.53
604.648	39.08
604.984	38.72
605.319	39.07
605.655	38.81
605.991	38.8
606.326	38.7
606.662	38.78
606.998	38.58
607.333	39
607.668	39.14
608.004	39.06
608.339	39.2
608.674	39.14
609.01	39.28
609.345	39.14
609.68	39.37
610.015	39.29
610.35	39.31
610.685	39.44
611.02	39.46
611.355	39.21
611.689	39.69
612.024	39.54
612.359	39.52
612.694	39.41
613.028	39.62
613.363	39.71
613.697	39.64
614.032	39.74
614.366	39.6
614.7	39.99
615.035	40.07
615.369	40.11
615.703	39.75
616.037	39.93
616.371	40.26
616.705	39.78
617.039	40.42
617.373	40.11
617.707	40.14
618.041	40.72
618.375	40.36
618.709	40.26
619.042	40.29
619.376	40.43
619.71	40.81
620.043	40.58
620.377	40.78
620.71	40.33
621.043	40.69
621.377	40.78
621.71	40.52
622.043	40.92
622.376	40.95
622.709	40.91
623.043	41.11
623.376	40.78
623.709	40.48
624.041	41.08
624.374	40.65
624.707	40.96
625.04	41.06
625.373	40.68
625.705	41.17
626.038	41.75
626.37	41.32
626.703	40.91
627.035	41.55
627.368	41.31
627.7	41.68
628.032	41.47
628.365	41.39
628.697	41.39
629.029	41.73
629.361	41.33
629.693	41.41
630.025	41.47
630.357	41.15
630.689	41.85
631.021	41.5
631.353	41.48
631.684	41.48
632.016	41.81
632.348	42.21
632.679	41.53
633.011	41.87
633.342	42.01
633.674	42.12
634.005	41.43
634.336	41.43
634.668	42.13
634.999	42.08
635.33	42
635.661	41.76
635.992	42.07
636.323	42.19
636.654	42.1
636.985	41.9
637.316	42.34
637.647	42.17
637.977	42
638.308	42.27
638.639	42.03
638.969	42.31
639.3	42.91
639.63	42.52
639.961	42.98
640.291	42.43
640.622	42.81
640.952	42.39
641.282	43.39
641.612	43.42
641.943	42.84
642.273	43.05
642.603	42.93
642.933	42.21
643.263	42.75
643.592	43.09
643.922	42.76
644.252	42.84
644.582	42.95
644.911	43.12
645.241	43.39
645.571	43.01
645.9	43.4
646.23	43.33
646.559	42.87
646.888	43.03
647.218	43.26
647.547	43.42
647.876	43.19
648.205	42.98
648.534	43.07
648.863	43.17
649.192	43.05
649.521	43.46
649.85	43.25
650.179	43.24
650.508	43.79
650.837	44.12
651.165	43.53
651.494	44.04
651.822	43.35
652.151	43.52
652.479	43.76
652.808	44.06
653.136	43.88
653.465	44.1
653.793	44.03
654.121	43.61
654.449	44.02
654.777	44.12
655.105	44.55
655.433	44.12
655.761	44.1
656.089	43.88
656.417	43.85
656.745	44.08
657.073	43.95
657.4	43.8
657.728	44.47
658.056	43.82
658.383	44.59
658.711	44.36
659.038	44.35
659.365	44.3
659.693	44.07
660.02	43.84
660.347	43.88
660.674	44.06
661.001	44.31
661.329	44.37
661.656	44.25
661.982	44.78
662.309	44.18
662.636	44.68
662.963	44.5
663.29	44.68
663.616	44.97
663.943	45.06
664.27	44.87
664.596	44.78
664.923	44.7
665.249	44.79
665.576	44.88
665.902	45.18
666.228	44.64
666.554	45.39
666.881	45.27
667.207	44.75
667.533	45.19
667.859	45.22
668.185	44.82
668.511	45.24
668.837	45.4
669.162	45.57
669.488	45.6
669.814	45.09
670.139	44.87
670.465	45.22
670.791	45.4
671.116	45.25
671.442	45.51
671.767	45.42
672.092	44.98
672.418	45.74
672.743	45.87
673.068	45.22
673.393	45.48
673.718	45.1
674.043	45.37
674.368	45.99
674.693	46.57
675.018	45.46
675.343	45.6
675.667	45.76
675.992	46.43
676.317	44.98
676.641	45.77
676.966	46.05
677.29	45.89
677.615	45.46
677.939	46.21
678.264	46.29
678.588	45.57
678.912	45.73
679.236	46.65
679.56	46.79
679.885	45.91
680.209	46.21
680.532	45.95
680.856	45.75
681.18	46.03
681.504	46.14
681.828	46.32
682.152	45.95
682.475	46.49
682.799	46.26
683.122	46.36
683.446	46.19
683.769	46.7
684.093	46.07
684.416	46.31
684.739	46.43
685.062	46.18
685.386	45.94
685.709	47.23
686.032	46.37
686.355	46.33
686.678	47.14
687.001	46.54
687.324	46.4
687.646	46.66
687.969	47.12
688.292	46.37
688.614	45.92
688.937	46.34
689.26	47.13
689.582	46.07
689.904	46.89
690.227	47.35
690.549	47.24
690.871	47.48
691.194	46.45
691.516	46.28
691.838	46.33
692.16	46.91
692.482	46.6
692.804	47.8
693.126	46.7
693.448	46.9
693.769	47.27
694.091	47.28
694.413	47.93
694.735	47.72
695.056	46.69
695.378	46.87
695.699	47.89
696.021	48.03
696.342	47.53
696.663	47.66
696.984	47.42
697.306	48.02
697.627	47.88
697.948	47.1
698.269	47.91
698.59	47.54
698.911	47.79
699.232	48.32
699.553	47.27
699.873	47.6
700.194	47.65
700.515	47.62
700.835	47.71
701.156	47.86
701.477	48.25
701.797	47.75
702.117	47.09
702.438	47.22
702.758	46.77
703.078	46.87
703.398	47.32
703.719	47.78
704.039	46.49
704.359	48.65
704.679	47.67
704.999	47.68
705.319	48.52
705.638	46.55
705.958	48.29
706.278	47.45
706.597	47.84
706.917	48.16
707.237	48.32
707.556	48.54
707.876	48.65
708.195	48.5
708.514	47.88
708.834	48.92
709.153	48.24
709.472	47.83
709.791	49.46
710.11	48.37
710.429	48.64
710.748	48.48
711.067	48.7
711.386	48.62
711.705	49.14
712.023	48.63
712.342	49.65
712.661	48.06
712.979	47.71
713.298	48.99
713.616	48.71
713.935	48.62
714.253	48.5
714.572	48.38
714.89	47.66
715.208	48.49
715.526	48.24
715.844	49.32
716.162	48.99
716.48	49.16
716.798	47.95
717.116	48.55
717.434	49.25
717.752	48.38
718.069	48.86
718.387	48.22
718.705	49.37
719.022	48.16
719.34	49.4
719.657	49.26
719.975	48.26
720.292	49.02
720.609	49.86
720.927	49.21
721.244	48.63
721.561	49.3
721.878	48.94
722.195	49.04
722.512	48.74
722.829	49.74
723.146	49.24
723.463	50.18
723.779	48.35
724.096	49.58
724.413	49.99
724.729	48.24
725.046	49.12
725.362	48.3
725.679	48.48
725.995	51.17
726.311	49.05
726.628	49.09
726.944	49.45
727.26	50.55
727.576	49.15
727.892	49.47
728.208	48.49
728.524	49.68
728.84	48.13
729.156	50.24
729.472	49.02
729.787	49.8
730.103	47.99
730.419	49.38
730.734	49.59
731.05	50.09
731.365	49.24
731.681	49.48
731.996	51.22
732.311	50.09
732.626	49.61
732.942	49.1
733.257	50.99
733.572	49.67
733.887	49.98
734.202	50.13
734.517	50.13
734.832	50.34
735.146	50.78
735.461	50.89
735.776	49.25
736.091	49.53
736.405	51.36
736.72	50.32
737.034	50.95
737.349	49.93
737.663	50.76
737.977	49.51
738.292	49.66
738.606	52.07
738.92	50
739.234	49.06
739.548	50.28
739.862	49.69
740.176	50.81
740.49	49.84
740.804	50.45
741.117	51.26
741.431	50.01
741.745	50.99
742.058	49.14
742.372	51.08
742.685	49.09
742.999	49.24
743.312	50.39
743.626	50.78
743.939	49.96
744.252	51.08
744.565	50.54
744.878	48.99
745.191	49.89
745.505	49.11
745.817	50.53
746.13	51.42
746.443	49.57
746.756	52.69
747.069	50.5
747.381	48.81
747.694	50.73
748.007	52.2
748.319	50.5
748.632	50.18
748.944	49.58
749.256	51.96
749.569	50.06
749.881	52.13
750.193	54.12
750.505	49.77
750.817	51.36
751.129	50.92
751.441	51.25
751.753	52.57
752.065	50.31
752.377	50.61
752.689	49.69
753	49.78
753.312	51.81
753.624	51.04
753.935	50.94
754.247	50.91
754.558	51.37
754.869	51.52
755.181	51.74
755.492	52.38
755.803	52.14
756.114	50.66
756.425	51.96
756.736	52.05
757.047	52.53
757.358	49.42
757.669	50.31
757.98	50.95
758.291	51.01
758.601	51.7
758.912	51.81
759.223	49.12
759.533	51.47
759.844	51.18
760.154	51.62
760.464	52.58
760.775	51.04
761.085	50.21
761.395	52.53
761.705	53.37
762.016	50.42
762.326	52.12
762.636	51.65
762.945	49.85
763.255	51.45
763.565	53.26
763.875	51.06
764.185	50.83
764.494	51.63
764.804	52.54
765.113	51.02
765.423	52.71
765.732	52.41
766.042	51.58
766.351	52.61
766.66	52.48
766.97	51.18
767.279	52.9
767.588	50.72
767.897	52.28
768.206	52.02
768.515	52.22
768.824	50.13
769.133	52.22
769.441	51.95
769.75	52.5
770.059	53.03
770.367	54.29
770.676	53.41
770.984	50.66
771.293	51.86
771.601	51.17
771.91	54.49
772.218	52.29
772.526	53.09
772.834	51.32
773.142	54.03
773.45	51.38
773.758	50.02
774.066	49.2
774.374	52.71
774.682	52.49
774.99	50.79
775.298	54.44
775.605	50.32
775.913	50.73
776.22	51.98
776.528	51.99
776.835	54.29
777.143	50.31
777.45	51.14
777.757	53.37
778.065	52.71
778.372	51.04
778.679	53.55
778.986	55.72
779.293	54.4
779.6	53.68
779.907	54.08
780.214	52.92
780.52	54.6
780.827	50.28
781.134	51.39
781.44	54.74
781.747	55.77
782.053	53.96
782.36	51.68
782.666	50.38
782.973	51.44
783.279	51.48
783.585	54.21
783.891	51.8
784.197	54.47
784.503	55.59
784.809	54.69
785.115	50.84
785.421	52.29
785.727	51.68
786.033	55
786.339	53.57
786.644	51.8
786.95	55.57
787.255	53.49
787.561	54.58
787.866	53.33
788.172	52
788.477	55.59
788.782	51.69
789.088	56.4
789.393	49.95
789.698	48.64
790.003	55.16
790.308	51.08
790.613	54.97
790.918	56.02
791.223	52.99
791.527	53.19
791.832	55.55
792.137	50.96
792.441	55.17
792.746	53.34
793.05	54.21
793.355	51.15
793.659	56.44
793.963	51.93
794.268	56.9
794.572	52.15
794.876	51.81
795.18	55.03
795.484	57.7
795.788	55.74
796.092	52.71
796.396	53.91
796.7	56.68
797.004	55.69
797.307	50.79
797.611	54.69
797.915	52.81
798.218	54.38
798.522	54.1
798.825	51.81
799.128	49.62
799.432	55.15
799.735	56.11
800.038	48.99
800.341	51.04
800.644	54.62
800.947	56.3
801.25	56.01
801.553	55.05
801.856	53.95
802.159	53.23
802.462	54.31
802.764	57.16
803.067	49.5
803.37	52.75
803.672	54.73
803.975	54.45
804.277	53.3
804.579	53.67
804.882	55.68
805.184	54.93
805.486	51.27
805.788	55.23
806.09	53.23
806.392	54.11
806.694	54.71
806.996	54.86
807.298	52.66
807.6	55.22
807.902	51.23
808.203	55.13
808.505	56.16
808.807	54.26
809.108	53.94
809.409	53.42
809.711	52.81
810.012	49.64
810.313	58.8
810.615	57.82
810.916	53.95
811.217	57.4
811.518	51.59
811.819	54.96
812.12	50.1
812.421	56.37
812.722	52.6
813.023	50.93
813.323	54.45
813.624	51.9
813.925	55.5
814.225	54.98
814.526	54
814.826	54.6
815.126	49.94
815.427	52.54
815.727	48.71
816.027	50.22
816.327	51.39
816.627	59.42
816.927	54.38
817.227	51.64
817.527	51.53
817.827	52.78
818.127	54.06
818.427	58.01
818.727	54.03
819.026	56.59
819.326	55.68
819.625	58.77
819.925	52.18
820.224	53.09
820.524	53.66
820.823	52.59
821.122	50.37
821.421	56.01
821.72	51.05
822.019	50.24
822.318	53.09
822.617	50.88
822.916	53.57
823.215	53.42
823.514	53.44
823.813	54.71
824.111	54.8
824.41	55.75
824.709	55.32
825.007	54.58
825.306	55.44
825.604	56.31
825.902	55.94
826.201	55.71
826.499	56.18
826.797	55.19
827.095	56.21
827.393	55.31
827.691	56.51
827.989	56.11
828.287	54.13
828.585	56.64
828.882	54.47
829.18	55.76
829.478	56.39
829.775	55.82
830.073	54.48
830.37	54.11
830.668	54.92
830.965	56.05
831.263	55.37
831.56	53.62
831.857	57.22
832.154	53.63
832.451	53.25
832.748	54.23
833.045	57.11
833.342	54.22
833.639	47.71
833.936	49.9
834.232	56.11
834.529	54.54
834.826	56.51
835.122	47.64
835.419	55.63
835.715	55.71
836.012	54.11
836.308	51.43
836.604	56.25
836.901	56.36
837.197	58.65
837.493	55.55
837.789	56.92
838.085	53.18
838.381	56.85
838.677	53.59
838.972	55.86
839.268	53.72
839.564	51.5
839.86	60.03
840.155	53.07
840.451	58.92
840.746	44.06
841.042	56.6
841.337	50.75
841.632	59.69
841.928	58.9
842.223	64.05
842.518	55.04
842.813	49.31
843.108	57.09
843.403	58.13
843.698	63.31
843.993	54.52
844.287	53.46
844.582	51.59
844.877	49.21
845.171	61.68
845.466	60.86
845.761	59.72
846.055	62.48
846.349	59.92
846.644	50.8
846.938	60.54
847.232	66.7
847.526	68.69
847.82	53.27
848.114	54.61
848.408	64.37
848.702	31.47
848.996	49.95
849.29	28.2
849.584	49.96
849.877	50.61
850.171	54.58
850.465	43.29
850.758	43.83
851.052	54.18
851.345	47.96
851.638	68.57
851.932	51.84
852.225	58.73
852.518	63.35
852.811	39.91
853.104	55.62
853.397	31.6
853.69	65.12
853.983	38.36
854.276	55.96
854.569	42.03
854.861	36.54
855.154	45.79
855.447	74.62
855.739	53.55
856.032	54.8
856.324	63.66
856.616	47.55
856.909	57.1
857.201	54.38
857.493	39.47
857.785	47.63
858.077	60.55
858.369	43.51
858.661	59.88
858.953	42.78
859.245	70.96
859.537	41.79
859.829	66.34
860.12	45.66
860.412	46.52
860.703	68.74
860.995	59.19
861.286	70.22
861.578	62.36
861.869	55.52
862.16	52.7
862.452	71.8
862.743	67.79
863.034	59.17
863.325	65.32
863.616	62.79
863.907	66.5
864.198	58.22
864.488	49.12
864.779	41.77
865.07	60.48
865.36	74.07
865.651	39.71
865.941	75.19
866.232	85.78
866.522	36.35
866.813	69.29
867.103	42.76
867.393	79.02
867.683	75.88
867.973	61.24
868.263	41.32
868.553	70.19
868.843	33.19
869.133	50.77
869.423	63.53
869.713	49.25
870.002	58.82
870.292	50.69
870.582	62.65
870.871	70.28
871.161	29.72
871.45	38.36
871.739	69.54
872.029	41.94
872.318	65.19
872.607	60.64
872.896	45.37
873.185	22.7
873.474	46.79
873.763	52.49
874.052	36.49
874.341	49.02
874.63	59.42
874.918	28.49
875.207	63.06
875.496	41
875.784	70.34
876.073	38.91
876.361	71.12
876.649	13.23
876.938	56.72
877.226	63.4
877.514	40.36
877.802	66.2
878.09	52.67
878.378	46.58
878.666	60.76
878.954	61.92
879.242	76.16
879.53	47.56
879.817	48.25
880.105	42.27
880.392	57.37
880.68	38.94
880.967	63.84
881.255	47.92
881.542	54.95
881.83	55.58
882.117	59.54
882.404	49.7
882.691	26.34
882.978	59.85
883.265	60.98
883.552	51.98
883.839	55.83
884.126	61.7
884.413	51.63
884.699	55.72
884.986	51.09
885.273	61.91
885.559	61.91
885.846	61.91
