Data from 0245_crown_Reflection__1__84.txt Node

Date: Fri Oct 20 21:20:19 CDT 2023
User: ToomeyLab
Spectrometer: FLMS14357
Trigger mode: 0
Integration Time (sec): 1.000000E-2
Scans to average: 100
Electric dark correction enabled: true
Nonlinearity correction enabled: false
Boxcar width: 0
XAxis mode: Wavelengths
Number of Pixels in Spectrum: 2048
>>>>>Begin Spectral Data<<<<<
189.047	18.36
189.435	18.36
189.823	18.36
190.211	59.07
190.599	-447.59
190.987	244.33
191.375	473.23
191.763	3.83
192.151	-1.79
192.538	-19.75
192.926	171.32
193.314	718.11
193.702	37.76
194.089	313.06
194.477	-21.34
194.864	10.56
195.252	210.78
195.639	88.79
196.027	3
196.414	55.76
196.801	351.06
197.189	66.41
197.576	-18.15
197.963	55.91
198.351	61.55
198.738	56.82
199.125	17.36
199.512	21.3
199.899	33.92
200.286	-38.62
200.673	22.78
201.06	24.02
201.447	38.53
201.833	47.78
202.22	38.87
202.607	61.38
202.994	33.07
203.38	14.1
203.767	23.76
204.154	12.54
204.54	32.04
204.927	27.93
205.313	14.17
205.699	59.14
206.086	29.15
206.472	43.38
206.858	51.96
207.245	47.42
207.631	49.99
208.017	27.83
208.403	48.23
208.789	36.96
209.175	-0.49
209.561	45.29
209.947	22.95
210.333	22.34
210.719	37.05
211.105	53.51
211.491	34.88
211.876	28.12
212.262	26.48
212.648	46.15
213.034	54.61
213.419	35.31
213.805	22.69
214.19	29.24
214.576	19.46
214.961	37.74
215.346	30.08
215.732	42.65
216.117	-11.79
216.502	41.61
216.888	19.69
217.273	1.91
217.658	5.91
218.043	25.85
218.428	24.12
218.813	18.7
219.198	6.5
219.583	-6.93
219.968	6.28
220.353	22.49
220.738	17.7
221.122	26.28
221.507	32.84
221.892	21.05
222.276	10.44
222.661	29.59
223.046	31.33
223.43	20.92
223.815	17.89
224.199	25.28
224.583	10.23
224.968	2.26
225.352	16.97
225.736	13.65
226.121	14.29
226.505	11.06
226.889	15.74
227.273	8.32
227.657	15.92
228.041	14.12
228.425	14.47
228.809	13.19
229.193	10.22
229.577	12.83
229.961	9.42
230.344	9.01
230.728	10.3
231.112	10.04
231.495	9.92
231.879	9.51
232.263	11.08
232.646	9.89
233.03	9.1
233.413	9.53
233.797	9.89
234.18	9.83
234.563	11.82
234.946	12.63
235.33	13.6
235.713	10.44
236.096	11
236.479	10.32
236.862	10.23
237.245	6.92
237.628	11.86
238.011	11.51
238.394	10.18
238.777	12.72
239.16	9.09
239.543	11.14
239.925	9.58
240.308	10.61
240.691	9.26
241.073	11.93
241.456	10.12
241.838	10.8
242.221	9.95
242.603	9.68
242.986	9.33
243.368	8.9
243.75	9.07
244.133	9.05
244.515	8.58
244.897	8.71
245.279	9.34
245.661	8.68
246.043	8.76
246.425	9.55
246.807	8.68
247.189	9.26
247.571	8.3
247.953	8.93
248.335	8.69
248.717	8.18
249.098	8.12
249.48	8.54
249.862	8.72
250.243	8.78
250.625	8.55
251.006	8.51
251.388	8.36
251.769	9.06
252.151	9.32
252.532	9.39
252.913	7.53
253.295	7.96
253.676	8.51
254.057	8.28
254.438	8.22
254.819	8.01
255.2	8.06
255.581	8.22
255.962	8.31
256.343	7.99
256.724	7.99
257.105	7.83
257.486	8.37
257.867	9.35
258.247	9.14
258.628	9.01
259.009	8.41
259.389	7.65
259.77	7.3
260.15	7.79
260.531	8.54
260.911	8.28
261.292	7.66
261.672	7.65
262.052	7.8
262.432	7.67
262.813	7.66
263.193	7.81
263.573	7.98
263.953	7.63
264.333	7.32
264.713	8.2
265.093	8.31
265.473	9.05
265.853	7.46
266.233	7.32
266.612	7.24
266.992	8.28
267.372	7.04
267.752	7.66
268.131	8.01
268.511	8
268.89	7.87
269.27	7.11
269.649	6.91
270.029	7.52
270.408	8
270.787	7.8
271.167	7.91
271.546	7.69
271.925	7.5
272.304	7.91
272.683	7.93
273.062	7.87
273.441	7.71
273.82	7.42
274.199	7.6
274.578	7.43
274.957	7.45
275.336	7.48
275.715	7.71
276.093	6.92
276.472	7.56
276.851	7.09
277.229	7.69
277.608	7.31
277.986	6.83
278.365	7.78
278.743	7.31
279.122	7.07
279.5	7.36
279.878	6.93
280.257	7.01
280.635	7.29
281.013	7.38
281.391	7.38
281.769	7
282.147	6.6
282.525	7.3
282.903	6.84
283.281	6.91
283.659	7.13
284.037	7.25
284.415	6.38
284.792	6.69
285.17	7.13
285.548	6.88
285.925	6.2
286.303	6.99
286.68	6.96
287.058	7.63
287.435	6.87
287.813	6.53
288.19	6.59
288.567	6.89
288.945	7.1
289.322	7.19
289.699	6.42
290.076	7.2
290.453	6.58
290.83	6.56
291.207	6.93
291.584	6.84
291.961	6.64
292.338	6.65
292.715	6.77
293.092	6.47
293.469	6.85
293.845	6.68
294.222	6.8
294.599	6.49
294.975	7.84
295.352	6.99
295.728	6.68
296.105	6.3
296.481	6.75
296.858	6.33
297.234	6.54
297.61	6.36
297.986	6.41
298.363	6.68
298.739	6.34
299.115	6.06
299.491	6.38
299.867	6.34
300.243	6.76
300.619	6.6
300.995	6.55
301.371	6.38
301.746	6.52
302.122	6.55
302.498	5.93
302.874	6.22
303.249	6.02
303.625	5.87
304	6.75
304.376	6.11
304.751	6.09
305.127	6.22
305.502	6.31
305.878	6.57
306.253	6.31
306.628	6.17
307.003	6.03
307.378	6.26
307.754	6.57
308.129	6.68
308.504	6.64
308.879	6.47
309.254	6.29
309.629	5.97
310.003	5.53
310.378	6.47
310.753	6.34
311.128	6.15
311.502	6.3
311.877	6.51
312.252	5.88
312.626	6.15
313.001	6.2
313.375	6.5
313.75	6.32
314.124	5.78
314.498	5.99
314.873	5.83
315.247	6.27
315.621	5.98
315.995	6.77
316.369	6.11
316.743	6.53
317.117	6.57
317.491	6.03
317.865	6.1
318.239	6.4
318.613	6.59
318.987	5.92
319.361	5.19
319.734	6.42
320.108	5.35
320.482	6.66
320.855	6.68
321.229	6.55
321.602	6.11
321.976	5.91
322.349	6.8
322.723	6.22
323.096	6.3
323.469	6.29
323.843	6.18
324.216	6.06
324.589	6.55
324.962	6.46
325.335	6
325.708	6.09
326.081	6.43
326.454	6.15
326.827	6.36
327.2	6.17
327.573	6.55
327.945	5.73
328.318	5.71
328.691	5.98
329.063	6.39
329.436	6.09
329.809	6.24
330.181	6.52
330.553	6.18
330.926	6.18
331.298	5.66
331.671	6.32
332.043	5.91
332.415	6.21
332.787	6.14
333.159	6.25
333.532	6.58
333.904	6.41
334.276	5.71
334.648	6.37
335.02	6.39
335.391	6.29
335.763	6.36
336.135	5.97
336.507	6.38
336.879	5.73
337.25	6.44
337.622	6.76
337.993	6.03
338.365	6.06
338.736	6.54
339.108	6.27
339.479	5.73
339.851	6.39
340.222	5.61
340.593	5.88
340.964	6.1
341.336	6.62
341.707	6.4
342.078	6.24
342.449	6.06
342.82	6.24
343.191	6.3
343.562	6.26
343.933	6.64
344.303	6.55
344.674	6.3
345.045	6.24
345.416	6.46
345.786	6.15
346.157	6.56
346.527	6.49
346.898	6.46
347.268	6.35
347.639	6.33
348.009	6.01
348.38	6.64
348.75	6.78
349.12	6.02
349.49	6.43
349.861	6.63
350.231	6.46
350.601	5.81
350.971	6.84
351.341	6.42
351.711	7.08
352.081	6.71
352.45	5.71
352.82	6.31
353.19	6.75
353.56	6.6
353.929	6.33
354.299	6.28
354.669	6.51
355.038	6.31
355.408	6.8
355.777	6.41
356.147	6.53
356.516	6.13
356.885	6.22
357.254	6.2
357.624	6.23
357.993	6.19
358.362	6.61
358.731	6
359.1	5.86
359.469	6.03
359.838	6.45
360.207	6.35
360.576	6.46
360.945	6.07
361.314	6.35
361.682	6.17
362.051	6.45
362.42	6.17
362.788	6.6
363.157	6.59
363.525	6.38
363.894	6.35
364.262	6.41
364.631	6.52
364.999	6.23
365.367	6.47
365.735	6.22
366.104	6.49
366.472	6.38
366.84	6.63
367.208	6.56
367.576	6.54
367.944	6.71
368.312	6.51
368.68	6.38
369.048	6.65
369.416	7.02
369.783	6.67
370.151	6.58
370.519	6.59
370.886	6.81
371.254	6.91
371.621	6.73
371.989	6.38
372.356	7.02
372.724	6.89
373.091	6.67
373.458	6.62
373.826	6.54
374.193	6.41
374.56	6.47
374.927	6.68
375.294	6.91
375.661	6.69
376.028	7
376.395	6.93
376.762	6.88
377.129	6.97
377.496	6.66
377.863	6.69
378.229	6.79
378.596	7.1
378.963	6.63
379.329	6.81
379.696	6.77
380.062	6.56
380.429	6.55
380.795	6.63
381.161	6.91
381.528	6.97
381.894	6.81
382.26	6.93
382.626	7.29
382.993	6.91
383.359	6.79
383.725	7.01
384.091	6.85
384.457	6.9
384.823	6.71
385.188	7.2
385.554	6.97
385.92	6.71
386.286	7.15
386.651	6.79
387.017	6.83
387.383	6.78
387.748	6.66
388.114	6.68
388.479	6.76
388.845	7
389.21	6.89
389.575	6.83
389.94	6.83
390.306	7.07
390.671	6.95
391.036	6.91
391.401	7.15
391.766	7.13
392.131	7.08
392.496	7.17
392.861	6.91
393.226	7
393.591	7.03
393.956	6.94
394.32	7.16
394.685	6.96
395.05	7.17
395.414	7
395.779	6.91
396.143	7.05
396.508	6.85
396.872	6.92
397.236	6.97
397.601	7.03
397.965	6.97
398.329	6.93
398.694	7.07
399.058	6.55
399.422	7.09
399.786	7.01
400.15	6.92
400.514	6.87
400.878	7.05
401.242	7.15
401.605	7.11
401.969	6.84
402.333	7.01
402.697	7.04
403.06	7.09
403.424	6.86
403.787	7.04
404.151	7.11
404.514	6.96
404.878	7.12
405.241	6.94
405.604	7.02
405.968	7.09
406.331	7.04
406.694	7.14
407.057	7.08
407.42	7.31
407.783	7.08
408.146	6.98
408.509	6.99
408.872	7.3
409.235	7.03
409.598	7.3
409.961	7.28
410.323	6.95
410.686	7.04
411.049	7.04
411.411	7.08
411.774	7.05
412.136	7.07
412.499	7.22
412.861	7.21
413.223	7.3
413.586	7.08
413.948	7.4
414.31	7.43
414.672	6.98
415.035	7.14
415.397	7.43
415.759	7.41
416.121	7.16
416.483	7.43
416.845	7.21
417.206	7.34
417.568	7.22
417.93	7.28
418.292	6.75
418.653	7.24
419.015	7
419.377	7.22
419.738	7.01
420.1	7.18
420.461	7.07
420.822	7.08
421.184	7.03
421.545	7.16
421.906	7
422.267	6.85
422.629	7.12
422.99	6.91
423.351	7.01
423.712	6.97
424.073	7.02
424.434	7.03
424.795	6.94
425.155	7.02
425.516	6.9
425.877	6.95
426.238	6.94
426.598	7.02
426.959	6.9
427.32	7
427.68	7.1
428.041	7.12
428.401	7.14
428.761	7.07
429.122	7.22
429.482	7.18
429.842	7.23
430.202	7.18
430.563	7.25
430.923	7.21
431.283	7.22
431.643	7.37
432.003	7.3
432.363	7.24
432.722	7.43
433.082	7.42
433.442	7.26
433.802	7.44
434.161	7.1
434.521	7.34
434.881	7.19
435.24	7.13
435.6	7.17
435.959	7.2
436.319	7.27
436.678	7.31
437.037	7.14
437.396	7.33
437.756	7.28
438.115	7.19
438.474	7.3
438.833	7.45
439.192	7.05
439.551	7.18
439.91	7.31
440.269	7.21
440.628	7.31
440.987	7.13
441.345	7.24
441.704	7.3
442.063	7.25
442.421	7.12
442.78	7.11
443.138	7.25
443.497	7.2
443.855	7.23
444.214	7.13
444.572	7.2
444.93	7.17
445.288	7.3
445.647	7.33
446.005	7.27
446.363	7.15
446.721	7.21
447.079	7.43
447.437	7.03
447.795	7.09
448.153	7.11
448.51	7.13
448.868	7.16
449.226	7.08
449.584	7.14
449.941	7.07
450.299	7.25
450.656	7.15
451.014	7.19
451.371	7.3
451.729	7.1
452.086	7.16
452.443	7.21
452.801	7.21
453.158	7.43
453.515	7.3
453.872	7.27
454.229	7.33
454.586	7.35
454.943	7.19
455.3	7.16
455.657	7.28
456.014	7.07
456.371	7.27
456.727	7.4
457.084	7.35
457.441	7.28
457.797	7.32
458.154	7.12
458.51	7.36
458.867	7.29
459.223	7.5
459.58	7.29
459.936	7.25
460.292	7.17
460.648	7.18
461.005	7.1
461.361	7.32
461.717	7.06
462.073	7.11
462.429	7.15
462.785	7.15
463.141	7.34
463.496	7.28
463.852	7.36
464.208	7.29
464.564	7.26
464.919	7.25
465.275	7.51
465.631	7.6
465.986	7.44
466.342	7.49
466.697	7.28
467.052	7.22
467.408	7.28
467.763	7.49
468.118	7.42
468.473	7.44
468.829	7.21
469.184	7.3
469.539	7.32
469.894	7.36
470.249	7.23
470.603	7.25
470.958	7.21
471.313	7.44
471.668	7.49
472.023	7.35
472.377	7.45
472.732	7.31
473.086	7.46
473.441	7.31
473.795	7.51
474.15	7.31
474.504	7.29
474.859	7.23
475.213	7.3
475.567	7.47
475.921	7.37
476.275	7.46
476.63	7.53
476.984	7.57
477.338	7.36
477.692	7.33
478.045	7.43
478.399	7.29
478.753	7.3
479.107	7.29
479.461	7.49
479.814	7.52
480.168	7.33
480.521	7.18
480.875	7.34
481.228	7.31
481.582	7.35
481.935	7.26
482.289	7.34
482.642	7.32
482.995	7.14
483.348	7.35
483.701	7.18
484.055	7.16
484.408	7.22
484.761	7.06
485.114	7.04
485.466	6.95
485.819	6.82
486.172	6.73
486.525	6.75
486.878	6.78
487.23	6.9
487.583	6.91
487.936	7.02
488.288	7.06
488.641	7.09
488.993	7.03
489.345	6.94
489.698	6.91
490.05	6.88
490.402	6.86
490.754	6.94
491.107	6.9
491.459	7.07
491.811	7.07
492.163	7.02
492.515	7.1
492.866	7.16
493.218	6.99
493.57	6.97
493.922	6.94
494.274	6.95
494.625	6.99
494.977	6.96
495.328	7.1
495.68	7.19
496.031	7.11
496.383	7.22
496.734	7.22
497.086	7.23
497.437	7.22
497.788	7.27
498.139	7.38
498.49	7.16
498.842	7.16
499.193	7.27
499.544	7.26
499.894	7.21
500.245	7.06
500.596	7.17
500.947	7.14
501.298	7.3
501.648	7.13
501.999	7.23
502.35	7.21
502.7	7.27
503.051	7.32
503.401	7.39
503.752	7.29
504.102	7.17
504.452	7.2
504.803	7.22
505.153	7.33
505.503	7.23
505.853	7.23
506.203	7.18
506.553	7.3
506.903	7.29
507.253	7.12
507.603	7.31
507.953	7.39
508.303	7.23
508.652	7.36
509.002	7.2
509.352	7.18
509.701	7.24
510.051	7.16
510.4	7.24
510.75	7.11
511.099	7.19
511.449	7.22
511.798	7.26
512.147	7.12
512.496	7.26
512.846	7.23
513.195	7.19
513.544	7.13
513.893	7.09
514.242	7.17
514.591	7.21
514.939	7.17
515.288	7.11
515.637	7.18
515.986	7.18
516.334	7.18
516.683	7.15
517.032	7.18
517.38	7.16
517.729	7.13
518.077	7.19
518.426	7.26
518.774	7.12
519.122	7.1
519.47	7.06
519.819	7.07
520.167	7.03
520.515	7.04
520.863	7.06
521.211	6.98
521.559	7.09
521.907	7.07
522.255	6.97
522.602	7.2
522.95	7.09
523.298	7.12
523.645	7.12
523.993	7.21
524.341	7.18
524.688	7.14
525.036	7.25
525.383	7.17
525.73	7.24
526.078	7.18
526.425	7.23
526.772	7.1
527.119	7.08
527.466	7.05
527.814	7.11
528.161	6.94
528.508	6.93
528.854	6.88
529.201	6.94
529.548	7.01
529.895	6.98
530.242	6.8
530.588	6.71
530.935	6.7
531.282	6.75
531.628	6.73
531.975	6.75
532.321	6.8
532.667	6.91
533.014	7
533.36	6.94
533.706	7.04
534.052	6.99
534.399	6.85
534.745	6.81
535.091	6.81
535.437	6.79
535.783	6.82
536.129	6.84
536.474	6.92
536.82	6.86
537.166	6.88
537.512	7.04
537.857	7.01
538.203	6.96
538.549	7.02
538.894	6.85
539.239	6.93
539.585	6.86
539.93	6.98
540.276	7.05
540.621	7.02
540.966	7.07
541.311	6.94
541.656	7.08
542.001	7.21
542.346	6.99
542.691	6.89
543.036	6.85
543.381	6.73
543.726	6.68
544.071	6.71
544.415	6.74
544.76	6.78
545.105	6.88
545.449	6.91
545.794	6.83
546.138	6.82
546.483	6.83
546.827	6.93
547.171	6.95
547.516	7.03
547.86	7
548.204	6.86
548.548	6.9
548.892	6.87
549.236	6.92
549.58	6.99
549.924	6.98
550.268	6.86
550.612	6.94
550.956	7.16
551.3	7
551.643	7.08
551.987	7.15
552.33	7.04
552.674	6.99
553.017	7
553.361	7.17
553.704	7.11
554.048	7.08
554.391	7
554.734	7.08
555.077	7.04
555.42	6.75
555.764	6.88
556.107	7.11
556.45	6.91
556.793	6.82
557.135	6.88
557.478	6.98
557.821	7.01
558.164	7.08
558.507	7.23
558.849	7.09
559.192	6.98
559.534	7.19
559.877	6.9
560.219	7.01
560.562	7.14
560.904	6.78
561.246	6.94
561.589	6.9
561.931	7.07
562.273	7.02
562.615	7.23
562.957	6.88
563.299	7.14
563.641	7.03
563.983	6.8
564.325	6.95
564.667	6.93
565.008	6.95
565.35	7.13
565.692	6.85
566.033	6.87
566.375	6.82
566.716	7.19
567.058	6.88
567.399	6.94
567.741	7.04
568.082	6.99
568.423	6.86
568.764	6.71
569.105	6.97
569.447	6.74
569.788	6.84
570.129	6.89
570.47	6.92
570.811	7.08
571.151	6.85
571.492	6.93
571.833	6.98
572.174	6.87
572.514	6.96
572.855	6.93
573.195	6.97
573.536	6.74
573.876	6.98
574.217	6.73
574.557	6.83
574.898	6.75
575.238	6.78
575.578	6.85
575.918	6.78
576.258	6.89
576.598	6.88
576.938	6.78
577.278	6.83
577.618	6.77
577.958	6.73
578.298	6.82
578.638	6.86
578.977	6.85
579.317	6.7
579.657	6.82
579.996	6.96
580.336	7.11
580.675	6.87
581.014	6.77
581.354	6.8
581.693	6.64
582.032	6.91
582.372	6.79
582.711	6.91
583.05	7.14
583.389	6.71
583.728	6.6
584.067	6.88
584.406	6.91
584.745	6.85
585.083	6.86
585.422	6.74
585.761	6.79
586.1	6.93
586.438	6.5
586.777	6.74
587.115	7.13
587.454	6.75
587.792	6.93
588.13	6.85
588.469	6.84
588.807	6.45
589.145	6.82
589.483	6.68
589.821	6.79
590.159	6.85
590.497	6.92
590.835	6.94
591.173	6.67
591.511	6.91
591.849	6.77
592.187	6.75
592.524	6.76
592.862	6.78
593.2	6.92
593.537	6.59
593.875	6.71
594.212	6.83
594.55	6.71
594.887	7.02
595.224	6.3
595.561	6.53
595.899	6.63
596.236	6.89
596.573	6.95
596.91	6.82
597.247	6.71
597.584	6.43
597.921	6.84
598.258	6.71
598.594	6.7
598.931	6.61
599.268	6.47
599.604	6.57
599.941	6.42
600.277	6.61
600.614	6.74
600.95	6.53
601.287	6.52
601.623	6.84
601.959	6.48
602.296	6.8
602.632	6.8
602.968	6.65
603.304	6.97
603.64	6.67
603.976	6.51
604.312	6.85
604.648	6.72
604.984	6.94
605.319	6.72
605.655	6.56
605.991	6.82
606.326	6.62
606.662	6.52
606.998	6.61
607.333	6.58
607.668	6.35
608.004	6.56
608.339	6.4
608.674	6.85
609.01	6.53
609.345	6.89
609.68	6.73
610.015	6.54
610.35	6.76
610.685	6.73
611.02	6.63
611.355	6.36
611.689	6.52
612.024	6.67
612.359	6.73
612.694	6.53
613.028	6.64
613.363	6.66
613.697	6.59
614.032	6.45
614.366	6.47
614.7	6.67
615.035	6.8
615.369	6.71
615.703	6.36
616.037	6.93
616.371	6.95
616.705	6.72
617.039	6.46
617.373	6.73
617.707	7.07
618.041	6.6
618.375	6.52
618.709	6.33
619.042	6.83
619.376	7.08
619.71	6.77
620.043	7.15
620.377	6.47
620.71	6.52
621.043	6.79
621.377	6.53
621.71	6.57
622.043	6.6
622.376	6.78
622.709	7.02
623.043	6.98
623.376	6.65
623.709	6.26
624.041	6.85
624.374	6.65
624.707	6.55
625.04	6.79
625.373	6.6
625.705	6.37
626.038	6.78
626.37	6.27
626.703	6.83
627.035	6.37
627.368	6.33
627.7	6.79
628.032	6.63
628.365	6.77
628.697	6.53
629.029	6.55
629.361	6.47
629.693	6.73
630.025	6.65
630.357	6.42
630.689	6.44
631.021	6.81
631.353	6.47
631.684	6.45
632.016	6.55
632.348	6.48
632.679	6.35
633.011	6.71
633.342	6.3
633.674	6.37
634.005	6.55
634.336	6.95
634.668	6.34
634.999	6.51
635.33	6.24
635.661	6.89
635.992	6.87
636.323	6.59
636.654	6.71
636.985	6.31
637.316	6.4
637.647	6.49
637.977	6.18
638.308	6.61
638.639	6.38
638.969	6.52
639.3	6.43
639.63	6.46
639.961	6.63
640.291	6.61
640.622	6.56
640.952	6.41
641.282	6.46
641.612	6.6
641.943	6.5
642.273	6.23
642.603	6.9
642.933	6.55
643.263	6.8
643.592	6.44
643.922	7.23
644.252	6.45
644.582	6.43
644.911	6.68
645.241	7.19
645.571	6.77
645.9	6.4
646.23	6.6
646.559	6.48
646.888	6.92
647.218	6.82
647.547	6.81
647.876	6.46
648.205	6.87
648.534	6.67
648.863	6.9
649.192	6.2
649.521	6.75
649.85	6.82
650.179	6.78
650.508	6.45
650.837	6.43
651.165	6.82
651.494	6.01
651.822	6.37
652.151	6.93
652.479	6.56
652.808	6.55
653.136	5.92
653.465	7.1
653.793	7.04
654.121	7.23
654.449	6.34
654.777	6.65
655.105	6.51
655.433	6.85
655.761	6.98
656.089	6.35
656.417	7.14
656.745	6.74
657.073	6.83
657.4	7.48
657.728	6.53
658.056	6.54
658.383	6.52
658.711	6.31
659.038	6.95
659.365	6.58
659.693	6.83
660.02	6.39
660.347	6.57
660.674	6.83
661.001	6.26
661.329	6.92
661.656	6.88
661.982	6.43
662.309	6.49
662.636	6.7
662.963	6.63
663.29	6.66
663.616	6.53
663.943	6.44
664.27	6.73
664.596	6.97
664.923	6.46
665.249	6.64
665.576	6.91
665.902	6.76
666.228	7.41
666.554	6.83
666.881	5.92
667.207	6.49
667.533	6.48
667.859	6.8
668.185	7.6
668.511	7.09
668.837	7.07
669.162	6.7
669.488	6.59
669.814	6.73
670.139	6.7
670.465	6.64
670.791	7.01
671.116	6.66
671.442	6.78
671.767	6.5
672.092	6.91
672.418	6.65
672.743	6.39
673.068	6.99
673.393	6.68
673.718	6.96
674.043	6.39
674.368	6.49
674.693	7.04
675.018	6.66
675.343	6.37
675.667	6.92
675.992	7
676.317	7.13
676.641	7.19
676.966	6.98
677.29	7
677.615	6.72
677.939	6.5
678.264	6.75
678.588	6.25
678.912	7.46
679.236	6.94
679.56	6.89
679.885	6.77
680.209	6.82
680.532	6.26
680.856	6.23
681.18	6.54
681.504	7.05
681.828	6.65
682.152	6.8
682.475	6.54
682.799	6.86
683.122	7
683.446	6.66
683.769	6.58
684.093	6.86
684.416	7.09
684.739	6.45
685.062	6.11
685.386	6.98
685.709	6.35
686.032	6.64
686.355	7.14
686.678	6.39
687.001	7.4
687.324	7
687.646	6.61
687.969	7.07
688.292	6.97
688.614	6.64
688.937	6.27
689.26	6.73
689.582	6.91
689.904	6.21
690.227	7.23
690.549	6.36
690.871	7.13
691.194	7.44
691.516	6.93
691.838	7.65
692.16	6.85
692.482	6.46
692.804	6.79
693.126	5.97
693.448	8.14
693.769	6.54
694.091	6.71
694.413	6.4
694.735	6.42
695.056	6.99
695.378	7.91
695.699	7.95
696.021	7.11
696.342	7.23
696.663	6.86
696.984	6.52
697.306	7.81
697.627	7.77
697.948	7.62
698.269	7.01
698.59	6.45
698.911	7.06
699.232	7.04
699.553	6.66
699.873	7.07
700.194	7.03
700.515	6.75
700.835	7.17
701.156	6.87
701.477	6.81
701.797	6.63
702.117	6.3
702.438	6.99
702.758	7.15
703.078	6.62
703.398	6.76
703.719	7.14
704.039	6.8
704.359	6.6
704.679	7.41
704.999	6.09
705.319	7.31
705.638	7.04
705.958	7.07
706.278	6.23
706.597	7.66
706.917	7.45
707.237	8.27
707.556	6.68
707.876	7.11
708.195	7.65
708.514	6.91
708.834	7.83
709.153	7.15
709.472	7.08
709.791	8.3
710.11	8.23
710.429	7.5
710.748	6.75
711.067	6.14
711.386	7.26
711.705	7.89
712.023	8.07
712.342	7.4
712.661	7.65
712.979	6.22
713.298	7.39
713.616	6.23
713.935	7.28
714.253	7.71
714.572	7.04
714.89	8
715.208	6.7
715.526	7.85
715.844	7.36
716.162	6.77
716.48	7.76
716.798	6.54
717.116	7.38
717.434	7.43
717.752	7.79
718.069	6.6
718.387	6.68
718.705	7.79
719.022	8.49
719.34	7.33
719.657	7.07
719.975	7.97
720.292	6.43
720.609	7.86
720.927	7.54
721.244	7.17
721.561	8.23
721.878	6.61
722.195	6.58
722.512	8.06
722.829	8.08
723.146	7.35
723.463	8.73
723.779	8.33
724.096	7.4
724.413	6.87
724.729	7.93
725.046	8.59
725.362	8.06
725.679	6.98
725.995	8.29
726.311	9.61
726.628	7.6
726.944	7.01
727.26	6.59
727.576	7.7
727.892	8.1
728.208	7.48
728.524	7.35
728.84	7.41
729.156	9.19
729.472	8.08
729.787	7.55
730.103	8.09
730.419	6.85
730.734	7.12
731.05	6.49
731.365	5.91
731.681	8.03
731.996	9.2
732.311	9.21
732.626	7.47
732.942	6.3
733.257	7.59
733.572	7.77
733.887	8.01
734.202	7.92
734.517	8.41
734.832	7.48
735.146	9.47
735.461	8.28
735.776	6.36
736.091	7.67
736.405	6.55
736.72	7.88
737.034	8.46
737.349	8.73
737.663	6.38
737.977	9.13
738.292	6.11
738.606	7.19
738.92	8.02
739.234	6.31
739.548	6.65
739.862	7.34
740.176	7.53
740.49	7.57
740.804	10.13
741.117	8.38
741.431	8.38
741.745	7.04
742.058	7.37
742.372	8.38
742.685	7.15
742.999	6.11
743.312	7.56
743.626	8.36
743.939	9.92
744.252	7.1
744.565	7.68
744.878	7.09
745.191	9.47
745.505	7.75
745.817	10.27
746.13	9.85
746.443	10.05
746.756	8.51
747.069	7.63
747.381	10.81
747.694	9.03
748.007	8.35
748.319	9.14
748.632	6.97
748.944	9.3
749.256	10.25
749.569	7.77
749.881	10.47
750.193	7.71
750.505	6.59
750.817	8.19
751.129	6.99
751.441	8.59
751.753	7.78
752.065	10.73
752.377	8.85
752.689	9.2
753	7.77
753.312	5.58
753.624	5.52
753.935	8.96
754.247	8.4
754.558	9.97
754.869	11.1
755.181	8.45
755.492	8.24
755.803	8.14
756.114	7.84
756.425	10.51
756.736	10.36
757.047	6.98
757.358	9.18
757.669	8.3
757.98	7.03
758.291	9.22
758.601	8.57
758.912	10.32
759.223	6.44
759.533	9.27
759.844	11.33
760.154	8.5
760.464	10.07
760.775	6.55
761.085	6.36
761.395	9.44
761.705	8.64
762.016	8.84
762.326	10.7
762.636	9.35
762.945	7.65
763.255	8.69
763.565	8.75
763.875	9.19
764.185	7.39
764.494	9.3
764.804	9.93
765.113	8.52
765.423	7.38
765.732	8.32
766.042	8.65
766.351	8.84
766.66	8.24
766.97	7.44
767.279	7.73
767.588	7.03
767.897	8.11
768.206	8.12
768.515	8.02
768.824	8.49
769.133	7.64
769.441	7.3
769.75	8.38
770.059	8.35
770.367	9.46
770.676	13.08
770.984	7.97
771.293	9.39
771.601	11.42
771.91	9.13
772.218	10.14
772.526	9.68
772.834	10.43
773.142	8.83
773.45	8.96
773.758	6.09
774.066	7.75
774.374	7.73
774.682	9.91
774.99	7.6
775.298	7.07
775.605	7.36
775.913	7.85
776.22	9.39
776.528	9.57
776.835	8.6
777.143	7.55
777.45	11.03
777.757	9.28
778.065	10.01
778.372	14.3
778.679	13.16
778.986	9.37
779.293	11.28
779.6	9.13
779.907	8.39
780.214	10.56
780.52	10.79
780.827	8.03
781.134	8.45
781.44	9.53
781.747	10.16
782.053	11.87
782.36	5.84
782.666	5.71
782.973	11.49
783.279	8.12
783.585	11.18
783.891	8.36
784.197	10.48
784.503	13.11
784.809	7.24
785.115	8.22
785.421	12.05
785.727	10.58
786.033	12.37
786.339	12.07
786.644	6.94
786.95	16.27
787.255	10.75
787.561	8.93
787.866	10.56
788.172	13.54
788.477	8.67
788.782	12.28
789.088	10.01
789.393	7.15
789.698	10.07
790.003	7.87
790.308	12.92
790.613	7.75
790.918	12.4
791.223	9.55
791.527	7.33
791.832	15.58
792.137	14.8
792.441	9.55
792.746	11.54
793.05	10.89
793.355	9.5
793.659	8.38
793.963	11.74
794.268	9.33
794.572	12.06
794.876	10.2
795.18	6.44
795.484	9.46
795.788	8.6
796.092	8.32
796.396	12.7
796.7	9.04
797.004	13.66
797.307	12.97
797.611	12.41
797.915	7.11
798.218	7.49
798.522	8.12
798.825	14.44
799.128	12.76
799.432	11.26
799.735	11.37
800.038	7.72
800.341	6.82
800.644	15.67
800.947	9.64
801.25	8.21
801.553	11.07
801.856	12.33
802.159	9.13
802.462	11.1
802.764	8.99
803.067	12.72
803.37	10.96
803.672	12.31
803.975	10.66
804.277	5.6
804.579	4.64
804.882	11.13
805.184	12.39
805.486	13.5
805.788	14.92
806.09	10.68
806.392	14.93
806.694	14.04
806.996	13.35
807.298	13.93
807.6	11.9
807.902	12.65
808.203	15.51
808.505	18.47
808.807	6.22
809.108	5.86
809.409	10.23
809.711	4.29
810.012	8.29
810.313	9.49
810.615	3.61
810.916	16.59
811.217	10.91
811.518	7.15
811.819	14.25
812.12	17.28
812.421	6.98
812.722	11.67
813.023	11.68
813.323	4.37
813.624	9.22
813.925	10.13
814.225	9.72
814.526	15.04
814.826	12.9
815.126	15.72
815.427	9.62
815.727	17.4
816.027	12.23
816.327	16.43
816.627	17.51
816.927	10.51
817.227	15.07
817.527	8.56
817.827	12.5
818.127	12.58
818.427	10.54
818.727	12.03
819.026	2.67
819.326	13.36
819.625	9.85
819.925	17.48
820.224	19.57
820.524	18.93
820.823	11.01
821.122	6.62
821.421	9.97
821.72	16.05
822.019	8.62
822.318	13.25
822.617	7.63
822.916	10.38
823.215	10.42
823.514	10.06
823.813	9.03
824.111	11.08
824.41	10.92
824.709	10.78
825.007	9.89
825.306	10.45
825.604	9.49
825.902	9.54
826.201	9.48
826.499	9.03
826.797	9.49
827.095	10.25
827.393	9.12
827.691	11.13
827.989	9.58
828.287	9.93
828.585	9.84
828.882	9.75
829.18	10.86
829.478	9.74
829.775	11.19
830.073	10.01
830.37	10.58
830.668	10.27
830.965	10.69
831.263	9.58
831.56	12.29
831.857	8.56
832.154	10.35
832.451	12.67
832.748	9.9
833.045	6.55
833.342	14.61
833.639	14.78
833.936	13.36
834.232	11.59
834.529	12.62
834.826	5.05
835.122	12.87
835.419	21.24
835.715	12.69
836.012	13.08
836.308	6.65
836.604	17.05
836.901	14.8
837.197	15.05
837.493	14.59
837.789	10.61
838.085	10.58
838.381	16.32
838.677	10.92
838.972	15.45
839.268	8.6
839.564	10.96
839.86	7.46
840.155	14.43
840.451	20.21
840.746	16.86
841.042	7.44
841.337	9.06
841.632	17.2
841.928	11.65
842.223	16.96
842.518	3.72
842.813	19.53
843.108	7.98
843.403	9.31
843.698	20.9
843.993	19.39
844.287	11.13
844.582	13.62
844.877	22.3
845.171	12.8
845.466	3.16
845.761	14.52
846.055	21.74
846.349	20.26
846.644	19.92
846.938	28.38
847.232	14.57
847.526	18.3
847.82	1.97
848.114	28.87
848.408	24.07
848.702	17.17
848.996	27.8
849.29	20.82
849.584	26.57
849.877	24.87
850.171	18.11
850.465	-2.65
850.758	2.22
851.052	19.28
851.345	34.39
851.638	19.11
851.932	18.78
852.225	27.77
852.518	27.46
852.811	38.11
853.104	29.83
853.397	6.53
853.69	22.16
853.983	23.51
854.276	25.52
854.569	29.49
854.861	10.85
855.154	29.79
855.447	25.82
855.739	28.09
856.032	2.73
856.324	18.66
856.616	16.65
856.909	33.72
857.201	25.94
857.493	15.59
857.785	33.18
858.077	26.62
858.369	34.19
858.661	20.14
858.953	9.6
859.245	10.05
859.537	18.89
859.829	31.48
860.12	33.84
860.412	49.35
860.703	29.57
860.995	30.39
861.286	24
861.578	30.33
861.869	17.86
862.16	30.69
862.452	29.33
862.743	19.84
863.034	18.52
863.325	21.24
863.616	-5.19
863.907	17.84
864.198	20.23
864.488	31.73
864.779	29.31
865.07	25.63
865.36	14.03
865.651	37.02
865.941	40.26
866.232	44.89
866.522	40.34
866.813	10.01
867.103	3.6
867.393	53.8
867.683	30.89
867.973	49.13
868.263	23.26
868.553	29.85
868.843	17.68
869.133	27.51
869.423	37.46
869.713	48.54
870.002	28.41
870.292	23.92
870.582	51.96
870.871	10.17
871.161	30.31
871.45	24.62
871.739	10.71
872.029	17.06
872.318	36.91
872.607	41.82
872.896	38.04
873.185	29.43
873.474	33.09
873.763	25.54
874.052	29.25
874.341	21.9
874.63	26.73
874.918	-15.92
875.207	24.19
875.496	34.58
875.784	40.43
876.073	14.87
876.361	45.62
876.649	33.19
876.938	21.55
877.226	16.43
877.514	18.4
877.802	21.11
878.09	9.67
878.378	39.83
878.666	43.58
878.954	23.59
879.242	30.38
879.53	32.62
879.817	30.19
880.105	-15.66
880.392	30.72
880.68	22
880.967	9.95
881.255	37.81
881.542	52.47
881.83	7.97
882.117	25.05
882.404	10.74
882.691	15.23
882.978	13.46
883.265	-8.28
883.552	19.53
883.839	13.29
884.126	7.82
884.413	39.69
884.699	24.44
884.986	19.15
885.273	19.81
885.559	19.81
885.846	19.81
