Data from 0011_chest_Reflection__3__335.txt Node

Date: Thu Dec 15 19:17:02 CST 2022
User: ToomeyLab
Spectrometer: FLMS14357
Trigger mode: 0
Integration Time (sec): 1.000000E-2
Scans to average: 100
Electric dark correction enabled: true
Nonlinearity correction enabled: false
Boxcar width: 0
XAxis mode: Wavelengths
Number of Pixels in Spectrum: 2048
>>>>>Begin Spectral Data<<<<<
189.047	-9.8
189.435	-9.8
189.823	-9.8
190.211	68.43
190.599	50.32
190.987	-36.7
191.375	-9.12
191.763	34.27
192.151	107.18
192.538	228.14
192.926	-12.98
193.314	107.86
193.702	126.6
194.089	-71.68
194.477	251.88
194.864	111.02
195.252	16.04
195.639	455.85
196.027	370.91
196.414	136.86
196.801	95.09
197.189	56.81
197.576	-92.04
197.963	258.49
198.351	35.73
198.738	-66.7
199.125	-57.01
199.512	25.16
199.899	-67.02
200.286	-66.22
200.673	-22.65
201.06	-34.32
201.447	-44.68
201.833	19.97
202.22	-11.98
202.607	-13.99
202.994	-10.59
203.38	-3.27
203.767	5.94
204.154	19.5
204.54	23.52
204.927	-33.6
205.313	24.98
205.699	49.25
206.086	28.92
206.472	-4.48
206.858	-40.42
207.245	41.55
207.631	-21.75
208.017	20.21
208.403	-54.75
208.789	-23.64
209.175	-15.41
209.561	-94.12
209.947	-32.82
210.333	-14.34
210.719	-8.03
211.105	17.79
211.491	2.85
211.876	-33.27
212.262	1.13
212.648	-20.71
213.034	-15.35
213.419	10.62
213.805	-10.23
214.19	-120.12
214.576	12.05
214.961	-4.89
215.346	-25.63
215.732	2.89
216.117	16.71
216.502	5.54
216.888	-18.23
217.273	20.83
217.658	-38.51
218.043	-77.82
218.428	-16.94
218.813	24.69
219.198	-53.2
219.583	-22.41
219.968	-26.55
220.353	-33.43
220.738	13.15
221.122	-1.14
221.507	-21.26
221.892	-21.05
222.276	-23.1
222.661	-11.84
223.046	-24.21
223.43	22.01
223.815	12.94
224.199	1.43
224.583	-5.72
224.968	-2.22
225.352	-16.02
225.736	-2.8
226.121	-6.65
226.505	0.69
226.889	4.53
227.273	-3.38
227.657	1.2
228.041	6.41
228.425	1.85
228.809	1.96
229.193	5.92
229.577	7.86
229.961	6.05
230.344	7.91
230.728	7.83
231.112	8.22
231.495	5.66
231.879	7.01
232.263	6.73
232.646	6.29
233.03	9.47
233.413	6.06
233.797	5.34
234.18	9.3
234.563	6.33
234.946	5.63
235.33	6.26
235.713	6.41
236.096	7.19
236.479	5.86
236.862	6.61
237.245	6.17
237.628	7.81
238.011	6.12
238.394	6.47
238.777	6.17
239.16	4.92
239.543	7.03
239.925	5.68
240.308	3.93
240.691	6.07
241.073	6.22
241.456	7.05
241.838	7.68
242.221	7
242.603	7.18
242.986	6.81
243.368	6.9
243.75	7.1
244.133	6.81
244.515	6.91
244.897	6.78
245.279	5.66
245.661	6.43
246.043	6.12
246.425	6.25
246.807	5.95
247.189	6.37
247.571	6.27
247.953	6.37
248.335	6.66
248.717	6.42
249.098	6.33
249.48	6.28
249.862	6.22
250.243	6.62
250.625	6.38
251.006	6.68
251.388	5.66
251.769	5.08
252.151	6.26
252.532	5.05
252.913	5.97
253.295	5.76
253.676	6.1
254.057	5.84
254.438	6.52
254.819	6.38
255.2	6.72
255.581	6.47
255.962	6.84
256.343	6.33
256.724	7.12
257.105	5.39
257.486	4.89
257.867	6.18
258.247	4.99
258.628	5.77
259.009	5.8
259.389	4.78
259.77	6.01
260.15	6.44
260.531	5.75
260.911	5.76
261.292	5.57
261.672	5.79
262.052	5.62
262.432	5.62
262.813	5.75
263.193	5.67
263.573	5.61
263.953	5.1
264.333	5.6
264.713	5.83
265.093	5.89
265.473	5.11
265.853	5.52
266.233	5.83
266.612	5.26
266.992	5.44
267.372	5.4
267.752	5.76
268.131	5.12
268.511	5.29
268.89	6.31
269.27	5.23
269.649	5.58
270.029	5.33
270.408	5.09
270.787	5.57
271.167	6
271.546	6.19
271.925	5.46
272.304	5.35
272.683	5.14
273.062	5.57
273.441	5.27
273.82	4.88
274.199	5.45
274.578	5.39
274.957	5.66
275.336	5.64
275.715	5.38
276.093	4.83
276.472	4.83
276.851	5.4
277.229	5.34
277.608	4.8
277.986	5.55
278.365	6.24
278.743	5.75
279.122	5.25
279.5	5.5
279.878	4.66
280.257	5.23
280.635	5.7
281.013	5.26
281.391	5.02
281.769	5.64
282.147	5.16
282.525	5.2
282.903	4.75
283.281	5.51
283.659	5.76
284.037	5.2
284.415	5.25
284.792	5.18
285.17	5.19
285.548	4.75
285.925	4.81
286.303	5.6
286.68	5.26
287.058	5.45
287.435	5.13
287.813	5.39
288.19	4.95
288.567	4.89
288.945	4.82
289.322	5.01
289.699	5.2
290.076	4.81
290.453	4.88
290.83	4.83
291.207	5.1
291.584	4.96
291.961	5.53
292.338	5.04
292.715	4.99
293.092	5.58
293.469	5.26
293.845	5.28
294.222	5.64
294.599	4.5
294.975	4.29
295.352	5.14
295.728	5.01
296.105	5.02
296.481	5.11
296.858	5.16
297.234	4.78
297.61	5.26
297.986	5.03
298.363	4.91
298.739	5.42
299.115	4.97
299.491	5.34
299.867	4.66
300.243	4.79
300.619	4.59
300.995	4.8
301.371	5.11
301.746	5.61
302.122	4.57
302.498	5.03
302.874	5.02
303.249	4.85
303.625	4.49
304	5.08
304.376	4.87
304.751	4.36
305.127	4.29
305.502	5.08
305.878	5.1
306.253	4.34
306.628	5.43
307.003	4.74
307.378	4.53
307.754	4.75
308.129	4.63
308.504	4.86
308.879	4.66
309.254	5.03
309.629	4.55
310.003	4.66
310.378	5.32
310.753	4.94
311.128	4.74
311.502	4.82
311.877	4.68
312.252	4.81
312.626	5.28
313.001	5
313.375	4.68
313.75	5.48
314.124	4.79
314.498	5.27
314.873	4.5
315.247	4.54
315.621	4.59
315.995	4.93
316.369	4.44
316.743	4.39
317.117	4.68
317.491	5.09
317.865	4.3
318.239	4.97
318.613	4.05
318.987	4
319.361	4.76
319.734	5.02
320.108	4.99
320.482	5.37
320.855	5.04
321.229	4.33
321.602	4.62
321.976	4.15
322.349	4.74
322.723	5.02
323.096	4.47
323.469	4.76
323.843	4.65
324.216	5.16
324.589	4.92
324.962	4.61
325.335	4.61
325.708	5.22
326.081	4.93
326.454	5.03
326.827	4.87
327.2	4.6
327.573	5
327.945	4.61
328.318	4.74
328.691	4.69
329.063	4.7
329.436	4.71
329.809	4.8
330.181	5.55
330.553	5.65
330.926	5.12
331.298	4.04
331.671	4.87
332.043	5.05
332.415	4.98
332.787	4.74
333.159	4.57
333.532	5.34
333.904	5.37
334.276	4.84
334.648	4.8
335.02	4.58
335.391	4.55
335.763	4.79
336.135	4.66
336.507	4.75
336.879	4.78
337.25	4.69
337.622	4.7
337.993	4.83
338.365	5.2
338.736	5.16
339.108	4.96
339.479	4.85
339.851	5.66
340.222	5.09
340.593	5.03
340.964	4.75
341.336	4.62
341.707	5.16
342.078	4.66
342.449	4.93
342.82	5.22
343.191	5.13
343.562	4.95
343.933	4.77
344.303	4.9
344.674	4.85
345.045	5.05
345.416	5.33
345.786	4.87
346.157	5.14
346.527	4.66
346.898	4.61
347.268	5.03
347.639	4.92
348.009	5.24
348.38	4.76
348.75	4.9
349.12	5.21
349.49	5.38
349.861	4.96
350.231	5.18
350.601	4.91
350.971	4.84
351.341	5.12
351.711	5.13
352.081	4.94
352.45	4.64
352.82	4.71
353.19	4.49
353.56	4.85
353.929	4.96
354.299	4.9
354.669	5.03
355.038	5.37
355.408	4.93
355.777	5.2
356.147	5.2
356.516	4.64
356.885	5.05
357.254	4.75
357.624	4.53
357.993	5.1
358.362	5.23
358.731	5.13
359.1	5
359.469	5.12
359.838	5.32
360.207	4.96
360.576	5.27
360.945	5.15
361.314	5.01
361.682	4.87
362.051	5.11
362.42	5.33
362.788	5.29
363.157	4.99
363.525	5.07
363.894	4.96
364.262	4.93
364.631	5.24
364.999	5.22
365.367	4.99
365.735	4.91
366.104	5.09
366.472	5.03
366.84	5.17
367.208	5.54
367.576	5.21
367.944	5.22
368.312	5.11
368.68	5.26
369.048	5.12
369.416	5.1
369.783	5.12
370.151	5.72
370.519	5.55
370.886	5.28
371.254	5.65
371.621	5.3
371.989	5.24
372.356	5.21
372.724	5.12
373.091	5.01
373.458	4.81
373.826	5.3
374.193	5.08
374.56	5.43
374.927	5.03
375.294	5.21
375.661	5.35
376.028	4.96
376.395	4.99
376.762	5.17
377.129	4.98
377.496	5.09
377.863	5.16
378.229	5.3
378.596	5.39
378.963	5.11
379.329	5.35
379.696	4.96
380.062	5.25
380.429	5.15
380.795	5.55
381.161	5.13
381.528	4.92
381.894	5.28
382.26	5.29
382.626	5.27
382.993	5.19
383.359	5.13
383.725	4.86
384.091	5.43
384.457	5.45
384.823	5.35
385.188	5.34
385.554	5.43
385.92	5.11
386.286	5.03
386.651	5.24
387.017	5.38
387.383	5.05
387.748	5.21
388.114	5.29
388.479	5.05
388.845	5.03
389.21	5.53
389.575	5.43
389.94	5.4
390.306	5.54
390.671	5.57
391.036	5.02
391.401	5.4
391.766	5.41
392.131	5.5
392.496	5.44
392.861	5.19
393.226	5.22
393.591	5.43
393.956	5.41
394.32	5.48
394.685	5.41
395.05	5.31
395.414	5.59
395.779	5.53
396.143	5.24
396.508	5.34
396.872	5.41
397.236	5.36
397.601	5.42
397.965	5.41
398.329	5.32
398.694	5.4
399.058	5.29
399.422	5.25
399.786	4.93
400.15	5.07
400.514	5.52
400.878	5.44
401.242	5.55
401.605	5.4
401.969	5.49
402.333	5.23
402.697	5.54
403.06	5.47
403.424	5.51
403.787	5.33
404.151	5.62
404.514	5.58
404.878	5.24
405.241	5.32
405.604	5.43
405.968	5.27
406.331	5.44
406.694	5.62
407.057	5.41
407.42	5.49
407.783	5.37
408.146	5.29
408.509	5.48
408.872	5.44
409.235	5.53
409.598	5.46
409.961	5.59
410.323	5.24
410.686	5.35
411.049	5.52
411.411	5.17
411.774	5.26
412.136	5.24
412.499	5.5
412.861	5.23
413.223	5.26
413.586	5.38
413.948	5.44
414.31	5.44
414.672	5.26
415.035	5.29
415.397	5.34
415.759	5.2
416.121	5.49
416.483	5.46
416.845	5.54
417.206	5.55
417.568	5.48
417.93	5.43
418.292	5.39
418.653	5.19
419.015	5.33
419.377	5.47
419.738	5.41
420.1	5.4
420.461	5.2
420.822	5.46
421.184	5.43
421.545	5.31
421.906	5.47
422.267	5.27
422.629	5.18
422.99	5.32
423.351	5.25
423.712	5.37
424.073	5.43
424.434	5.57
424.795	5.35
425.155	5.39
425.516	5.33
425.877	5.35
426.238	5.4
426.598	5.46
426.959	5.46
427.32	5.29
427.68	5.46
428.041	5.59
428.401	5.39
428.761	5.39
429.122	5.55
429.482	5.3
429.842	5.39
430.202	5.51
430.563	5.42
430.923	5.51
431.283	5.52
431.643	5.48
432.003	5.58
432.363	5.6
432.722	5.58
433.082	5.3
433.442	5.66
433.802	5.45
434.161	5.32
434.521	5.37
434.881	5.57
435.24	5.48
435.6	5.51
435.959	5.56
436.319	5.54
436.678	5.56
437.037	5.36
437.396	5.59
437.756	5.35
438.115	5.45
438.474	5.59
438.833	5.58
439.192	5.36
439.551	5.25
439.91	5.32
440.269	5.39
440.628	5.38
440.987	5.47
441.345	5.36
441.704	5.47
442.063	5.38
442.421	5.42
442.78	5.48
443.138	5.5
443.497	5.47
443.855	5.55
444.214	5.38
444.572	5.42
444.93	5.5
445.288	5.53
445.647	5.4
446.005	5.48
446.363	5.5
446.721	5.54
447.079	5.47
447.437	5.52
447.795	5.49
448.153	5.44
448.51	5.45
448.868	5.31
449.226	5.44
449.584	5.5
449.941	5.48
450.299	5.48
450.656	5.45
451.014	5.47
451.371	5.55
451.729	5.57
452.086	5.62
452.443	5.65
452.801	5.5
453.158	5.71
453.515	5.5
453.872	5.42
454.229	5.37
454.586	5.47
454.943	5.6
455.3	5.66
455.657	5.57
456.014	5.58
456.371	5.57
456.727	5.69
457.084	5.59
457.441	5.51
457.797	5.57
458.154	5.56
458.51	5.44
458.867	5.54
459.223	5.37
459.58	5.52
459.936	5.66
460.292	5.38
460.648	5.46
461.005	5.46
461.361	5.5
461.717	5.5
462.073	5.55
462.429	5.52
462.785	5.7
463.141	5.56
463.496	5.56
463.852	5.58
464.208	5.61
464.564	5.52
464.919	5.49
465.275	5.56
465.631	5.66
465.986	5.58
466.342	5.46
466.697	5.55
467.052	5.69
467.408	5.61
467.763	5.62
468.118	5.62
468.473	5.62
468.829	5.56
469.184	5.63
469.539	5.47
469.894	5.65
470.249	5.69
470.603	5.77
470.958	5.66
471.313	5.82
471.668	5.48
472.023	5.64
472.377	5.48
472.732	5.69
473.086	5.51
473.441	5.57
473.795	5.67
474.15	5.56
474.504	5.35
474.859	5.38
475.213	5.62
475.567	5.54
475.921	5.67
476.275	5.61
476.63	5.6
476.984	5.39
477.338	5.67
477.692	5.64
478.045	5.62
478.399	5.67
478.753	5.63
479.107	5.64
479.461	5.48
479.814	5.58
480.168	5.5
480.521	5.63
480.875	5.72
481.228	5.73
481.582	5.55
481.935	5.73
482.289	5.67
482.642	5.68
482.995	5.53
483.348	5.5
483.701	5.53
484.055	5.52
484.408	5.52
484.761	5.37
485.114	5.28
485.466	5.29
485.819	5.31
486.172	5.28
486.525	5.37
486.878	5.46
487.23	5.39
487.583	5.49
487.936	5.43
488.288	5.4
488.641	5.4
488.993	5.37
489.345	5.4
489.698	5.36
490.05	5.41
490.402	5.45
490.754	5.45
491.107	5.48
491.459	5.54
491.811	5.57
492.163	5.56
492.515	5.47
492.866	5.43
493.218	5.41
493.57	5.41
493.922	5.45
494.274	5.52
494.625	5.59
494.977	5.51
495.328	5.69
495.68	5.61
496.031	5.68
496.383	5.57
496.734	5.66
497.086	5.67
497.437	5.71
497.788	5.74
498.139	5.73
498.49	5.63
498.842	5.68
499.193	5.44
499.544	5.71
499.894	5.64
500.245	5.75
500.596	5.67
500.947	5.74
501.298	5.65
501.648	5.72
501.999	5.63
502.35	5.66
502.7	5.93
503.051	5.62
503.401	5.56
503.752	5.51
504.102	5.56
504.452	5.6
504.803	5.72
505.153	5.84
505.503	5.64
505.853	5.8
506.203	5.76
506.553	5.66
506.903	5.77
507.253	5.7
507.603	5.68
507.953	5.77
508.303	5.82
508.652	5.6
509.002	5.85
509.352	5.85
509.701	5.55
510.051	5.79
510.4	5.78
510.75	5.71
511.099	5.62
511.449	5.79
511.798	5.74
512.147	5.64
512.496	5.81
512.846	5.69
513.195	5.75
513.544	5.74
513.893	5.67
514.242	5.76
514.591	5.74
514.939	5.78
515.288	5.79
515.637	5.78
515.986	5.84
516.334	5.8
516.683	5.76
517.032	5.74
517.38	5.73
517.729	5.72
518.077	5.82
518.426	5.78
518.774	5.65
519.122	5.79
519.47	5.74
519.819	5.72
520.167	5.73
520.515	5.76
520.863	5.75
521.211	5.65
521.559	5.8
521.907	5.78
522.255	5.84
522.602	5.91
522.95	5.92
523.298	5.85
523.645	5.81
523.993	5.98
524.341	5.82
524.688	5.95
525.036	5.84
525.383	5.9
525.73	5.89
526.078	6
526.425	5.77
526.772	5.85
527.119	5.91
527.466	5.88
527.814	5.83
528.161	5.88
528.508	5.99
528.854	5.87
529.201	5.79
529.548	5.73
529.895	5.68
530.242	5.71
530.588	5.72
530.935	5.71
531.282	5.74
531.628	5.77
531.975	5.82
532.321	5.87
532.667	5.94
533.014	5.92
533.36	6.01
533.706	6.01
534.052	6
534.399	6.01
534.745	5.87
535.091	5.71
535.437	5.88
535.783	5.92
536.129	5.9
536.474	5.99
536.82	6.09
537.166	5.96
537.512	6
537.857	5.93
538.203	6.02
538.549	6.05
538.894	5.99
539.239	6.12
539.585	6.09
539.93	6.11
540.276	6.03
540.621	6.22
540.966	6.2
541.311	6.29
541.656	6.13
542.001	6.22
542.346	6.02
542.691	5.99
543.036	5.99
543.381	5.98
543.726	6.08
544.071	6.07
544.415	6.1
544.76	6.14
545.105	6.11
545.449	6.17
545.794	6.21
546.138	6.2
546.483	6.25
546.827	6.24
547.171	6.35
547.516	6.37
547.86	6.37
548.204	6.36
548.548	6.23
548.892	6.35
549.236	6.3
549.58	6.31
549.924	6.45
550.268	6.56
550.612	6.57
550.956	6.61
551.3	6.6
551.643	6.44
551.987	6.5
552.33	6.63
552.674	6.57
553.017	6.61
553.361	6.56
553.704	6.66
554.048	6.64
554.391	6.67
554.734	6.44
555.077	6.61
555.42	6.56
555.764	6.7
556.107	6.74
556.45	6.69
556.793	6.84
557.135	6.71
557.478	6.9
557.821	6.83
558.164	6.93
558.507	6.72
558.849	7.04
559.192	6.71
559.534	6.68
559.877	6.87
560.219	6.66
560.562	6.76
560.904	6.95
561.246	6.73
561.589	7.04
561.931	6.9
562.273	6.81
562.615	6.91
562.957	6.64
563.299	7.02
563.641	6.8
563.983	6.76
564.325	7.15
564.667	7.14
565.008	7.02
565.35	6.91
565.692	6.99
566.033	6.93
566.375	7.07
566.716	6.92
567.058	7.08
567.399	7.16
567.741	7.16
568.082	7.15
568.423	7.13
568.764	7.2
569.105	7.13
569.447	7.01
569.788	7.12
570.129	7.28
570.47	7.19
570.811	7.17
571.151	7.22
571.492	7.13
571.833	7.32
572.174	7.42
572.514	7.25
572.855	7.5
573.195	7.23
573.536	7.36
573.876	7.41
574.217	7.44
574.557	7.37
574.898	7.36
575.238	7.55
575.578	7.6
575.918	7.5
576.258	7.66
576.598	7.45
576.938	7.46
577.278	7.75
577.618	7.66
577.958	7.61
578.298	7.79
578.638	7.41
578.977	7.71
579.317	7.8
579.657	7.68
579.996	7.82
580.336	7.68
580.675	7.68
581.014	7.83
581.354	7.79
581.693	8.13
582.032	7.92
582.372	7.99
582.711	8.15
583.05	7.88
583.389	8.07
583.728	8.24
584.067	8.12
584.406	8.15
584.745	8
585.083	8.15
585.422	8.3
585.761	8.12
586.1	8.13
586.438	8.29
586.777	8.23
587.115	8.26
587.454	8.22
587.792	8.28
588.13	8.25
588.469	8.32
588.807	8.51
589.145	8.31
589.483	8.04
589.821	8.61
590.159	8.45
590.497	8.65
590.835	8.97
591.173	8.58
591.511	8.79
591.849	8.61
592.187	8.37
592.524	8.79
592.862	8.51
593.2	8.76
593.537	8.46
593.875	8.57
594.212	8.73
594.55	8.84
594.887	8.93
595.224	9
595.561	8.76
595.899	8.97
596.236	8.81
596.573	8.68
596.91	8.92
597.247	9.06
597.584	9.07
597.921	8.91
598.258	9.21
598.594	8.83
598.931	9.01
599.268	8.92
599.604	9.16
599.941	9.24
600.277	9.06
600.614	9.04
600.95	8.94
601.287	9.18
601.623	8.84
601.959	9.47
602.296	9.48
602.632	9.36
602.968	9.29
603.304	9.48
603.64	9.41
603.976	9.35
604.312	9.35
604.648	9.68
604.984	9.46
605.319	9.42
605.655	9.45
605.991	9.62
606.326	9.62
606.662	9.26
606.998	9.58
607.333	9.37
607.668	9.5
608.004	9.72
608.339	9.66
608.674	9.82
609.01	9.97
609.345	9.97
609.68	9.7
610.015	9.79
610.35	9.81
610.685	9.53
611.02	9.94
611.355	9.88
611.689	10
612.024	10.25
612.359	10.04
612.694	10.13
613.028	10.11
613.363	9.98
613.697	10.19
614.032	10.2
614.366	10.14
614.7	10.35
615.035	10.42
615.369	10.26
615.703	10.34
616.037	10.31
616.371	10.32
616.705	10.49
617.039	10.39
617.373	10.57
617.707	10.52
618.041	10.56
618.375	10.26
618.709	10.41
619.042	10.53
619.376	10.84
619.71	10.71
620.043	10.89
620.377	10.79
620.71	10.68
621.043	10.92
621.377	11.06
621.71	11.25
622.043	11.38
622.376	11.06
622.709	11.33
623.043	10.75
623.376	10.85
623.709	11.08
624.041	10.67
624.374	11.31
624.707	11.15
625.04	11.07
625.373	11.44
625.705	11.28
626.038	11.35
626.37	11.16
626.703	11.41
627.035	11.5
627.368	11.5
627.7	11.55
628.032	11.45
628.365	11.66
628.697	11.73
629.029	11.17
629.361	11.36
629.693	11.39
630.025	11.65
630.357	11.9
630.689	11.64
631.021	11.72
631.353	11.8
631.684	11.35
632.016	11.54
632.348	11.68
632.679	12.04
633.011	11.78
633.342	11.7
633.674	11.77
634.005	12.36
634.336	12.07
634.668	12.08
634.999	12.07
635.33	12.04
635.661	12.05
635.992	12.39
636.323	12.16
636.654	12.12
636.985	12.01
637.316	12.4
637.647	12.65
637.977	12.43
638.308	12.75
638.639	12.19
638.969	12.51
639.3	12.75
639.63	12.45
639.961	12.8
640.291	12.39
640.622	12.72
640.952	12.63
641.282	12.44
641.612	12.51
641.943	12.68
642.273	12.69
642.603	13.39
642.933	13.17
643.263	13.15
643.592	13.17
643.922	13.49
644.252	13.13
644.582	13.03
644.911	13.33
645.241	13.27
645.571	13.27
645.9	13.34
646.23	13.94
646.559	13.49
646.888	13.69
647.218	13.16
647.547	13.09
647.876	13.35
648.205	13.41
648.534	13.5
648.863	13.91
649.192	13.35
649.521	13.19
649.85	13.95
650.179	13.54
650.508	13.62
650.837	14.02
651.165	13.7
651.494	13.83
651.822	14.02
652.151	13.68
652.479	13.81
652.808	13.89
653.136	13.7
653.465	13.97
653.793	13.57
654.121	14.03
654.449	13.74
654.777	13.88
655.105	13.87
655.433	14.2
655.761	14.41
656.089	13.99
656.417	14.38
656.745	14.6
657.073	14.05
657.4	13.95
657.728	14.25
658.056	14.41
658.383	14.32
658.711	14.73
659.038	14.7
659.365	14.29
659.693	14.12
660.02	14.39
660.347	14.52
660.674	14.08
661.001	14.84
661.329	14.3
661.656	14.69
661.982	14.59
662.309	14.68
662.636	14.97
662.963	15.34
663.29	14.91
663.616	14.61
663.943	14.76
664.27	14.96
664.596	15.09
664.923	15.46
665.249	15.63
665.576	14.84
665.902	15.25
666.228	15.72
666.554	15.56
666.881	15.41
667.207	15.35
667.533	15.33
667.859	15.1
668.185	15.16
668.511	16.05
668.837	15.54
669.162	15.4
669.488	14.86
669.814	15.22
670.139	14.96
670.465	15.62
670.791	15.76
671.116	15.46
671.442	15.63
671.767	15.7
672.092	15.77
672.418	15.87
672.743	15.62
673.068	15.01
673.393	16.88
673.718	15.65
674.043	16.16
674.368	15.15
674.693	15.97
675.018	16.57
675.343	16.25
675.667	16
675.992	16.35
676.317	15.37
676.641	15.84
676.966	15.97
677.29	15.88
677.615	16.19
677.939	16.58
678.264	15.9
678.588	16.1
678.912	16.76
679.236	16.37
679.56	16.37
679.885	16.58
680.209	16.57
680.532	17.03
680.856	17.28
681.18	17.64
681.504	16.69
681.828	16.64
682.152	16.51
682.475	17
682.799	16.58
683.122	16.93
683.446	16.15
683.769	16.84
684.093	16.88
684.416	17.08
684.739	17.14
685.062	16.66
685.386	17.26
685.709	16.79
686.032	17.41
686.355	17.46
686.678	17.45
687.001	17.49
687.324	17.67
687.646	17.7
687.969	17.7
688.292	17.58
688.614	17.45
688.937	17.56
689.26	18.68
689.582	17.85
689.904	17.6
690.227	17.56
690.549	18.31
690.871	18.04
691.194	17.44
691.516	18.51
691.838	17.93
692.16	17.16
692.482	18.05
692.804	18.5
693.126	18.16
693.448	18.88
693.769	17.79
694.091	18.65
694.413	18.44
694.735	18.85
695.056	17.96
695.378	17.93
695.699	17.84
696.021	18.54
696.342	18.57
696.663	19.34
696.984	18.26
697.306	18.02
697.627	18.77
697.948	18.16
698.269	19.74
698.59	18.88
698.911	18.22
699.232	19.48
699.553	19.17
699.873	19.13
700.194	18.99
700.515	18.73
700.835	18.99
701.156	19.45
701.477	19.01
701.797	18.35
702.117	19.52
702.438	19
702.758	19.65
703.078	19.33
703.398	19.25
703.719	19.79
704.039	20
704.359	20.23
704.679	18.69
704.999	19.29
705.319	19.36
705.638	18.8
705.958	19.4
706.278	20.02
706.597	20.04
706.917	20.69
707.237	19.36
707.556	20.54
707.876	20.13
708.195	20.54
708.514	20.29
708.834	19.56
709.153	20.17
709.472	20.64
709.791	19.32
710.11	20.57
710.429	19.46
710.748	20.52
711.067	21.4
711.386	19.07
711.705	20.68
712.023	21.01
712.342	20.17
712.661	20.96
712.979	21.06
713.298	20.92
713.616	20.07
713.935	20.55
714.253	20.92
714.572	19.81
714.89	21.51
715.208	21.16
715.526	21.16
715.844	21.26
716.162	21.49
716.48	20.56
716.798	21.22
717.116	21.88
717.434	21.18
717.752	20.75
718.069	21.37
718.387	20.98
718.705	21.37
719.022	22.08
719.34	21.28
719.657	20.55
719.975	21.7
720.292	21.13
720.609	20.41
720.927	22.37
721.244	21.88
721.561	20.85
721.878	22.26
722.195	22
722.512	22.06
722.829	20.99
723.146	22.87
723.463	21.48
723.779	21.13
724.096	21.22
724.413	22.32
724.729	22.1
725.046	21.8
725.362	21.35
725.679	21.67
725.995	20.63
726.311	21.75
726.628	21.22
726.944	21.81
727.26	22.61
727.576	22.4
727.892	21.99
728.208	21.98
728.524	20.98
728.84	22.47
729.156	21.97
729.472	22.17
729.787	22.99
730.103	22.35
730.419	22.59
730.734	21.31
731.05	22.68
731.365	23.31
731.681	23.13
731.996	24.07
732.311	21.88
732.626	22.61
732.942	22.8
733.257	23.02
733.572	24.37
733.887	24.98
734.202	22.77
734.517	24.21
734.832	23.45
735.146	24.67
735.461	23.87
735.776	24.05
736.091	24.65
736.405	23.65
736.72	23.3
737.034	23.98
737.349	23.24
737.663	25.19
737.977	24.79
738.292	23.51
738.606	26.02
738.92	23.98
739.234	24.19
739.548	24.29
739.862	26
740.176	24.86
740.49	25.34
740.804	24.9
741.117	24.07
741.431	23.77
741.745	23.06
742.058	24.85
742.372	22.56
742.685	26.03
742.999	22.43
743.312	24.43
743.626	25.38
743.939	23.12
744.252	24.08
744.565	24.51
744.878	24.5
745.191	24.75
745.505	24.51
745.817	24.31
746.13	25.07
746.443	22.6
746.756	24.62
747.069	23.72
747.381	24.43
747.694	25.32
748.007	25.49
748.319	26.28
748.632	25.64
748.944	25.3
749.256	24.03
749.569	23.49
749.881	23.16
750.193	22.83
750.505	24.57
750.817	24.64
751.129	25.54
751.441	25.3
751.753	26.81
752.065	26.85
752.377	26.93
752.689	24.9
753	25.56
753.312	26.66
753.624	25.09
753.935	23.86
754.247	24.93
754.558	24.92
754.869	25.73
755.181	27.35
755.492	26
755.803	26.24
756.114	25.56
756.425	23.72
756.736	26.75
757.047	25.4
757.358	27.22
757.669	25.47
757.98	24.16
758.291	26.66
758.601	26.79
758.912	24.95
759.223	27.85
759.533	25.16
759.844	25.51
760.154	27.48
760.464	26.27
760.775	28.09
761.085	25.91
761.395	25.37
761.705	27.74
762.016	25.63
762.326	27.29
762.636	27.44
762.945	26.09
763.255	26.66
763.565	29.58
763.875	26.21
764.185	28.65
764.494	27.4
764.804	26.01
765.113	27.55
765.423	28.12
765.732	28.08
766.042	28.87
766.351	27.74
766.66	29.82
766.97	27.86
767.279	27.38
767.588	26.65
767.897	26.58
768.206	27.17
768.515	29.15
768.824	27.53
769.133	25.21
769.441	25.87
769.75	27.33
770.059	26.86
770.367	29.45
770.676	27.83
770.984	25.77
771.293	29.65
771.601	26.01
771.91	25.24
772.218	27.89
772.526	28.16
772.834	26.7
773.142	29.78
773.45	26.34
773.758	28.67
774.066	26.56
774.374	29.38
774.682	27.75
774.99	27.36
775.298	28.18
775.605	26.91
775.913	27.04
776.22	27.7
776.528	29.06
776.835	30.14
777.143	28.87
777.45	27.58
777.757	27.02
778.065	27.63
778.372	27.46
778.679	32.02
778.986	30.04
779.293	29.33
779.6	27.42
779.907	29.16
780.214	29.45
780.52	28.22
780.827	24.45
781.134	29.93
781.44	31.04
781.747	26.85
782.053	27.38
782.36	26.67
782.666	26.63
782.973	28.31
783.279	30.89
783.585	29.54
783.891	27.97
784.197	31.06
784.503	29.18
784.809	33.58
785.115	31.75
785.421	32.12
785.727	33.9
786.033	28.41
786.339	28.5
786.644	26.83
786.95	27.66
787.255	26.76
787.561	27.71
787.866	27.92
788.172	32.62
788.477	29.67
788.782	27.37
789.088	27.68
789.393	29.42
789.698	25.47
790.003	29.72
790.308	30.59
790.613	30.3
790.918	31.36
791.223	30.06
791.527	31.82
791.832	30.47
792.137	31.18
792.441	30.42
792.746	31.18
793.05	32.01
793.355	28.66
793.659	32.08
793.963	29.92
794.268	33.23
794.572	28.15
794.876	31.44
795.18	30.43
795.484	32.2
795.788	36.61
796.092	27.1
796.396	28.08
796.7	30.06
797.004	29.28
797.307	23.89
797.611	33.85
797.915	26.6
798.218	33.32
798.522	26.23
798.825	31.02
799.128	31.7
799.432	28.61
799.735	32.76
800.038	30.95
800.341	33.95
800.644	26.12
800.947	30.64
801.25	28.86
801.553	32.28
801.856	29.88
802.159	29.96
802.462	31.04
802.764	34.53
803.067	33.19
803.37	33.59
803.672	31.05
803.975	32.37
804.277	33.82
804.579	31.88
804.882	29.74
805.184	33.34
805.486	39.11
805.788	29.75
806.09	28.64
806.392	32.99
806.694	30.75
806.996	33.57
807.298	29.62
807.6	37.73
807.902	30.47
808.203	29.73
808.505	32.61
808.807	32.36
809.108	30.66
809.409	30.82
809.711	32.84
810.012	28.98
810.313	33.71
810.615	37.53
810.916	33.81
811.217	32.32
811.518	34.79
811.819	31.18
812.12	35.23
812.421	27.97
812.722	33.53
813.023	37.06
813.323	27.09
813.624	33.66
813.925	38.87
814.225	30.93
814.526	26.94
814.826	28.57
815.126	30.77
815.427	27.27
815.727	29.2
816.027	35.93
816.327	31.44
816.627	32.51
816.927	35.31
817.227	33.77
817.527	35.92
817.827	32.64
818.127	32.16
818.427	28.71
818.727	36.53
819.026	31.53
819.326	30.82
819.625	30.4
819.925	36.8
820.224	39.7
820.524	34.04
820.823	32.58
821.122	35.38
821.421	32.48
821.72	41.2
822.019	27.9
822.318	36.13
822.617	34.2
822.916	36.06
823.215	33.86
823.514	34.78
823.813	34.36
824.111	35.96
824.41	36.81
824.709	37.55
825.007	35.28
825.306	36.84
825.604	37.44
825.902	36.28
826.201	36.52
826.499	36.64
826.797	36.7
827.095	35.48
827.393	38.3
827.691	38.18
827.989	38.17
828.287	35.97
828.585	33.69
828.882	34.55
829.18	36.16
829.478	36.17
829.775	35.6
830.073	37.6
830.37	36.87
830.668	36.86
830.965	38.42
831.263	35.56
831.56	37.8
831.857	38.41
832.154	40
832.451	35.39
832.748	32.15
833.045	35.92
833.342	32.75
833.639	35.13
833.936	40.22
834.232	39.49
834.529	32.15
834.826	35.64
835.122	36.12
835.419	37.42
835.715	31.33
836.012	36.64
836.308	38.17
836.604	38.54
836.901	38.13
837.197	38.07
837.493	38.02
837.789	40.45
838.085	31.1
838.381	36.9
838.677	36.44
838.972	40.91
839.268	37.7
839.564	37.2
839.86	33.94
840.155	43
840.451	37.32
840.746	34.53
841.042	34.14
841.337	37.98
841.632	38.08
841.928	39.14
842.223	37.3
842.518	34.24
842.813	29.9
843.108	34.4
843.403	44.34
843.698	33.15
843.993	52.83
844.287	36.65
844.582	38.06
844.877	43.25
845.171	40.94
845.466	24.8
845.761	27.99
846.055	27.86
846.349	23.84
846.644	23.06
846.938	34.7
847.232	33.37
847.526	23.33
847.82	45.6
848.114	30.01
848.408	24.84
848.702	33.35
848.996	39.26
849.29	41.13
849.584	31.57
849.877	19.25
850.171	31.44
850.465	18.03
850.758	13.11
851.052	20.67
851.345	28.83
851.638	34.17
851.932	20.26
852.225	30.53
852.518	27.27
852.811	26.01
853.104	9.07
853.397	23.58
853.69	37.93
853.983	38.47
854.276	34.46
854.569	8.12
854.861	10.52
855.154	36.32
855.447	6.12
855.739	-13.91
856.032	23.06
856.324	25.52
856.616	42.45
856.909	26.13
857.201	-10.15
857.493	32.8
857.785	31.56
858.077	26.12
858.369	46.73
858.661	27.22
858.953	26.37
859.245	28.76
859.537	6.97
859.829	19.82
860.12	27.58
860.412	2.13
860.703	44.43
860.995	50.36
861.286	9.42
861.578	47.18
861.869	43.12
862.16	19.54
862.452	7.35
862.743	27.11
863.034	38.77
863.325	33.67
863.616	38.24
863.907	44.17
864.198	-3.07
864.488	48.43
864.779	23.19
865.07	17.03
865.36	52.86
865.651	45.47
865.941	27.03
866.232	59.95
866.522	40.89
866.813	24.58
867.103	4.75
867.393	25.45
867.683	32.48
867.973	25.7
868.263	28.55
868.553	51.43
868.843	1.09
869.133	13.89
869.423	31.1
869.713	28.33
870.002	25.28
870.292	3.31
870.582	4.73
870.871	16.8
871.161	15.95
871.45	2.33
871.739	18.43
872.029	15.59
872.318	45.12
872.607	41.47
872.896	33.66
873.185	31.08
873.474	18.4
873.763	58.79
874.052	45.35
874.341	22.51
874.63	33.84
874.918	39.1
875.207	25.49
875.496	43.36
875.784	52.84
876.073	17.1
876.361	61.31
876.649	44.33
876.938	5.77
877.226	41.58
877.514	44.3
877.802	-1.55
878.09	34.23
878.378	24.36
878.666	47.13
878.954	59.29
879.242	65.02
879.53	39.52
879.817	9.37
880.105	50.84
880.392	26.74
880.68	27.01
880.967	11.67
881.255	27.9
881.542	35.8
881.83	37.48
882.117	25.2
882.404	45.05
882.691	10.01
882.978	36.99
883.265	28.48
883.552	49.87
883.839	34.2
884.126	28.49
884.413	36.35
884.699	46.19
884.986	41.01
885.273	41.62
885.559	41.62
885.846	41.62
