Data from 0029_chest_Reflection__2__123.txt Node

Date: Thu Oct 20 21:54:08 CDT 2022
User: ToomeyLab
Spectrometer: FLMS14357
Trigger mode: 0
Integration Time (sec): 1.000000E-2
Scans to average: 100
Electric dark correction enabled: true
Nonlinearity correction enabled: false
Boxcar width: 0
XAxis mode: Wavelengths
Number of Pixels in Spectrum: 2048
>>>>>Begin Spectral Data<<<<<
189.047	-76.15
189.435	-76.15
189.823	-76.15
190.211	-149.14
190.599	-28.73
190.987	152.38
191.375	158.46
191.763	-37.49
192.151	238.38
192.538	53.06
192.926	81.55
193.314	44.44
193.702	-33.87
194.089	96.64
194.477	179.68
194.864	663.6
195.252	-26.97
195.639	64.67
196.027	10355.56
196.414	57.91
196.801	-382.89
197.189	-46.5
197.576	157.27
197.963	-94.64
198.351	2.68
198.738	-21.85
199.125	20.44
199.512	30.42
199.899	-72.11
200.286	-23.18
200.673	-28.39
201.06	19.81
201.447	6.13
201.833	10
202.22	-0.11
202.607	13.92
202.994	-1.3
203.38	-33.14
203.767	29.94
204.154	-1.78
204.54	7.83
204.927	-27.75
205.313	28.75
205.699	-6.92
206.086	13.05
206.472	-9.42
206.858	-34.12
207.245	0.86
207.631	1.4
208.017	-11.6
208.403	-71.72
208.789	-6.54
209.175	2.05
209.561	8
209.947	-3.39
210.333	-9.18
210.719	18.69
211.105	16.88
211.491	-43.19
211.876	-22.29
212.262	17.62
212.648	10.27
213.034	-30.29
213.419	-33.4
213.805	-15.83
214.19	-19.82
214.576	-32.36
214.961	-35.86
215.346	-30.08
215.732	3.58
216.117	-19.42
216.502	10.01
216.888	-23.09
217.273	-6.28
217.658	9.42
218.043	-8.68
218.428	-25.68
218.813	2.11
219.198	-1.73
219.583	-4.97
219.968	26.05
220.353	1.64
220.738	-4.85
221.122	1.41
221.507	-6.74
221.892	-2.16
222.276	12.56
222.661	8.59
223.046	14.16
223.43	-12.19
223.815	7.23
224.199	-6.95
224.583	-1.34
224.968	-1.01
225.352	-1.36
225.736	8.66
226.121	-3.16
226.505	0.11
226.889	-2.66
227.273	-7.91
227.657	-3.61
228.041	-3.06
228.425	-0.97
228.809	0.06
229.193	1.96
229.577	-0.93
229.961	-0.01
230.344	0.74
230.728	0.12
231.112	0.53
231.495	0.6
231.879	0.94
232.263	2.32
232.646	-1
233.03	0.21
233.413	-0.74
233.797	0.59
234.18	-1.53
234.563	-0.23
234.946	3.05
235.33	0.34
235.713	1.29
236.096	-1.07
236.479	0.54
236.862	-0.32
237.245	-0.82
237.628	-0.15
238.011	0.5
238.394	2.29
238.777	0.66
239.16	-1.13
239.543	-0.75
239.925	-0.48
240.308	0.39
240.691	0.88
241.073	-0.19
241.456	0.95
241.838	0.24
242.221	0.26
242.603	0.98
242.986	1.24
243.368	0.86
243.75	0.88
244.133	1.03
244.515	0.77
244.897	0.7
245.279	0.27
245.661	0.68
246.043	0.92
246.425	0.97
246.807	1.42
247.189	1.24
247.571	0.92
247.953	0.88
248.335	0.92
248.717	1.06
249.098	0.85
249.48	0.7
249.862	1.08
250.243	0.86
250.625	1.45
251.006	1.6
251.388	1.15
251.769	1.76
252.151	0.84
252.532	0.48
252.913	0.63
253.295	0.76
253.676	1.12
254.057	0.15
254.438	0.93
254.819	0.95
255.2	1.75
255.581	1.28
255.962	0.89
256.343	0.82
256.724	1.06
257.105	0.38
257.486	0.58
257.867	1.98
258.247	2.03
258.628	0.9
259.009	0.27
259.389	1.05
259.77	1.17
260.15	0.79
260.531	1
260.911	1.16
261.292	1.27
261.672	1.18
262.052	0.99
262.432	1.19
262.813	0.47
263.193	1.24
263.573	1.54
263.953	0.89
264.333	1.02
264.713	1
265.093	1.18
265.473	1.06
265.853	1.81
266.233	0.98
266.612	1.18
266.992	0.21
267.372	1.22
267.752	0.9
268.131	1.38
268.511	1.3
268.89	1.18
269.27	1.34
269.649	0.51
270.029	0.37
270.408	0.51
270.787	0.62
271.167	1.14
271.546	0.51
271.925	1.12
272.304	0.93
272.683	0.82
273.062	0.57
273.441	0.98
273.82	1.14
274.199	0.78
274.578	1.03
274.957	0.64
275.336	0.54
275.715	0.71
276.093	1.14
276.472	1.31
276.851	1.44
277.229	0.55
277.608	0.43
277.986	0.98
278.365	0.95
278.743	0.65
279.122	0.36
279.5	0.62
279.878	0.6
280.257	1.41
280.635	0.74
281.013	0.77
281.391	1.09
281.769	1.13
282.147	0.52
282.525	0.56
282.903	0.97
283.281	0.79
283.659	0.88
284.037	0.48
284.415	0.63
284.792	0.84
285.17	0.91
285.548	0.7
285.925	0.83
286.303	1.1
286.68	1.38
287.058	1.12
287.435	1.13
287.813	0.91
288.19	1.07
288.567	1.11
288.945	1.07
289.322	1.28
289.699	0.65
290.076	0.76
290.453	0.74
290.83	1.27
291.207	1.4
291.584	1.2
291.961	1.44
292.338	0.85
292.715	0.93
293.092	1.23
293.469	1.34
293.845	1.03
294.222	1.14
294.599	2.05
294.975	1.24
295.352	1.36
295.728	1.32
296.105	1.81
296.481	1.35
296.858	1.34
297.234	1.6
297.61	1.65
297.986	1.31
298.363	1.42
298.739	1.52
299.115	1.18
299.491	1.62
299.867	1.21
300.243	1.6
300.619	1.67
300.995	1.23
301.371	1.4
301.746	1.6
302.122	1.68
302.498	1.52
302.874	1.89
303.249	1.96
303.625	1.25
304	2
304.376	1.78
304.751	1.52
305.127	1.24
305.502	1.8
305.878	1.59
306.253	1.41
306.628	1.28
307.003	1.85
307.378	1.13
307.754	1.83
308.129	1.52
308.504	1.57
308.879	1.8
309.254	1.44
309.629	1.5
310.003	1.53
310.378	2.07
310.753	2.29
311.128	1.37
311.502	1.54
311.877	2.16
312.252	1.81
312.626	1.88
313.001	1.69
313.375	2.01
313.75	1.48
314.124	1.61
314.498	1.63
314.873	1.71
315.247	1.78
315.621	1.95
315.995	1.56
316.369	1.99
316.743	1.61
317.117	2.2
317.491	2.25
317.865	1.83
318.239	1.79
318.613	2.13
318.987	2.31
319.361	2.54
319.734	1.48
320.108	2.48
320.482	2.34
320.855	2.32
321.229	2.36
321.602	1.67
321.976	1.66
322.349	2.27
322.723	2.93
323.096	2.39
323.469	2.33
323.843	2.2
324.216	2.13
324.589	2.77
324.962	2.2
325.335	2.13
325.708	2.45
326.081	2.34
326.454	2.45
326.827	2.27
327.2	2.61
327.573	2.41
327.945	2.18
328.318	2.46
328.691	2.49
329.063	2.46
329.436	2.3
329.809	2.87
330.181	2.56
330.553	2.05
330.926	2.27
331.298	1.84
331.671	2.56
332.043	2.41
332.415	2.46
332.787	2.67
333.159	2.43
333.532	2.32
333.904	2.42
334.276	2.54
334.648	2.29
335.02	2.45
335.391	2.17
335.763	2.56
336.135	2.32
336.507	2
336.879	3.14
337.25	2.32
337.622	2.27
337.993	1.86
338.365	2.75
338.736	2.45
339.108	2.63
339.479	2.49
339.851	2.16
340.222	2.64
340.593	2.42
340.964	2.87
341.336	2.39
341.707	2.15
342.078	2.46
342.449	2.48
342.82	2.51
343.191	2.41
343.562	2.7
343.933	2.57
344.303	2.46
344.674	2.63
345.045	2.95
345.416	2.58
345.786	2.59
346.157	2.59
346.527	2.43
346.898	2.75
347.268	2.25
347.639	2.59
348.009	2.66
348.38	3.16
348.75	2.34
349.12	2.8
349.49	2.61
349.861	2.96
350.231	2.87
350.601	2.76
350.971	2.92
351.341	2.85
351.711	2.76
352.081	2.22
352.45	2.45
352.82	2.66
353.19	2.46
353.56	2.85
353.929	2.53
354.299	2.94
354.669	2.6
355.038	2.93
355.408	2.47
355.777	2.56
356.147	2.74
356.516	2.78
356.885	2.87
357.254	2.8
357.624	2.83
357.993	2.6
358.362	2.98
358.731	2.96
359.1	2.24
359.469	3.06
359.838	2.68
360.207	3.26
360.576	2.27
360.945	3.12
361.314	2.77
361.682	2.97
362.051	2.6
362.42	2.8
362.788	2.78
363.157	2.87
363.525	2.93
363.894	2.78
364.262	2.94
364.631	2.88
364.999	2.79
365.367	2.98
365.735	2.64
366.104	2.87
366.472	2.53
366.84	2.99
367.208	2.71
367.576	2.72
367.944	3.15
368.312	2.72
368.68	3.18
369.048	2.86
369.416	2.72
369.783	2.8
370.151	3.16
370.519	2.98
370.886	3.08
371.254	3.06
371.621	2.82
371.989	3.01
372.356	2.7
372.724	3.18
373.091	2.91
373.458	2.68
373.826	2.91
374.193	2.91
374.56	2.76
374.927	2.68
375.294	2.87
375.661	2.91
376.028	2.95
376.395	3.06
376.762	2.96
377.129	2.85
377.496	2.82
377.863	3.22
378.229	2.88
378.596	2.97
378.963	3.08
379.329	3.18
379.696	3
380.062	2.85
380.429	3.27
380.795	3.01
381.161	3.49
381.528	3.29
381.894	3.12
382.26	2.81
382.626	3.12
382.993	2.88
383.359	3.18
383.725	3.07
384.091	3.04
384.457	3.1
384.823	3.17
385.188	3.22
385.554	2.8
385.92	3.03
386.286	3.01
386.651	2.94
387.017	2.96
387.383	3.27
387.748	3.38
388.114	3.11
388.479	3.18
388.845	3.26
389.21	3.3
389.575	3.05
389.94	3.2
390.306	3.53
390.671	3.39
391.036	3.2
391.401	3.14
391.766	3.3
392.131	3.27
392.496	2.91
392.861	2.96
393.226	3.2
393.591	3.39
393.956	3.22
394.32	3.37
394.685	3.26
395.05	3.13
395.414	3.36
395.779	3.38
396.143	3.31
396.508	3.22
396.872	3.46
397.236	3.02
397.601	3.58
397.965	3.32
398.329	3.15
398.694	3.34
399.058	3.07
399.422	3.36
399.786	3.35
400.15	3.36
400.514	3.44
400.878	3.33
401.242	3.35
401.605	3.48
401.969	3.46
402.333	3.33
402.697	3.63
403.06	3.29
403.424	3.22
403.787	3.54
404.151	3.26
404.514	3.43
404.878	3.19
405.241	3.47
405.604	3.4
405.968	3.26
406.331	3.28
406.694	3.33
407.057	3.31
407.42	3.46
407.783	3.49
408.146	3.46
408.509	3.42
408.872	3.57
409.235	3.27
409.598	3.49
409.961	3.3
410.323	3.77
410.686	3.49
411.049	3.2
411.411	3.25
411.774	3.43
412.136	3.49
412.499	3.44
412.861	3.33
413.223	3.45
413.586	3.25
413.948	3.6
414.31	3.39
414.672	3.5
415.035	3.6
415.397	3.62
415.759	3.46
416.121	3.54
416.483	3.65
416.845	3.5
417.206	3.53
417.568	3.54
417.93	3.39
418.292	3.67
418.653	3.45
419.015	3.6
419.377	3.54
419.738	3.54
420.1	3.57
420.461	3.59
420.822	3.59
421.184	3.39
421.545	3.55
421.906	3.48
422.267	3.54
422.629	3.45
422.99	3.48
423.351	3.44
423.712	3.39
424.073	3.38
424.434	3.43
424.795	3.57
425.155	3.54
425.516	3.49
425.877	3.57
426.238	3.61
426.598	3.57
426.959	3.55
427.32	3.57
427.68	3.6
428.041	3.64
428.401	3.63
428.761	3.63
429.122	3.6
429.482	3.67
429.842	3.78
430.202	3.8
430.563	3.65
430.923	3.87
431.283	3.78
431.643	3.62
432.003	3.63
432.363	3.92
432.722	3.93
433.082	3.71
433.442	3.67
433.802	3.77
434.161	3.83
434.521	3.75
434.881	3.74
435.24	3.62
435.6	3.74
435.959	3.9
436.319	3.75
436.678	3.62
437.037	3.8
437.396	3.79
437.756	3.81
438.115	3.9
438.474	3.77
438.833	3.91
439.192	3.8
439.551	3.84
439.91	3.92
440.269	3.84
440.628	3.89
440.987	3.88
441.345	3.97
441.704	3.91
442.063	3.97
442.421	3.69
442.78	3.82
443.138	3.87
443.497	3.82
443.855	3.89
444.214	3.88
444.572	4.03
444.93	3.7
445.288	3.82
445.647	3.96
446.005	3.91
446.363	3.99
446.721	3.87
447.079	3.92
447.437	3.93
447.795	3.83
448.153	3.84
448.51	3.92
448.868	3.89
449.226	3.99
449.584	3.86
449.941	3.98
450.299	4.09
450.656	3.96
451.014	3.86
451.371	4.04
451.729	3.94
452.086	4.32
452.443	3.95
452.801	4.13
453.158	3.97
453.515	4
453.872	4.07
454.229	3.96
454.586	3.99
454.943	4.03
455.3	4.19
455.657	4.05
456.014	4.17
456.371	3.98
456.727	4.05
457.084	4
457.441	4.14
457.797	4.13
458.154	4.08
458.51	4.22
458.867	4.22
459.223	4.27
459.58	4.22
459.936	4.18
460.292	4.13
460.648	4.03
461.005	4
461.361	4.1
461.717	4.05
462.073	4.11
462.429	4.2
462.785	4.13
463.141	4.3
463.496	4.31
463.852	4.26
464.208	4.18
464.564	4.27
464.919	4.23
465.275	4.35
465.631	4.33
465.986	4.28
466.342	4.17
466.697	4.21
467.052	4.21
467.408	4.27
467.763	4.27
468.118	4.48
468.473	4.39
468.829	4.31
469.184	4.32
469.539	4.2
469.894	4.33
470.249	4.46
470.603	4.43
470.958	4.37
471.313	4.24
471.668	4.3
472.023	4.37
472.377	4.28
472.732	4.35
473.086	4.3
473.441	4.3
473.795	4.46
474.15	4.42
474.504	4.15
474.859	4.52
475.213	4.47
475.567	4.51
475.921	4.18
476.275	4.63
476.63	4.64
476.984	4.45
477.338	4.41
477.692	4.61
478.045	4.56
478.399	4.51
478.753	4.36
479.107	4.36
479.461	4.53
479.814	4.39
480.168	4.57
480.521	4.44
480.875	4.53
481.228	4.52
481.582	4.53
481.935	4.59
482.289	4.43
482.642	4.28
482.995	4.51
483.348	4.58
483.701	4.46
484.055	4.48
484.408	4.34
484.761	4.33
485.114	4.28
485.466	4.23
485.819	4.22
486.172	4.25
486.525	4.22
486.878	4.28
487.23	4.36
487.583	4.32
487.936	4.45
488.288	4.41
488.641	4.4
488.993	4.38
489.345	4.36
489.698	4.35
490.05	4.36
490.402	4.45
490.754	4.44
491.107	4.43
491.459	4.49
491.811	4.53
492.163	4.52
492.515	4.5
492.866	4.5
493.218	4.47
493.57	4.44
493.922	4.45
494.274	4.48
494.625	4.51
494.977	4.59
495.328	4.56
495.68	4.74
496.031	4.78
496.383	4.78
496.734	4.69
497.086	4.73
497.437	4.79
497.788	4.83
498.139	4.67
498.49	4.75
498.842	4.64
499.193	4.71
499.544	4.71
499.894	4.83
500.245	4.74
500.596	4.75
500.947	4.77
501.298	4.76
501.648	4.78
501.999	4.96
502.35	4.95
502.7	4.99
503.051	4.94
503.401	4.92
503.752	4.95
504.102	4.96
504.452	4.94
504.803	4.83
505.153	4.89
505.503	5.06
505.853	4.97
506.203	4.9
506.553	4.91
506.903	4.89
507.253	4.9
507.603	5.09
507.953	5.01
508.303	5.02
508.652	4.95
509.002	4.94
509.352	4.96
509.701	4.93
510.051	4.96
510.4	4.8
510.75	4.79
511.099	4.91
511.449	4.95
511.798	4.93
512.147	5.01
512.496	5.08
512.846	5.02
513.195	5.14
513.544	5.03
513.893	5.07
514.242	4.95
514.591	5.1
514.939	5.03
515.288	5.09
515.637	5.09
515.986	5.11
516.334	5.1
516.683	4.99
517.032	4.99
517.38	5.12
517.729	5.21
518.077	5.12
518.426	5
518.774	5.13
519.122	5.15
519.47	5.03
519.819	5.01
520.167	5
520.515	4.99
520.863	5.06
521.211	5.02
521.559	5.11
521.907	5.17
522.255	5.12
522.602	5.07
522.95	5.19
523.298	5.1
523.645	5.27
523.993	5.03
524.341	5.28
524.688	5.16
525.036	5.32
525.383	5.34
525.73	5.27
526.078	5.28
526.425	5.31
526.772	5.14
527.119	5.16
527.466	5.17
527.814	5.18
528.161	5.12
528.508	5.08
528.854	5.1
529.201	5.12
529.548	5.12
529.895	5.03
530.242	5.03
530.588	5.06
530.935	5.05
531.282	5.06
531.628	5.05
531.975	5.16
532.321	5.24
532.667	5.2
533.014	5.26
533.36	5.2
533.706	5.24
534.052	5.3
534.399	5.27
534.745	5.22
535.091	5.16
535.437	5.2
535.783	5.19
536.129	5.17
536.474	5.38
536.82	5.27
537.166	5.38
537.512	5.44
537.857	5.34
538.203	5.32
538.549	5.35
538.894	5.42
539.239	5.39
539.585	5.5
539.93	5.48
540.276	5.61
540.621	5.58
540.966	5.54
541.311	5.55
541.656	5.57
542.001	5.38
542.346	5.44
542.691	5.33
543.036	5.27
543.381	5.34
543.726	5.34
544.071	5.37
544.415	5.42
544.76	5.36
545.105	5.54
545.449	5.49
545.794	5.57
546.138	5.67
546.483	5.68
546.827	5.67
547.171	5.62
547.516	5.63
547.86	5.59
548.204	5.68
548.548	5.74
548.892	5.6
549.236	5.71
549.58	5.85
549.924	5.8
550.268	5.77
550.612	5.84
550.956	5.78
551.3	6.04
551.643	5.91
551.987	6.11
552.33	5.86
552.674	5.97
553.017	5.82
553.361	5.92
553.704	6
554.048	5.91
554.391	5.95
554.734	5.87
555.077	5.92
555.42	5.89
555.764	5.93
556.107	5.8
556.45	5.89
556.793	5.99
557.135	6.07
557.478	6.15
557.821	6.06
558.164	6.03
558.507	6.08
558.849	6.09
559.192	6.05
559.534	6.2
559.877	6.29
560.219	6.18
560.562	6.21
560.904	6.16
561.246	6.12
561.589	6.16
561.931	6.1
562.273	6.09
562.615	6.21
562.957	5.9
563.299	6.18
563.641	6.19
563.983	6.32
564.325	6.16
564.667	6.13
565.008	6.16
565.35	6.26
565.692	6.24
566.033	6.08
566.375	6.16
566.716	6.44
567.058	6.23
567.399	6.37
567.741	6.27
568.082	6.18
568.423	6.35
568.764	6.3
569.105	6.26
569.447	6.34
569.788	6.29
570.129	6.36
570.47	6.39
570.811	6.06
571.151	6.39
571.492	6.21
571.833	6.49
572.174	6.5
572.514	6.41
572.855	6.35
573.195	6.37
573.536	6.41
573.876	6.22
574.217	6.36
574.557	6.48
574.898	6.42
575.238	6.64
575.578	6.5
575.918	6.53
576.258	6.41
576.598	6.51
576.938	6.47
577.278	6.44
577.618	6.54
577.958	6.46
578.298	6.57
578.638	6.41
578.977	6.75
579.317	6.55
579.657	6.38
579.996	6.75
580.336	6.73
580.675	6.96
581.014	6.63
581.354	6.65
581.693	6.64
582.032	6.76
582.372	6.79
582.711	6.65
583.05	6.77
583.389	6.79
583.728	7
584.067	6.83
584.406	7.07
584.745	6.84
585.083	6.74
585.422	6.89
585.761	6.98
586.1	6.86
586.438	7.12
586.777	6.95
587.115	6.86
587.454	6.94
587.792	6.93
588.13	7.07
588.469	7.02
588.807	6.77
589.145	7.21
589.483	7.14
589.821	6.77
590.159	6.98
590.497	6.98
590.835	6.78
591.173	7.01
591.511	7
591.849	6.99
592.187	6.7
592.524	7.01
592.862	7.09
593.2	6.97
593.537	6.99
593.875	7.21
594.212	6.8
594.55	6.97
594.887	6.73
595.224	7.29
595.561	7.18
595.899	7.33
596.236	7.21
596.573	7.45
596.91	7.14
597.247	7.21
597.584	7.21
597.921	7.08
598.258	6.99
598.594	7.12
598.931	7.23
599.268	7.12
599.604	7.12
599.941	7.27
600.277	7.11
600.614	7.38
600.95	7.45
601.287	7.49
601.623	7.07
601.959	7.37
602.296	7.34
602.632	7.09
602.968	7.56
603.304	7.31
603.64	7.66
603.976	7.54
604.312	7.23
604.648	7.48
604.984	7.38
605.319	7.36
605.655	7.41
605.991	7.14
606.326	7.44
606.662	7.27
606.998	7.56
607.333	7.42
607.668	7.36
608.004	7.27
608.339	7.52
608.674	7.62
609.01	7.38
609.345	7.43
609.68	7.3
610.015	7.58
610.35	7.62
610.685	7.6
611.02	7.28
611.355	7.41
611.689	7.5
612.024	7.5
612.359	7.35
612.694	7.44
613.028	7.34
613.363	7.46
613.697	7.55
614.032	7.89
614.366	7.63
614.7	7.84
615.035	7.94
615.369	7.74
615.703	7.77
616.037	7.59
616.371	7.82
616.705	7.59
617.039	7.77
617.373	7.53
617.707	8.15
618.041	7.57
618.375	7.6
618.709	7.81
619.042	7.69
619.376	7.87
619.71	7.72
620.043	7.53
620.377	8.12
620.71	7.97
621.043	7.91
621.377	7.67
621.71	7.64
622.043	8.02
622.376	8.06
622.709	8.36
623.043	7.99
623.376	8.17
623.709	8.12
624.041	7.97
624.374	8.12
624.707	7.68
625.04	8.14
625.373	8.23
625.705	7.8
626.038	8.03
626.37	7.97
626.703	8.1
627.035	8
627.368	8.09
627.7	7.97
628.032	8.39
628.365	7.92
628.697	7.89
629.029	8.37
629.361	8.15
629.693	8.49
630.025	8.29
630.357	8.19
630.689	8.04
631.021	8.31
631.353	8.39
631.684	8.09
632.016	8.23
632.348	8.13
632.679	7.91
633.011	8.49
633.342	8.24
633.674	8.28
634.005	8.36
634.336	8.23
634.668	8.17
634.999	8.43
635.33	8.4
635.661	8.31
635.992	8.53
636.323	8.6
636.654	8.38
636.985	8.21
637.316	8.57
637.647	8.26
637.977	8.76
638.308	7.81
638.639	8.84
638.969	8.58
639.3	8.47
639.63	8.59
639.961	8.11
640.291	8.3
640.622	8.81
640.952	8.52
641.282	8.81
641.612	8.74
641.943	8.65
642.273	8.9
642.603	8.68
642.933	8.86
643.263	8.63
643.592	8.88
643.922	8.98
644.252	8.76
644.582	8.37
644.911	9
645.241	9.23
645.571	8.67
645.9	9.04
646.23	8.47
646.559	8.8
646.888	8.74
647.218	8.39
647.547	8.39
647.876	8.71
648.205	8.65
648.534	8.99
648.863	8.84
649.192	8.82
649.521	8.64
649.85	9.39
650.179	8.87
650.508	9.05
650.837	8.68
651.165	8.66
651.494	9
651.822	9.13
652.151	8.94
652.479	8.46
652.808	8.79
653.136	8.61
653.465	9.09
653.793	9.19
654.121	8.84
654.449	9.1
654.777	8.78
655.105	9.46
655.433	9.01
655.761	9.32
656.089	9.02
656.417	9.05
656.745	8.75
657.073	9.08
657.4	8.59
657.728	9.22
658.056	9.15
658.383	9.17
658.711	9.48
659.038	9.42
659.365	9.04
659.693	9.42
660.02	9.4
660.347	9.24
660.674	9.37
661.001	8.75
661.329	9.05
661.656	9.04
661.982	9.16
662.309	9.07
662.636	9.49
662.963	9.17
663.29	9.38
663.616	9.45
663.943	9.74
664.27	9.45
664.596	9.67
664.923	9.12
665.249	9.09
665.576	9.47
665.902	8.99
666.228	9.16
666.554	9.53
666.881	8.89
667.207	9.77
667.533	9.59
667.859	9.04
668.185	9.91
668.511	9.61
668.837	9.3
669.162	9.5
669.488	8.97
669.814	9.83
670.139	9.59
670.465	9.64
670.791	9.68
671.116	9.36
671.442	9.03
671.767	10.06
672.092	9.6
672.418	9.44
672.743	9.19
673.068	9.67
673.393	9.41
673.718	9.48
674.043	8.82
674.368	9.65
674.693	9.86
675.018	9.46
675.343	8.89
675.667	9.99
675.992	9.51
676.317	9.61
676.641	9.89
676.966	9.19
677.29	9.66
677.615	10.1
677.939	9.72
678.264	9.64
678.588	9.68
678.912	9.44
679.236	9.87
679.56	10.08
679.885	9.34
680.209	9.65
680.532	10.21
680.856	10.13
681.18	10.04
681.504	9.12
681.828	9.59
682.152	10.41
682.475	10.19
682.799	9.89
683.122	10.21
683.446	9.81
683.769	9.97
684.093	9.87
684.416	9.77
684.739	10.25
685.062	9.6
685.386	10.2
685.709	9.64
686.032	10.01
686.355	9.16
686.678	9.97
687.001	9.51
687.324	10.16
687.646	9.63
687.969	9.55
688.292	9.89
688.614	9.91
688.937	9.72
689.26	9.98
689.582	9.91
689.904	10.32
690.227	9.91
690.549	10.41
690.871	9.92
691.194	10.23
691.516	10.32
691.838	9.57
692.16	10.34
692.482	10.24
692.804	9.94
693.126	10.27
693.448	9.81
693.769	9.58
694.091	9.98
694.413	10.23
694.735	10.89
695.056	9.5
695.378	10.29
695.699	10.87
696.021	9.6
696.342	9.85
696.663	10.22
696.984	10.32
697.306	9.99
697.627	10.76
697.948	10.18
698.269	10.23
698.59	9.91
698.911	9.64
699.232	10.56
699.553	10.55
699.873	10.24
700.194	10.29
700.515	9.66
700.835	10.26
701.156	10.28
701.477	10.51
701.797	9.89
702.117	10.33
702.438	10.73
702.758	10.79
703.078	10.87
703.398	10.63
703.719	10.86
704.039	11.06
704.359	11.12
704.679	9.65
704.999	9.85
705.319	10.98
705.638	10.23
705.958	10.35
706.278	10.66
706.597	10.03
706.917	10.68
707.237	9.41
707.556	10.51
707.876	11.21
708.195	10
708.514	10
708.834	10.78
709.153	10.66
709.472	10.46
709.791	10.53
710.11	10.59
710.429	11.52
710.748	9.87
711.067	9.93
711.386	10.29
711.705	11.56
712.023	11.18
712.342	10.17
712.661	10.21
712.979	10.94
713.298	10.73
713.616	10.09
713.935	10.55
714.253	11.01
714.572	10.96
714.89	10.25
715.208	10.95
715.526	9.55
715.844	11.43
716.162	10.41
716.48	10.74
716.798	11.45
717.116	10.41
717.434	10.64
717.752	10.63
718.069	10.8
718.387	10.75
718.705	10.6
719.022	8.96
719.34	10.91
719.657	10.28
719.975	10.93
720.292	9.43
720.609	11.09
720.927	10.23
721.244	10.71
721.561	11.43
721.878	11.34
722.195	11.18
722.512	10.83
722.829	12.04
723.146	10.65
723.463	10.84
723.779	9.67
724.096	9.33
724.413	12.43
724.729	10.9
725.046	11.09
725.362	12.7
725.679	10.91
725.995	11.25
726.311	10.11
726.628	12.28
726.944	9.38
727.26	10.05
727.576	11.73
727.892	10.04
728.208	10.68
728.524	11.34
728.84	10.43
729.156	12.15
729.472	10.21
729.787	10.66
730.103	10.99
730.419	11.44
730.734	11.44
731.05	10.62
731.365	10.63
731.681	11.22
731.996	11.25
732.311	10.52
732.626	10.42
732.942	12.29
733.257	11.45
733.572	10.95
733.887	12.32
734.202	10.83
734.517	11.84
734.832	11.04
735.146	11.73
735.461	11.24
735.776	11.36
736.091	10.58
736.405	9.87
736.72	11.18
737.034	10.74
737.349	11.55
737.663	11.27
737.977	10.25
738.292	10.3
738.606	10.39
738.92	12.39
739.234	10.84
739.548	11.46
739.862	10.71
740.176	11.46
740.49	10.96
740.804	10.03
741.117	12.92
741.431	11.03
741.745	12.14
742.058	13.32
742.372	9.81
742.685	10.15
742.999	9.95
743.312	11.91
743.626	11.48
743.939	11.64
744.252	12.99
744.565	13.46
744.878	12.68
745.191	11.87
745.505	14.04
745.817	10.9
746.13	12.49
746.443	11.86
746.756	11.35
747.069	13.12
747.381	11.12
747.694	11.78
748.007	12.51
748.319	10.91
748.632	12.46
748.944	11.53
749.256	10.95
749.569	11.43
749.881	11.77
750.193	11.7
750.505	12.38
750.817	13.04
751.129	11.73
751.441	12.36
751.753	12.44
752.065	11.08
752.377	12.64
752.689	12.69
753	13.75
753.312	11.62
753.624	10.94
753.935	11.24
754.247	11.68
754.558	13.06
754.869	11.8
755.181	10.98
755.492	10.59
755.803	10.98
756.114	12.23
756.425	12.24
756.736	12.16
757.047	11.56
757.358	12.41
757.669	12.67
757.98	12.01
758.291	12.01
758.601	11.68
758.912	11.91
759.223	12.51
759.533	12.34
759.844	11.1
760.154	11.84
760.464	10.11
760.775	12.76
761.085	11.47
761.395	12.72
761.705	13.29
762.016	11.5
762.326	12.41
762.636	13.1
762.945	11.55
763.255	11.06
763.565	13.51
763.875	11.62
764.185	11.37
764.494	13.73
764.804	10.94
765.113	13.21
765.423	12.15
765.732	12.42
766.042	12.76
766.351	12.33
766.66	11.63
766.97	11.59
767.279	12.81
767.588	11.59
767.897	11.5
768.206	13.18
768.515	12.53
768.824	12.39
769.133	12.58
769.441	12.07
769.75	12.92
770.059	11.89
770.367	11.87
770.676	11.55
770.984	12.32
771.293	10.39
771.601	12.36
771.91	12.55
772.218	10.75
772.526	12.62
772.834	13.9
773.142	12.58
773.45	15.25
773.758	15
774.066	11.4
774.374	13.02
774.682	11.41
774.99	13.63
775.298	12.52
775.605	12.48
775.913	14.25
776.22	12.25
776.528	10.92
776.835	10.77
777.143	11.36
777.45	9.3
777.757	14.99
778.065	15.69
778.372	10.37
778.679	13.85
778.986	14.09
779.293	10.85
779.6	12.46
779.907	14.57
780.214	14.83
780.52	14.23
780.827	10.64
781.134	11.52
781.44	12.47
781.747	12.22
782.053	10.41
782.36	14.73
782.666	11.77
782.973	9.32
783.279	14.04
783.585	11.83
783.891	12.95
784.197	10.39
784.503	12.26
784.809	12.56
785.115	10.92
785.421	13.18
785.727	8.92
786.033	10.54
786.339	13.32
786.644	12.34
786.95	16.61
787.255	10.87
787.561	10.67
787.866	14.17
788.172	10.73
788.477	13.33
788.782	14.95
789.088	11.87
789.393	17.91
789.698	13.63
790.003	15.62
790.308	14.51
790.613	14.66
790.918	11.51
791.223	11.19
791.527	9.87
791.832	12.25
792.137	16.18
792.441	17.05
792.746	16.23
793.05	12.64
793.355	16.64
793.659	12.04
793.963	12.88
794.268	12.83
794.572	14.3
794.876	11.56
795.18	15.51
795.484	12.39
795.788	14.27
796.092	15.22
796.396	14.31
796.7	15.37
797.004	14.31
797.307	8.99
797.611	11.62
797.915	13
798.218	10.72
798.522	11.95
798.825	15.13
799.128	12.28
799.432	13.52
799.735	13.18
800.038	16.53
800.341	15.36
800.644	15.81
800.947	15.35
801.25	13.34
801.553	14.46
801.856	9.08
802.159	15.78
802.462	10.83
802.764	10.93
803.067	13.27
803.37	13.92
803.672	11.21
803.975	11.63
804.277	11.83
804.579	13.33
804.882	14.22
805.184	14.01
805.486	12.36
805.788	15.62
806.09	14.38
806.392	12.97
806.694	11.4
806.996	12.44
807.298	14.57
807.6	10.8
807.902	11.64
808.203	12.67
808.505	12.94
808.807	11.35
809.108	13.29
809.409	16.68
809.711	15.62
810.012	11.69
810.313	11.99
810.615	10.57
810.916	14.55
811.217	10.86
811.518	13.2
811.819	13.33
812.12	12.64
812.421	12.3
812.722	13.17
813.023	15.66
813.323	17.35
813.624	11.36
813.925	17.37
814.225	6.7
814.526	8.61
814.826	13.91
815.126	11.99
815.427	10.57
815.727	8.82
816.027	6.69
816.327	15.15
816.627	12.37
816.927	7.98
817.227	12.17
817.527	14.72
817.827	13.82
818.127	19.35
818.427	11
818.727	17.14
819.026	17.8
819.326	10.69
819.625	10.28
819.925	12.26
820.224	5.23
820.524	17.09
820.823	11.75
821.122	8.74
821.421	10.43
821.72	15.9
822.019	11.44
822.318	17.82
822.617	17.4
822.916	16.33
823.215	13.45
823.514	15.17
823.813	14.3
824.111	14.46
824.41	13.95
824.709	15.13
825.007	14.16
825.306	14.76
825.604	15.02
825.902	14.08
826.201	16.21
826.499	14.04
826.797	14.46
827.095	14.95
827.393	15.79
827.691	15.54
827.989	15.55
828.287	15.5
828.585	14.85
828.882	16.35
829.18	14.67
829.478	14.32
829.775	13.47
830.073	13.72
830.37	16.05
830.668	16.62
830.965	16.25
831.263	15.35
831.56	13.11
831.857	12.45
832.154	13.4
832.451	12.92
832.748	13.84
833.045	10.18
833.342	9.34
833.639	18.53
833.936	13.12
834.232	17.72
834.529	18.48
834.826	17.33
835.122	15.1
835.419	11.3
835.715	14.66
836.012	11.27
836.308	15.28
836.604	14.06
836.901	14.94
837.197	15.99
837.493	14.68
837.789	14.26
838.085	16.2
838.381	15.43
838.677	15.48
838.972	13.85
839.268	14.28
839.564	11.95
839.86	9.7
840.155	12.6
840.451	23.01
840.746	17.04
841.042	14.19
841.337	7.24
841.632	15.62
841.928	7.31
842.223	18.83
842.518	12.44
842.813	17.19
843.108	13.72
843.403	17.03
843.698	9.39
843.993	20.1
844.287	10.91
844.582	16.66
844.877	14.62
845.171	19.16
845.466	4.21
845.761	13.71
846.055	8.71
846.349	24.86
846.644	14.81
846.938	7.87
847.232	-5.09
847.526	0.21
847.82	19.55
848.114	-7.38
848.408	8.15
848.702	7.53
848.996	16.62
849.29	9.9
849.584	13.96
849.877	4.55
850.171	6.68
850.465	25.73
850.758	28.55
851.052	7.17
851.345	18.22
851.638	19.71
851.932	16.15
852.225	19.67
852.518	8.64
852.811	8.49
853.104	20.77
853.397	12
853.69	9.14
853.983	26.1
854.276	-17.96
854.569	6.02
854.861	5.82
855.154	13.05
855.447	-10.35
855.739	-20.39
856.032	17.2
856.324	8.31
856.616	5.98
856.909	-17.18
857.201	15.28
857.493	22.37
857.785	25.15
858.077	17.02
858.369	13.65
858.661	16.77
858.953	19.14
859.245	7.74
859.537	10.27
859.829	17.56
860.12	12.08
860.412	16.51
860.703	23.14
860.995	22.85
861.286	3.29
861.578	30.18
861.869	-1.02
862.16	9.54
862.452	8.21
862.743	25.83
863.034	1.36
863.325	15.37
863.616	25.5
863.907	17.23
864.198	19.88
864.488	1.7
864.779	21.4
865.07	15.27
865.36	21.11
865.651	14.98
865.941	2.05
866.232	23.85
866.522	30.4
866.813	20.36
867.103	8.34
867.393	21.26
867.683	2.85
867.973	14.07
868.263	15.76
868.553	17.5
868.843	-22.77
869.133	-0.05
869.423	1.63
869.713	10.38
870.002	18.87
870.292	16.27
870.582	-1.8
870.871	-0.63
871.161	24.89
871.45	17.86
871.739	0.24
872.029	16.79
872.318	34.43
872.607	38.78
872.896	-5.79
873.185	-13.97
873.474	1.32
873.763	-13.18
874.052	13.06
874.341	6.34
874.63	-0.58
874.918	16.58
875.207	22.92
875.496	22.87
875.784	25.63
876.073	13.33
876.361	33.55
876.649	-2.93
876.938	12.75
877.226	34.59
877.514	11.28
877.802	9.65
878.09	30.31
878.378	3.06
878.666	11.65
878.954	17.6
879.242	19.63
879.53	8.35
879.817	24.04
880.105	8.01
880.392	-4.82
880.68	20.81
880.967	15.94
881.255	33.36
881.542	1.59
881.83	25.12
882.117	15.91
882.404	17.12
882.691	-17.36
882.978	23.37
883.265	18.57
883.552	3.44
883.839	15.19
884.126	22.13
884.413	11.84
884.699	18.85
884.986	11.73
885.273	15.76
885.559	15.76
885.846	15.76
