Data from 0029_forehead_Reflection__5__136.txt Node

Date: Thu Oct 20 21:57:53 CDT 2022
User: ToomeyLab
Spectrometer: FLMS14357
Trigger mode: 0
Integration Time (sec): 1.000000E-2
Scans to average: 100
Electric dark correction enabled: true
Nonlinearity correction enabled: false
Boxcar width: 0
XAxis mode: Wavelengths
Number of Pixels in Spectrum: 2048
>>>>>Begin Spectral Data<<<<<
189.047	-136.08
189.435	-136.08
189.823	-136.08
190.211	8.14
190.599	134.72
190.987	88.08
191.375	100.67
191.763	179.09
192.151	516.02
192.538	-109.93
192.926	73.85
193.314	39.9
193.702	-5.76
194.089	99.93
194.477	-37.92
194.864	217.62
195.252	47.77
195.639	-4.14
196.027	-2162.96
196.414	45.21
196.801	-335.09
197.189	-54.74
197.576	17.17
197.963	-86
198.351	18.34
198.738	-3.08
199.125	38.52
199.512	49.91
199.899	6.59
200.286	99.26
200.673	37.98
201.06	33.14
201.447	40.83
201.833	-17.14
202.22	-23.94
202.607	15.93
202.994	-5.67
203.38	-86.76
203.767	20.4
204.154	-15.99
204.54	-7.4
204.927	-23.36
205.313	41.98
205.699	32.04
206.086	20.38
206.472	23.31
206.858	48.36
207.245	34.48
207.631	6.78
208.017	9.77
208.403	-14.25
208.789	4.49
209.175	51.64
209.561	9.07
209.947	39.39
210.333	5.32
210.719	31.55
211.105	54.2
211.491	-31.62
211.876	9.35
212.262	7.85
212.648	19.21
213.034	8.72
213.419	15.45
213.805	2.67
214.19	-17.65
214.576	9.28
214.961	-10.84
215.346	-3.48
215.732	1.86
216.117	22.05
216.502	19.34
216.888	-14.82
217.273	15.94
217.658	17.37
218.043	26.41
218.428	8.91
218.813	30.65
219.198	22.95
219.583	16.03
219.968	36.59
220.353	-4.06
220.738	12.19
221.122	15.07
221.507	-2.55
221.892	-4.44
222.276	11.01
222.661	13.19
223.046	16.39
223.43	4.91
223.815	13.51
224.199	-0.35
224.583	7.85
224.968	8.59
225.352	13.21
225.736	13.64
226.121	7.26
226.505	6.33
226.889	2.72
227.273	6.6
227.657	6.47
228.041	-1.04
228.425	3.02
228.809	6.35
229.193	4.42
229.577	3.15
229.961	3.34
230.344	3.16
230.728	3.34
231.112	3.24
231.495	4.34
231.879	5.56
232.263	4.09
232.646	4.21
233.03	3.54
233.413	2.63
233.797	4.55
234.18	5.07
234.563	5.73
234.946	4.02
235.33	3.88
235.713	4.43
236.096	2.88
236.479	4.86
236.862	4.26
237.245	3.66
237.628	4.31
238.011	4.78
238.394	3.81
238.777	6.47
239.16	3.89
239.543	1.89
239.925	4.33
240.308	3.51
240.691	4.26
241.073	2.68
241.456	3.61
241.838	3.49
242.221	3.24
242.603	2.51
242.986	3.54
243.368	3.6
243.75	3.91
244.133	3.97
244.515	3.58
244.897	3.93
245.279	3.4
245.661	4.83
246.043	4.97
246.425	4.03
246.807	3.86
247.189	4.09
247.571	4.01
247.953	3.58
248.335	3.66
248.717	3.65
249.098	3.67
249.48	3.95
249.862	3.89
250.243	3.52
250.625	4.21
251.006	4
251.388	4.04
251.769	3.69
252.151	3.65
252.532	3.97
252.913	3.16
253.295	3.78
253.676	4.16
254.057	3.14
254.438	4.4
254.819	5
255.2	4.4
255.581	3.99
255.962	3.69
256.343	3.71
256.724	3.73
257.105	4.41
257.486	3.61
257.867	4.69
258.247	4.71
258.628	4.65
259.009	3.63
259.389	3.8
259.77	4.29
260.15	3.56
260.531	3.98
260.911	3.58
261.292	3.77
261.672	3.64
262.052	3.9
262.432	4.13
262.813	3.72
263.193	4.65
263.573	4.27
263.953	3.56
264.333	3.99
264.713	4.15
265.093	4.04
265.473	4.17
265.853	4.97
266.233	3.88
266.612	3.92
266.992	3.7
267.372	4.15
267.752	3.79
268.131	3.92
268.511	4.05
268.89	3.73
269.27	4
269.649	3.72
270.029	3.52
270.408	3.38
270.787	3.68
271.167	3.33
271.546	3.53
271.925	4.25
272.304	3.82
272.683	3.89
273.062	3.61
273.441	3.61
273.82	3.9
274.199	3.18
274.578	3.43
274.957	3.52
275.336	4.09
275.715	4.04
276.093	4
276.472	4.17
276.851	4.14
277.229	3.35
277.608	3.39
277.986	3.56
278.365	3.31
278.743	3.91
279.122	4.12
279.5	3.23
279.878	3.89
280.257	4.09
280.635	3.77
281.013	3.62
281.391	4.11
281.769	3.75
282.147	3.37
282.525	3.64
282.903	3.37
283.281	3.51
283.659	3.45
284.037	3.1
284.415	3.86
284.792	3.55
285.17	3.84
285.548	3.48
285.925	3.34
286.303	3.81
286.68	4.07
287.058	3.83
287.435	3.56
287.813	3.82
288.19	3.64
288.567	3.88
288.945	4.06
289.322	3.49
289.699	3.31
290.076	3.95
290.453	3.94
290.83	4.24
291.207	4.19
291.584	3.98
291.961	3.83
292.338	3.78
292.715	3.72
293.092	4.87
293.469	4.3
293.845	4.69
294.222	4.64
294.599	4.9
294.975	4.74
295.352	5.06
295.728	4.31
296.105	4.89
296.481	4.26
296.858	4.61
297.234	4.24
297.61	4.45
297.986	4.24
298.363	4.48
298.739	4.65
299.115	4.75
299.491	4.78
299.867	4.64
300.243	4.77
300.619	5.03
300.995	4.6
301.371	4.94
301.746	5.06
302.122	5.32
302.498	4.85
302.874	5.77
303.249	5.21
303.625	5.09
304	5.63
304.376	5.21
304.751	5.16
305.127	4.88
305.502	5.46
305.878	5.36
306.253	4.88
306.628	5.12
307.003	5.23
307.378	5.03
307.754	5.3
308.129	5.77
308.504	5.61
308.879	5.76
309.254	5.61
309.629	5.65
310.003	5.49
310.378	5.49
310.753	5.82
311.128	5.85
311.502	5.77
311.877	6.04
312.252	5.57
312.626	5.64
313.001	5.77
313.375	6.07
313.75	5.79
314.124	6.25
314.498	6.21
314.873	6.47
315.247	6.05
315.621	6.06
315.995	5.47
316.369	6.23
316.743	6.28
317.117	6.09
317.491	6.13
317.865	5.73
318.239	6.48
318.613	6.67
318.987	6.49
319.361	6.62
319.734	5.96
320.108	6.35
320.482	6.68
320.855	6.91
321.229	6.82
321.602	6.16
321.976	6.47
322.349	6.56
322.723	7.13
323.096	6.48
323.469	6.87
323.843	6.99
324.216	6.61
324.589	7.13
324.962	7.06
325.335	6.72
325.708	6.94
326.081	7.53
326.454	7.21
326.827	6.72
327.2	7.89
327.573	7.26
327.945	6.92
328.318	6.8
328.691	7.49
329.063	7.64
329.436	6.97
329.809	7.69
330.181	7.19
330.553	7.41
330.926	7.66
331.298	6.97
331.671	7.57
332.043	7.74
332.415	7.29
332.787	7.69
333.159	7.58
333.532	7.42
333.904	7.72
334.276	7.79
334.648	7.46
335.02	7.61
335.391	7.6
335.763	7.76
336.135	7.79
336.507	6.92
336.879	8.17
337.25	7.69
337.622	7.94
337.993	7.61
338.365	8.12
338.736	7.88
339.108	8.25
339.479	8.2
339.851	8.08
340.222	8.26
340.593	8.17
340.964	8.62
341.336	7.89
341.707	7.77
342.078	8.15
342.449	8.05
342.82	8.2
343.191	8.16
343.562	8.46
343.933	8.2
344.303	8.46
344.674	8.64
345.045	8.53
345.416	8.56
345.786	8.35
346.157	8.45
346.527	7.88
346.898	8.73
347.268	8.56
347.639	8.54
348.009	8.55
348.38	8.92
348.75	8.36
349.12	8.97
349.49	8.79
349.861	9.02
350.231	9.05
350.601	9.28
350.971	8.99
351.341	9.04
351.711	9.06
352.081	8.63
352.45	8.7
352.82	8.99
353.19	9.13
353.56	8.69
353.929	9.06
354.299	9.23
354.669	9.13
355.038	9.2
355.408	8.93
355.777	9.08
356.147	9.14
356.516	9.36
356.885	9.23
357.254	9.31
357.624	9.16
357.993	9.23
358.362	9.37
358.731	9.37
359.1	9.09
359.469	9.4
359.838	9.43
360.207	9.82
360.576	9.42
360.945	9.32
361.314	9.65
361.682	9.27
362.051	9.27
362.42	9.45
362.788	9.64
363.157	9.35
363.525	9.3
363.894	9.4
364.262	9.93
364.631	9.6
364.999	9.64
365.367	9.87
365.735	9.76
366.104	9.67
366.472	9.76
366.84	10.08
367.208	9.86
367.576	9.62
367.944	10.31
368.312	10.11
368.68	10.37
369.048	10.16
369.416	10.12
369.783	10.09
370.151	10.33
370.519	10.16
370.886	9.89
371.254	10.35
371.621	10.32
371.989	10.1
372.356	10.02
372.724	10.44
373.091	10.1
373.458	10.15
373.826	10.5
374.193	10.57
374.56	10.55
374.927	10.52
375.294	10.66
375.661	10.66
376.028	10.46
376.395	10.98
376.762	10.68
377.129	10.63
377.496	10.35
377.863	10.6
378.229	10.68
378.596	10.51
378.963	10.77
379.329	10.96
379.696	10.73
380.062	11.33
380.429	11.4
380.795	11.22
381.161	11.02
381.528	10.96
381.894	10.99
382.26	10.98
382.626	11.57
382.993	10.94
383.359	11.43
383.725	10.92
384.091	11.08
384.457	10.99
384.823	11.17
385.188	11.57
385.554	11.02
385.92	11.14
386.286	11.27
386.651	11.41
387.017	11.3
387.383	11.49
387.748	11.86
388.114	11.5
388.479	11.4
388.845	11.58
389.21	11.89
389.575	11.55
389.94	11.96
390.306	11.76
390.671	11.94
391.036	11.64
391.401	11.62
391.766	12.07
392.131	11.63
392.496	11.6
392.861	11.71
393.226	11.78
393.591	11.94
393.956	11.93
394.32	12.11
394.685	12
395.05	11.9
395.414	12.21
395.779	11.89
396.143	11.95
396.508	12.2
396.872	12.28
397.236	12.3
397.601	12.53
397.965	12.32
398.329	12.29
398.694	12.08
399.058	12.25
399.422	12.43
399.786	12.28
400.15	12.29
400.514	12.62
400.878	12.47
401.242	12.45
401.605	12.77
401.969	12.54
402.333	12.74
402.697	12.63
403.06	12.47
403.424	12.69
403.787	12.74
404.151	12.26
404.514	12.66
404.878	12.66
405.241	12.67
405.604	12.85
405.968	12.77
406.331	12.84
406.694	12.97
407.057	13.05
407.42	12.95
407.783	13.04
408.146	13.11
408.509	12.8
408.872	13.11
409.235	12.98
409.598	13.42
409.961	13.2
410.323	13.55
410.686	13.08
411.049	13.07
411.411	13.13
411.774	12.95
412.136	13.43
412.499	13.46
412.861	13.58
413.223	13.42
413.586	13.36
413.948	13.53
414.31	13.35
414.672	13.41
415.035	13.54
415.397	13.53
415.759	13.61
416.121	13.69
416.483	13.46
416.845	13.49
417.206	13.47
417.568	13.62
417.93	13.36
418.292	13.72
418.653	13.56
419.015	13.44
419.377	13.48
419.738	13.53
420.1	13.51
420.461	13.36
420.822	13.54
421.184	13.57
421.545	13.7
421.906	13.58
422.267	13.54
422.629	13.59
422.99	13.61
423.351	13.69
423.712	13.87
424.073	13.83
424.434	13.89
424.795	13.77
425.155	13.69
425.516	13.57
425.877	13.7
426.238	13.96
426.598	13.96
426.959	14.13
427.32	14.21
427.68	14.31
428.041	14.27
428.401	14.48
428.761	14.45
429.122	14.54
429.482	14.56
429.842	14.59
430.202	14.68
430.563	14.66
430.923	14.77
431.283	14.71
431.643	14.51
432.003	14.8
432.363	14.71
432.722	14.95
433.082	14.49
433.442	14.54
433.802	14.74
434.161	14.71
434.521	14.61
434.881	14.66
435.24	14.71
435.6	14.77
435.959	14.89
436.319	14.99
436.678	15.07
437.037	15.28
437.396	15.08
437.756	14.99
438.115	15.22
438.474	15.1
438.833	15.04
439.192	15.01
439.551	15
439.91	15.06
440.269	15.04
440.628	14.96
440.987	14.92
441.345	15
441.704	15.02
442.063	15.16
442.421	14.95
442.78	15.24
443.138	15.36
443.497	15.4
443.855	15.34
444.214	15.56
444.572	15.58
444.93	15.46
445.288	15.48
445.647	15.36
446.005	15.32
446.363	15.46
446.721	15.33
447.079	15.25
447.437	15.29
447.795	15.29
448.153	15.28
448.51	15.4
448.868	15.56
449.226	15.66
449.584	15.72
449.941	15.84
450.299	15.91
450.656	15.93
451.014	16.11
451.371	16.14
451.729	16.03
452.086	16.35
452.443	16.26
452.801	16.31
453.158	16.18
453.515	15.99
453.872	16.03
454.229	16.05
454.586	16.29
454.943	16.36
455.3	16.32
455.657	16.36
456.014	16.41
456.371	16.3
456.727	16.23
457.084	16.43
457.441	16.51
457.797	16.4
458.154	16.59
458.51	16.51
458.867	16.53
459.223	16.73
459.58	16.46
459.936	16.4
460.292	16.37
460.648	16.07
461.005	15.99
461.361	16
461.717	16.32
462.073	16.62
462.429	16.81
462.785	16.96
463.141	17.2
463.496	17.09
463.852	16.99
464.208	17.18
464.564	17.14
464.919	17.19
465.275	17.05
465.631	16.94
465.986	17.04
466.342	17.1
466.697	17.12
467.052	17.28
467.408	17.27
467.763	17.4
468.118	17.19
468.473	17.14
468.829	17.4
469.184	17.31
469.539	17.36
469.894	17.48
470.249	17.53
470.603	17.38
470.958	17.56
471.313	17.45
471.668	17.53
472.023	17.75
472.377	17.52
472.732	17.73
473.086	17.62
473.441	17.83
473.795	17.67
474.15	17.53
474.504	17.54
474.859	17.7
475.213	17.92
475.567	18.01
475.921	17.86
476.275	17.98
476.63	18.16
476.984	18.09
477.338	17.84
477.692	17.87
478.045	17.84
478.399	17.96
478.753	18.05
479.107	17.98
479.461	18.12
479.814	17.92
480.168	18.29
480.521	18.11
480.875	18.27
481.228	18.27
481.582	18.25
481.935	18.14
482.289	18.03
482.642	17.92
482.995	17.96
483.348	18
483.701	17.95
484.055	17.7
484.408	17.4
484.761	17.04
485.114	16.72
485.466	16.81
485.819	17.39
486.172	17.94
486.525	18.25
486.878	18.43
487.23	18.39
487.583	18.34
487.936	18.12
488.288	17.66
488.641	17.51
488.993	17.55
489.345	17.63
489.698	17.93
490.05	18.2
490.402	18.52
490.754	18.75
491.107	18.86
491.459	18.89
491.811	18.75
492.163	18.54
492.515	18.14
492.866	17.73
493.218	17.76
493.57	18.2
493.922	18.63
494.274	19.13
494.625	19.17
494.977	19.51
495.328	19.35
495.68	19.45
496.031	19.35
496.383	19.44
496.734	19.29
497.086	19.46
497.437	19.45
497.788	19.15
498.139	19.04
498.49	19.15
498.842	19.13
499.193	19.3
499.544	19.44
499.894	19.49
500.245	19.46
500.596	19.56
500.947	19.66
501.298	19.7
501.648	19.78
501.999	19.86
502.35	19.95
502.7	19.9
503.051	19.97
503.401	20.16
503.752	19.97
504.102	19.97
504.452	20.08
504.803	20.01
505.153	20.02
505.503	20.14
505.853	19.83
506.203	20.05
506.553	20.1
506.903	20.12
507.253	20.28
507.603	20.32
507.953	20.27
508.303	20.25
508.652	20.29
509.002	20.14
509.352	20.17
509.701	20.15
510.051	20.08
510.4	20.12
510.75	20.08
511.099	20.23
511.449	20.32
511.798	20.3
512.147	20.47
512.496	20.49
512.846	20.52
513.195	20.48
513.544	20.49
513.893	20.57
514.242	20.58
514.591	20.78
514.939	20.7
515.288	20.91
515.637	20.92
515.986	20.85
516.334	20.85
516.683	20.89
517.032	20.96
517.38	21.05
517.729	20.89
518.077	20.95
518.426	20.93
518.774	20.84
519.122	20.76
519.47	20.48
519.819	20.41
520.167	20.42
520.515	20.72
520.863	20.88
521.211	21.11
521.559	21.25
521.907	21.36
522.255	21.3
522.602	21.37
522.95	21.47
523.298	21.51
523.645	21.49
523.993	21.5
524.341	21.57
524.688	21.47
525.036	21.6
525.383	21.64
525.73	21.52
526.078	21.36
526.425	21.25
526.772	20.95
527.119	20.88
527.466	21.02
527.814	21.35
528.161	21.39
528.508	21.52
528.854	21.42
529.201	21.03
529.548	20.56
529.895	20.26
530.242	20.38
530.588	20.87
530.935	21.34
531.282	21.71
531.628	21.84
531.975	21.99
532.321	22.03
532.667	22.04
533.014	22.01
533.36	21.82
533.706	21.75
534.052	21.64
534.399	21.33
534.745	21.01
535.091	21.33
535.437	21.82
535.783	22.16
536.129	22.41
536.474	22.54
536.82	22.68
537.166	22.42
537.512	22.37
537.857	21.89
538.203	21.96
538.549	22.19
538.894	22.45
539.239	22.73
539.585	22.86
539.93	22.96
540.276	23.04
540.621	22.87
540.966	22.96
541.311	22.67
541.656	22.59
542.001	22.19
542.346	21.78
542.691	21.48
543.036	21.63
543.381	22.15
543.726	22.56
544.071	22.77
544.415	22.79
544.76	22.69
545.105	22.94
545.449	23.12
545.794	23.2
546.138	23.37
546.483	23.31
546.827	23.13
547.171	23.05
547.516	23.16
547.86	23.23
548.204	23.05
548.548	22.99
548.892	23.36
549.236	23.65
549.58	23.9
549.924	23.87
550.268	24.09
550.612	24.12
550.956	24
551.3	24.16
551.643	24.27
551.987	24.23
552.33	24.07
552.674	24.07
553.017	24.11
553.361	24.13
553.704	24.07
554.048	23.9
554.391	24.14
554.734	24.03
555.077	24.14
555.42	24.33
555.764	24.47
556.107	24.57
556.45	24.38
556.793	24.53
557.135	24.84
557.478	24.6
557.821	24.63
558.164	24.61
558.507	24.73
558.849	24.88
559.192	24.92
559.534	24.79
559.877	24.79
560.219	25.01
560.562	24.96
560.904	24.94
561.246	24.82
561.589	25.01
561.931	24.83
562.273	25.07
562.615	24.78
562.957	24.89
563.299	24.92
563.641	25.11
563.983	25.37
564.325	25.11
564.667	25.36
565.008	25.35
565.35	25.31
565.692	25.43
566.033	25.26
566.375	25.16
566.716	25.16
567.058	25.2
567.399	25.18
567.741	25.02
568.082	24.96
568.423	25.36
568.764	25.22
569.105	25.34
569.447	25.79
569.788	25.74
570.129	25.43
570.47	25.72
570.811	25.42
571.151	25.54
571.492	25.62
571.833	25.67
572.174	25.77
572.514	25.6
572.855	25.65
573.195	25.52
573.536	25.4
573.876	25.5
574.217	25.74
574.557	26.02
574.898	25.98
575.238	26.31
575.578	25.83
575.918	25.8
576.258	26.12
576.598	25.97
576.938	26.01
577.278	25.91
577.618	26.31
577.958	26.33
578.298	26.42
578.638	26.42
578.977	26.43
579.317	26.46
579.657	26.59
579.996	26.51
580.336	26.7
580.675	26.93
581.014	27.01
581.354	26.82
581.693	26.69
582.032	27.05
582.372	27.01
582.711	26.67
583.05	26.74
583.389	26.71
583.728	26.93
584.067	27.05
584.406	27.22
584.745	27.14
585.083	26.83
585.422	27.15
585.761	27.39
586.1	27.3
586.438	27.49
586.777	27.32
587.115	27.32
587.454	27.36
587.792	27.23
588.13	27.44
588.469	27.63
588.807	27.49
589.145	27.43
589.483	27.65
589.821	27.27
590.159	27.47
590.497	27.43
590.835	27.3
591.173	27.36
591.511	27.39
591.849	27.32
592.187	27.46
592.524	27.77
592.862	27.64
593.2	27.82
593.537	27.84
593.875	27.71
594.212	27.76
594.55	27.8
594.887	27.71
595.224	27.84
595.561	27.97
595.899	27.9
596.236	27.92
596.573	28
596.91	28
597.247	28.13
597.584	27.79
597.921	27.63
598.258	27.62
598.594	27.58
598.931	27.73
599.268	27.98
599.604	28.16
599.941	28.4
600.277	28.43
600.614	28.72
600.95	28.51
601.287	28.55
601.623	28.56
601.959	28.22
602.296	28.53
602.632	28.54
602.968	28.62
603.304	28.51
603.64	28.74
603.976	28.53
604.312	28.49
604.648	28.19
604.984	28.38
605.319	28.41
605.655	28.54
605.991	28.15
606.326	28.25
606.662	28.48
606.998	28.75
607.333	28.85
607.668	28.94
608.004	29.23
608.339	29.44
608.674	29.48
609.01	29.19
609.345	29.2
609.68	29.08
610.015	28.94
610.35	28.91
610.685	28.41
611.02	28.42
611.355	28.56
611.689	28.91
612.024	29.14
612.359	29.47
612.694	29.67
613.028	29.36
613.363	29.51
613.697	29.87
614.032	29.82
614.366	29.66
614.7	29.37
615.035	29.7
615.369	30.03
615.703	29.72
616.037	29.59
616.371	29.74
616.705	29.71
617.039	29.56
617.373	29.86
617.707	30.34
618.041	29.95
618.375	29.85
618.709	30
619.042	29.99
619.376	29.87
619.71	30.29
620.043	29.67
620.377	30.26
620.71	29.92
621.043	30.27
621.377	30.03
621.71	29.95
622.043	30.13
622.376	30.63
622.709	30.55
623.043	29.72
623.376	30.42
623.709	30.31
624.041	30.64
624.374	30.67
624.707	30.01
625.04	30.72
625.373	30.9
625.705	30.42
626.038	30.66
626.37	30.7
626.703	30.57
627.035	30.29
627.368	30.21
627.7	30.39
628.032	30.33
628.365	30.27
628.697	30.31
629.029	30.63
629.361	30.74
629.693	30.91
630.025	30.93
630.357	30.71
630.689	30.83
631.021	30.5
631.353	30.8
631.684	30.77
632.016	30.79
632.348	30.94
632.679	31.21
633.011	31
633.342	30.96
633.674	31.24
634.005	30.99
634.336	30.85
634.668	31.14
634.999	30.83
635.33	31.04
635.661	30.93
635.992	31.01
636.323	31.52
636.654	31.49
636.985	31.31
637.316	31.38
637.647	31.23
637.977	31.8
638.308	31.34
638.639	31.51
638.969	31.68
639.3	31.41
639.63	31.55
639.961	31.76
640.291	31.46
640.622	31.42
640.952	31.79
641.282	32.16
641.612	31.79
641.943	32.12
642.273	31.99
642.603	31.75
642.933	32.05
643.263	31.66
643.592	32.22
643.922	31.46
644.252	31.87
644.582	31.92
644.911	32.09
645.241	32.24
645.571	31.96
645.9	32.22
646.23	32.21
646.559	32.17
646.888	32.24
647.218	32.09
647.547	32
647.876	32.18
648.205	32.26
648.534	31.94
648.863	32.28
649.192	32.39
649.521	32.23
649.85	32.28
650.179	32.14
650.508	32.56
650.837	32.58
651.165	32.17
651.494	32.48
651.822	32.14
652.151	32.81
652.479	32.49
652.808	32.29
653.136	32.36
653.465	32.6
653.793	32.49
654.121	32.41
654.449	32.22
654.777	32.83
655.105	32.85
655.433	32.58
655.761	33.02
656.089	32.82
656.417	33.36
656.745	33.1
657.073	33
657.4	32.56
657.728	32.85
658.056	33.09
658.383	32.89
658.711	33.16
659.038	33.06
659.365	32.77
659.693	32.54
660.02	32.66
660.347	32.69
660.674	32.82
661.001	32.57
661.329	32.95
661.656	33.03
661.982	33.41
662.309	33.51
662.636	33.3
662.963	33.47
663.29	32.75
663.616	33.27
663.943	33.53
664.27	32.95
664.596	33.58
664.923	32.65
665.249	33.44
665.576	33.49
665.902	33.25
666.228	33.3
666.554	33.61
666.881	33.57
667.207	34.05
667.533	33.72
667.859	33.44
668.185	34.18
668.511	33.89
668.837	33.38
669.162	33.74
669.488	33.46
669.814	34.01
670.139	33.89
670.465	33.08
670.791	33.63
671.116	33.84
671.442	34.29
671.767	34.05
672.092	33.98
672.418	33.66
672.743	33.85
673.068	33.49
673.393	33.88
673.718	33.87
674.043	34.19
674.368	33.6
674.693	34.13
675.018	34.77
675.343	33.99
675.667	33.92
675.992	33.91
676.317	33.91
676.641	34.21
676.966	34.44
677.29	34.07
677.615	34.24
677.939	33.92
678.264	35.15
678.588	34.37
678.912	34.2
679.236	34.68
679.56	34.33
679.885	34.21
680.209	34.11
680.532	34.43
680.856	34.73
681.18	34.17
681.504	34.14
681.828	34.14
682.152	34.36
682.475	34.33
682.799	35.08
683.122	34.97
683.446	34.53
683.769	35.36
684.093	34.72
684.416	33.95
684.739	34.99
685.062	34.75
685.386	35.16
685.709	33.84
686.032	34.8
686.355	34.74
686.678	34.98
687.001	34.38
687.324	34.73
687.646	34.47
687.969	34.87
688.292	34.86
688.614	34.92
688.937	35.12
689.26	34.4
689.582	34.54
689.904	34.89
690.227	34.6
690.549	35.65
690.871	34.64
691.194	35.2
691.516	35.52
691.838	35.05
692.16	34.8
692.482	35.36
692.804	35.38
693.126	35.35
693.448	35.22
693.769	35.34
694.091	36.01
694.413	35.18
694.735	35.46
695.056	35.74
695.378	35.85
695.699	35.02
696.021	34.86
696.342	35.15
696.663	35.97
696.984	35.17
697.306	35.43
697.627	35.27
697.948	35.47
698.269	35.81
698.59	35.32
698.911	35.06
699.232	35.91
699.553	35.61
699.873	35.5
700.194	35.29
700.515	34.86
700.835	35.67
701.156	35.48
701.477	35.34
701.797	35.79
702.117	35.84
702.438	36.81
702.758	36.13
703.078	35.6
703.398	35.96
703.719	36.06
704.039	36.25
704.359	36.65
704.679	36.12
704.999	36.01
705.319	36
705.638	35.16
705.958	35.65
706.278	35.47
706.597	35.81
706.917	35.91
707.237	35.9
707.556	36.54
707.876	36.08
708.195	36.26
708.514	36.54
708.834	35.96
709.153	36.07
709.472	36.33
709.791	36.31
710.11	36.95
710.429	36.62
710.748	35.57
711.067	36.07
711.386	35.91
711.705	36.38
712.023	36.28
712.342	36.23
712.661	35.71
712.979	36.67
713.298	36.38
713.616	36.01
713.935	37.61
714.253	36.99
714.572	37.1
714.89	37.28
715.208	36.58
715.526	35.61
715.844	37.02
716.162	36.99
716.48	36.86
716.798	37.22
717.116	35.91
717.434	36.36
717.752	36.85
718.069	36.44
718.387	36.97
718.705	36.82
719.022	35.41
719.34	37.36
719.657	37.47
719.975	36.81
720.292	36.67
720.609	36.89
720.927	37.08
721.244	37.35
721.561	37.26
721.878	37.18
722.195	36.65
722.512	37.24
722.829	37.01
723.146	36.99
723.463	36.92
723.779	36.22
724.096	37.2
724.413	37.8
724.729	37.11
725.046	36.37
725.362	38.1
725.679	37.46
725.995	37.72
726.311	37.61
726.628	37.94
726.944	37.16
727.26	36.52
727.576	37.47
727.892	38.63
728.208	37
728.524	37.66
728.84	37.05
729.156	38
729.472	36.76
729.787	37.54
730.103	37.29
730.419	37.65
730.734	37.35
731.05	37.86
731.365	38.36
731.681	38.03
731.996	37.18
732.311	37.53
732.626	36.49
732.942	37.19
733.257	37.45
733.572	37.58
733.887	37.56
734.202	38.79
734.517	38.08
734.832	37.49
735.146	36.5
735.461	37.12
735.776	37.8
736.091	36.8
736.405	37.21
736.72	37.85
737.034	38.31
737.349	38.93
737.663	37.28
737.977	38.98
738.292	38.03
738.606	38.54
738.92	38.1
739.234	38.95
739.548	37.37
739.862	36.73
740.176	37.97
740.49	39.29
740.804	37.82
741.117	38
741.431	37.7
741.745	38.87
742.058	40.22
742.372	38.05
742.685	37.26
742.999	39.16
743.312	38.06
743.626	36.7
743.939	39.08
744.252	37.97
744.565	37.97
744.878	40.21
745.191	38.32
745.505	39.8
745.817	38.33
746.13	38.71
746.443	37.97
746.756	36.47
747.069	38.86
747.381	38.57
747.694	38.06
748.007	38.31
748.319	39.23
748.632	39.2
748.944	40.02
749.256	39.35
749.569	38.45
749.881	38.02
750.193	38.33
750.505	38.74
750.817	38.48
751.129	36.63
751.441	38.48
751.753	38.95
752.065	38.86
752.377	39.82
752.689	39.63
753	38.07
753.312	38.86
753.624	39.49
753.935	38.46
754.247	39.03
754.558	42.22
754.869	39.11
755.181	39.21
755.492	40.09
755.803	39.67
756.114	39.47
756.425	38.79
756.736	38.66
757.047	38.67
757.358	39.41
757.669	40.27
757.98	39.75
758.291	40.3
758.601	38.97
758.912	38.79
759.223	40.82
759.533	40.19
759.844	38.11
760.154	41.75
760.464	38.07
760.775	39.21
761.085	38.59
761.395	41.06
761.705	39.39
762.016	38.85
762.326	39.23
762.636	37.75
762.945	38.31
763.255	39.2
763.565	39.12
763.875	38.67
764.185	38.77
764.494	39.51
764.804	40.22
765.113	39.04
765.423	39.29
765.732	39.17
766.042	38.36
766.351	39.32
766.66	39.14
766.97	40.61
767.279	39.88
767.588	39.46
767.897	38.85
768.206	39.95
768.515	39.16
768.824	40.76
769.133	40.07
769.441	39.12
769.75	40.13
770.059	39.9
770.367	40.93
770.676	39.33
770.984	39.58
771.293	40.54
771.601	38.45
771.91	39.96
772.218	40.61
772.526	39.66
772.834	40.29
773.142	43.27
773.45	41.84
773.758	40.86
774.066	40.57
774.374	41.65
774.682	39.87
774.99	39.12
775.298	39.82
775.605	40.22
775.913	42.35
776.22	39.55
776.528	40.87
776.835	39.75
777.143	39.4
777.45	38.15
777.757	40.67
778.065	39.69
778.372	36.01
778.679	39.92
778.986	40.45
779.293	38.94
779.6	38.11
779.907	41.77
780.214	42.36
780.52	42.56
780.827	39.44
781.134	41
781.44	41.9
781.747	39.57
782.053	38.34
782.36	43.98
782.666	42.03
782.973	38.17
783.279	41.07
783.585	40.45
783.891	41.69
784.197	40.25
784.503	40.78
784.809	38.7
785.115	41.67
785.421	42.41
785.727	40.5
786.033	41.69
786.339	42.23
786.644	42.81
786.95	41.85
787.255	42.63
787.561	39.09
787.866	40.91
788.172	39.16
788.477	39.45
788.782	38.28
789.088	40.24
789.393	44.07
789.698	41.76
790.003	40.02
790.308	40.09
790.613	40.67
790.918	41.02
791.223	40.83
791.527	42.23
791.832	41.1
792.137	38.78
792.441	43.21
792.746	40.2
793.05	39.27
793.355	42.9
793.659	37.97
793.963	39.19
794.268	39.96
794.572	39.55
794.876	39.11
795.18	40.85
795.484	41.22
795.788	39.29
796.092	38.32
796.396	42.52
796.7	36.84
797.004	43.92
797.307	40.69
797.611	39.36
797.915	42.36
798.218	44.27
798.522	42.75
798.825	44.17
799.128	38.19
799.432	41.89
799.735	40.22
800.038	41.37
800.341	44
800.644	44
800.947	42.75
801.25	43.2
801.553	42.72
801.856	37.93
802.159	42.98
802.462	43.03
802.764	43.81
803.067	38.81
803.37	42.24
803.672	41.63
803.975	42.51
804.277	40.74
804.579	40.45
804.882	41.81
805.184	42.21
805.486	43.66
805.788	41.15
806.09	44.35
806.392	40.83
806.694	45.24
806.996	42.16
807.298	42.65
807.6	41.15
807.902	44.55
808.203	45.96
808.505	44.11
808.807	44.73
809.108	45.41
809.409	40.48
809.711	42.69
810.012	41.09
810.313	46.37
810.615	42.45
810.916	43.99
811.217	40.55
811.518	39.94
811.819	42.04
812.12	41.27
812.421	43.62
812.722	43.63
813.023	42.69
813.323	43.07
813.624	38.94
813.925	39.69
814.225	39.56
814.526	42.34
814.826	42.76
815.126	40.72
815.427	40.4
815.727	37.46
816.027	42.06
816.327	39.45
816.627	39.61
816.927	40.52
817.227	47.64
817.527	45.03
817.827	43.99
818.127	42.87
818.427	39.7
818.727	48.52
819.026	46.57
819.326	42.56
819.625	43.42
819.925	45.1
820.224	34.84
820.524	46.38
820.823	45.85
821.122	46.29
821.421	42.62
821.72	41.35
822.019	44.85
822.318	44.95
822.617	41.81
822.916	42.35
823.215	42.48
823.514	42.67
823.813	43.4
824.111	42.46
824.41	42.45
824.709	42.43
825.007	41.98
825.306	42.67
825.604	42.18
825.902	43.13
826.201	44.76
826.499	43.32
826.797	43.1
827.095	42.67
827.393	45
827.691	42.96
827.989	45.49
828.287	41.4
828.585	45.56
828.882	43.02
829.18	45.88
829.478	43.85
829.775	42.9
830.073	42.55
830.37	43.49
830.668	44.3
830.965	44.97
831.263	44.53
831.56	41.27
831.857	43.32
832.154	43
832.451	43.91
832.748	45.95
833.045	42.45
833.342	44.5
833.639	46.24
833.936	49.47
834.232	50.06
834.529	48.02
834.826	50.48
835.122	43.67
835.419	41.23
835.715	41.24
836.012	40.45
836.308	41.12
836.604	42.86
836.901	44.24
837.197	44.79
837.493	45.99
837.789	41.9
838.085	45.3
838.381	44.94
838.677	44.3
838.972	42.41
839.268	44.15
839.564	41.07
839.86	44.52
840.155	47.19
840.451	50.11
840.746	47.65
841.042	46.8
841.337	44.08
841.632	49.22
841.928	38.03
842.223	51.05
842.518	38.05
842.813	46.27
843.108	43.14
843.403	46.88
843.698	43.86
843.993	48.08
844.287	41.86
844.582	46.27
844.877	43.46
845.171	46.12
845.466	46.67
845.761	42.67
846.055	32.34
846.349	55.64
846.644	50.47
846.938	45.9
847.232	43.97
847.526	29.29
847.82	57.46
848.114	33.99
848.408	48.67
848.702	36.21
848.996	48.87
849.29	30.98
849.584	48.11
849.877	35.51
850.171	43.94
850.465	48.13
850.758	49.21
851.052	29.48
851.345	42.96
851.638	48.39
851.932	50.15
852.225	39.75
852.518	56.29
852.811	44.83
853.104	41.31
853.397	32.94
853.69	44.66
853.983	59.73
854.276	38.08
854.569	42.21
854.861	35
855.154	39.63
855.447	49.72
855.739	38.06
856.032	50.41
856.324	48.58
856.616	49.08
856.909	35.47
857.201	56.69
857.493	57
857.785	57.25
858.077	54.96
858.369	37.15
858.661	43.2
858.953	44.24
859.245	34.29
859.537	33.37
859.829	44.62
860.12	52.39
860.412	48.72
860.703	54.38
860.995	59.71
861.286	49.26
861.578	68.51
861.869	63.63
862.16	49.13
862.452	42.5
862.743	65.37
863.034	44.26
863.325	36.78
863.616	41.39
863.907	47.7
864.198	34.09
864.488	42.78
864.779	46.77
865.07	44.52
865.36	35.78
865.651	46.81
865.941	46.18
866.232	71.25
866.522	41.94
866.813	15.39
867.103	42.36
867.393	62
867.683	49.83
867.973	41.33
868.263	27.17
868.553	36.51
868.843	47.02
869.133	33.46
869.423	55.44
869.713	30.65
870.002	33.57
870.292	21.22
870.582	37.14
870.871	33.39
871.161	52.08
871.45	40.21
871.739	52.06
872.029	45.78
872.318	51.39
872.607	51.65
872.896	52.38
873.185	37.09
873.474	49.78
873.763	20.19
874.052	39.3
874.341	46.42
874.63	29.44
874.918	59.66
875.207	42.13
875.496	57.88
875.784	51.33
876.073	46.14
876.361	41.07
876.649	30.95
876.938	33.16
877.226	55.09
877.514	39.24
877.802	46.62
878.09	23.48
878.378	54.48
878.666	37.38
878.954	54.62
879.242	54.55
879.53	42.77
879.817	56.81
880.105	51.31
880.392	48.65
880.68	46.45
880.967	53.38
881.255	54.2
881.542	36.89
881.83	53.01
882.117	36.73
882.404	44.45
882.691	25.01
882.978	52.97
883.265	39.3
883.552	38.33
883.839	53.48
884.126	54.54
884.413	44.39
884.699	53.08
884.986	45.29
885.273	45.45
885.559	45.45
885.846	45.45
