Data from 0193_chest_Reflection__2__393.txt Node

Date: Fri Dec 15 20:20:26 CST 2023
User: ToomeyLab
Spectrometer: FLMS14357
Trigger mode: 0
Integration Time (sec): 1.000000E-2
Scans to average: 100
Electric dark correction enabled: true
Nonlinearity correction enabled: false
Boxcar width: 0
XAxis mode: Wavelengths
Number of Pixels in Spectrum: 2048
>>>>>Begin Spectral Data<<<<<
189.047	-291.78
189.435	-291.78
189.823	-291.78
190.211	153.58
190.599	-345.63
190.987	114.01
191.375	-233.52
191.763	-71.85
192.151	649.09
192.538	73.54
192.926	-274.46
193.314	139.32
193.702	259.4
194.089	-218.67
194.477	30.09
194.864	20.13
195.252	119.3
195.639	84.91
196.027	18.47
196.414	131.72
196.801	246.44
197.189	630.93
197.576	-321.26
197.963	10.48
198.351	-27.03
198.738	-12.89
199.125	39.33
199.512	-116.96
199.899	9.33
200.286	34.29
200.673	-5.13
201.06	-4.58
201.447	-51.81
201.833	-26.55
202.22	12.83
202.607	37.23
202.994	-2.26
203.38	50.11
203.767	43.4
204.154	35.38
204.54	34.3
204.927	-64.26
205.313	-70.49
205.699	16.97
206.086	25.07
206.472	31.97
206.858	9.78
207.245	-36.59
207.631	56.15
208.017	31.29
208.403	-15.68
208.789	-3.36
209.175	20.25
209.561	-8.59
209.947	-17.7
210.333	-38.75
210.719	28.81
211.105	33.33
211.491	-104.72
211.876	21.81
212.262	37.04
212.648	-16.01
213.034	14.24
213.419	-11.51
213.805	-4.57
214.19	-61.67
214.576	-15.33
214.961	-99.24
215.346	-116.44
215.732	7.86
216.117	-21.61
216.502	-49.43
216.888	10.83
217.273	12.53
217.658	-29.84
218.043	15.2
218.428	-31.62
218.813	-15.03
219.198	0.91
219.583	-1.23
219.968	5.72
220.353	-27.91
220.738	11.32
221.122	0.64
221.507	-24.77
221.892	3.34
222.276	-10.63
222.661	-20.89
223.046	17.51
223.43	14.68
223.815	7.22
224.199	-15.28
224.583	-10.92
224.968	3.17
225.352	18.3
225.736	-3.28
226.121	-13.71
226.505	-0.29
226.889	6.91
227.273	3.64
227.657	10.27
228.041	-5.66
228.425	-3.33
228.809	4.93
229.193	2.22
229.577	2.45
229.961	4.07
230.344	3.19
230.728	4.11
231.112	4.19
231.495	3.26
231.879	2.69
232.263	4.44
232.646	4.86
233.03	4.89
233.413	1.24
233.797	3.6
234.18	2.77
234.563	3.95
234.946	2.05
235.33	6.09
235.713	4.52
236.096	4.38
236.479	3.45
236.862	2.53
237.245	4.6
237.628	2.88
238.011	5.93
238.394	4.48
238.777	3.65
239.16	1.3
239.543	3.11
239.925	4.57
240.308	4.5
240.691	3
241.073	4.29
241.456	3.51
241.838	1.41
242.221	2.27
242.603	4.95
242.986	3.2
243.368	4.07
243.75	3.95
244.133	3.11
244.515	4.35
244.897	4.04
245.279	3.8
245.661	3.68
246.043	3.19
246.425	1.74
246.807	4.06
247.189	3.43
247.571	3.17
247.953	3.28
248.335	3.54
248.717	4
249.098	3.78
249.48	3.58
249.862	3.52
250.243	3.69
250.625	3.71
251.006	3.1
251.388	2.79
251.769	3.39
252.151	3.47
252.532	3.62
252.913	2.74
253.295	3.12
253.676	3.76
254.057	3.53
254.438	3.63
254.819	2.7
255.2	2.74
255.581	3.53
255.962	3.48
256.343	3.85
256.724	4.6
257.105	2.38
257.486	2.97
257.867	3.5
258.247	3.37
258.628	3.42
259.009	3.23
259.389	3.75
259.77	3.71
260.15	2.73
260.531	2.97
260.911	3.96
261.292	3.27
261.672	3.55
262.052	3.52
262.432	3.71
262.813	3.15
263.193	2.83
263.573	3.58
263.953	2.98
264.333	3.21
264.713	3.54
265.093	3.15
265.473	3.84
265.853	2.34
266.233	3.86
266.612	1.79
266.992	2.37
267.372	3.75
267.752	3.44
268.131	3.44
268.511	4.1
268.89	3.94
269.27	3.13
269.649	2.47
270.029	2.97
270.408	4.12
270.787	3.86
271.167	3.29
271.546	4.2
271.925	2.92
272.304	3.18
272.683	3.97
273.062	3.66
273.441	3.36
273.82	2.33
274.199	3.46
274.578	3.74
274.957	3.61
275.336	3.59
275.715	3.39
276.093	3.36
276.472	3.61
276.851	3.14
277.229	3.01
277.608	2.69
277.986	3.77
278.365	3.63
278.743	2.91
279.122	2.54
279.5	3.9
279.878	3.54
280.257	3.11
280.635	2.1
281.013	2.45
281.391	3.75
281.769	3.49
282.147	3.96
282.525	3.61
282.903	2.47
283.281	3.42
283.659	3.38
284.037	3.1
284.415	3.39
284.792	3.47
285.17	2.46
285.548	2.96
285.925	3.37
286.303	3.41
286.68	3
287.058	2.73
287.435	3.56
287.813	3.42
288.19	2.99
288.567	2.94
288.945	3.96
289.322	3.38
289.699	3.31
290.076	3.37
290.453	2.73
290.83	2.86
291.207	2.99
291.584	3.38
291.961	3.4
292.338	3.36
292.715	3.32
293.092	3.58
293.469	3.47
293.845	3.83
294.222	2.93
294.599	3.29
294.975	2.46
295.352	3.36
295.728	3.08
296.105	3.3
296.481	3.67
296.858	3.09
297.234	3.21
297.61	3.41
297.986	3.73
298.363	3.46
298.739	3.44
299.115	3.52
299.491	3.31
299.867	3.44
300.243	3.24
300.619	3.21
300.995	3.34
301.371	4.11
301.746	2.83
302.122	3.81
302.498	3.1
302.874	3.68
303.249	3.34
303.625	3.27
304	3.57
304.376	3.56
304.751	2.84
305.127	4.37
305.502	3.31
305.878	2.45
306.253	3.08
306.628	4.06
307.003	3.19
307.378	4.15
307.754	3.82
308.129	3.08
308.504	3.37
308.879	3.08
309.254	3.75
309.629	3.91
310.003	3.83
310.378	4.09
310.753	3.51
311.128	3.78
311.502	4.11
311.877	3.57
312.252	3.33
312.626	3.64
313.001	3.33
313.375	4.33
313.75	3.41
314.124	4.02
314.498	3.83
314.873	3.1
315.247	2.97
315.621	3.74
315.995	2.81
316.369	3.62
316.743	3.75
317.117	3.47
317.491	3.15
317.865	3.8
318.239	3.09
318.613	3.9
318.987	3.64
319.361	3.13
319.734	4.01
320.108	3.34
320.482	3.39
320.855	3.83
321.229	3.59
321.602	3.21
321.976	3.71
322.349	3.78
322.723	4.44
323.096	4.71
323.469	2.49
323.843	4
324.216	4.39
324.589	4.13
324.962	3.57
325.335	3.26
325.708	3.82
326.081	3.68
326.454	4.07
326.827	3.74
327.2	3.47
327.573	4.13
327.945	3.36
328.318	3.35
328.691	3.25
329.063	3.61
329.436	3.46
329.809	3.76
330.181	3.79
330.553	3.7
330.926	3.87
331.298	4
331.671	3.62
332.043	4.33
332.415	3.43
332.787	3.47
333.159	4.28
333.532	4.15
333.904	4.02
334.276	3.69
334.648	4.18
335.02	3.45
335.391	3.46
335.763	2.99
336.135	4.2
336.507	4.12
336.879	3.08
337.25	3.67
337.622	3.7
337.993	3.42
338.365	3.4
338.736	3.84
339.108	3.99
339.479	3.01
339.851	3.62
340.222	3.26
340.593	3.94
340.964	3
341.336	4.04
341.707	3.34
342.078	3.62
342.449	4.04
342.82	3.91
343.191	4.1
343.562	3.74
343.933	4.17
344.303	3.59
344.674	3.98
345.045	3.95
345.416	4.24
345.786	3.1
346.157	4.06
346.527	3.37
346.898	3.14
347.268	3.82
347.639	3.96
348.009	3.82
348.38	3.31
348.75	3.91
349.12	3.07
349.49	4.23
349.861	3.86
350.231	3.89
350.601	3.82
350.971	4.19
351.341	4.04
351.711	3.81
352.081	3.71
352.45	3.38
352.82	3.84
353.19	3.47
353.56	3.62
353.929	4.14
354.299	3.68
354.669	3.61
355.038	4.02
355.408	3.55
355.777	3.79
356.147	3.4
356.516	3.76
356.885	3.92
357.254	3.84
357.624	4.25
357.993	3.58
358.362	3.66
358.731	3.68
359.1	3.88
359.469	4.06
359.838	4.3
360.207	3.52
360.576	3.75
360.945	3.94
361.314	3.83
361.682	3.63
362.051	3.51
362.42	4.05
362.788	3.83
363.157	4.1
363.525	4.06
363.894	4.2
364.262	3.79
364.631	3.96
364.999	3.85
365.367	3.29
365.735	4.54
366.104	3.94
366.472	3.79
366.84	3.48
367.208	3.65
367.576	3.81
367.944	3.85
368.312	3.74
368.68	3.77
369.048	4.11
369.416	4.07
369.783	3.68
370.151	3.99
370.519	4.46
370.886	4.07
371.254	4.1
371.621	3.86
371.989	3.99
372.356	3.79
372.724	4.02
373.091	3.79
373.458	3.57
373.826	3.86
374.193	3.77
374.56	4.24
374.927	4.02
375.294	3.72
375.661	3.89
376.028	3.6
376.395	3.46
376.762	3.44
377.129	4.03
377.496	3.69
377.863	4.09
378.229	3.48
378.596	4.29
378.963	3.82
379.329	4.12
379.696	4.1
380.062	4.11
380.429	4
380.795	3.73
381.161	4.03
381.528	4.2
381.894	4
382.26	3.89
382.626	4.05
382.993	4.14
383.359	4.52
383.725	3.87
384.091	3.85
384.457	4.15
384.823	4.11
385.188	4.02
385.554	4.07
385.92	4.44
386.286	4.16
386.651	4.24
387.017	4.26
387.383	4.26
387.748	3.81
388.114	4.22
388.479	4.07
388.845	4.25
389.21	4.21
389.575	4.16
389.94	4.08
390.306	4.05
390.671	4.44
391.036	3.73
391.401	4.06
391.766	4.37
392.131	4.08
392.496	4.4
392.861	3.91
393.226	4.12
393.591	4.23
393.956	4.15
394.32	4.04
394.685	4.11
395.05	3.87
395.414	4.27
395.779	3.87
396.143	4.39
396.508	4.14
396.872	4.24
397.236	4.2
397.601	3.97
397.965	4.11
398.329	4.12
398.694	4.18
399.058	4.12
399.422	4
399.786	4.47
400.15	3.89
400.514	4.41
400.878	4.28
401.242	4.18
401.605	4.42
401.969	4.18
402.333	4.64
402.697	4.22
403.06	4.13
403.424	4.57
403.787	4.12
404.151	4.53
404.514	4.18
404.878	4.09
405.241	4.4
405.604	4.22
405.968	4.36
406.331	4.38
406.694	4.29
407.057	4.38
407.42	4.4
407.783	4.24
408.146	4.36
408.509	4.39
408.872	4.18
409.235	4.2
409.598	4.49
409.961	4.15
410.323	4.3
410.686	4.32
411.049	4.28
411.411	4.27
411.774	4.12
412.136	4.23
412.499	4.29
412.861	4.44
413.223	4.27
413.586	4.38
413.948	4.27
414.31	4.23
414.672	4.18
415.035	4.1
415.397	4.65
415.759	4.18
416.121	4.26
416.483	4.27
416.845	4.34
417.206	4.17
417.568	4.52
417.93	4.15
418.292	4.38
418.653	4.45
419.015	4.51
419.377	4.22
419.738	4.42
420.1	4.39
420.461	4.31
420.822	4.52
421.184	4.22
421.545	4.42
421.906	4.3
422.267	4.37
422.629	4.35
422.99	4.37
423.351	4.31
423.712	4.25
424.073	4.21
424.434	4.3
424.795	4.24
425.155	4.24
425.516	4.32
425.877	4.37
426.238	4.27
426.598	4.4
426.959	4.37
427.32	4.31
427.68	4.32
428.041	4.4
428.401	4.26
428.761	4.37
429.122	4.5
429.482	4.37
429.842	4.43
430.202	4.35
430.563	4.42
430.923	4.35
431.283	4.35
431.643	4.35
432.003	4.56
432.363	4.53
432.722	4.46
433.082	4.49
433.442	4.59
433.802	4.37
434.161	4.49
434.521	4.72
434.881	4.57
435.24	4.36
435.6	4.45
435.959	4.49
436.319	4.39
436.678	4.53
437.037	4.34
437.396	4.55
437.756	4.57
438.115	4.28
438.474	4.69
438.833	4.34
439.192	4.56
439.551	4.67
439.91	4.44
440.269	4.52
440.628	4.42
440.987	4.54
441.345	4.59
441.704	4.55
442.063	4.4
442.421	4.53
442.78	4.41
443.138	4.42
443.497	4.58
443.855	4.51
444.214	4.53
444.572	4.69
444.93	4.67
445.288	4.7
445.647	4.74
446.005	4.45
446.363	4.53
446.721	4.71
447.079	4.52
447.437	4.49
447.795	4.61
448.153	4.5
448.51	4.63
448.868	4.62
449.226	4.57
449.584	4.6
449.941	4.66
450.299	4.49
450.656	4.57
451.014	4.49
451.371	4.6
451.729	4.57
452.086	4.67
452.443	4.75
452.801	4.72
453.158	4.75
453.515	4.57
453.872	4.66
454.229	4.44
454.586	4.76
454.943	4.62
455.3	4.6
455.657	4.61
456.014	4.65
456.371	4.71
456.727	4.64
457.084	4.77
457.441	4.69
457.797	4.82
458.154	4.88
458.51	4.86
458.867	4.84
459.223	4.88
459.58	4.8
459.936	4.83
460.292	4.78
460.648	4.88
461.005	4.83
461.361	4.72
461.717	4.75
462.073	4.63
462.429	4.65
462.785	4.64
463.141	4.59
463.496	4.73
463.852	4.85
464.208	4.73
464.564	4.86
464.919	4.74
465.275	4.88
465.631	4.95
465.986	4.83
466.342	4.77
466.697	4.82
467.052	4.98
467.408	4.66
467.763	4.85
468.118	4.75
468.473	4.82
468.829	4.94
469.184	4.82
469.539	4.74
469.894	4.73
470.249	4.81
470.603	4.89
470.958	5.05
471.313	4.95
471.668	4.86
472.023	4.85
472.377	4.93
472.732	4.73
473.086	4.85
473.441	4.69
473.795	4.97
474.15	4.8
474.504	5.01
474.859	5.1
475.213	4.68
475.567	4.77
475.921	4.81
476.275	5.1
476.63	4.99
476.984	5.11
477.338	4.91
477.692	4.89
478.045	4.93
478.399	5.04
478.753	4.93
479.107	5.15
479.461	4.88
479.814	4.98
480.168	5.01
480.521	4.98
480.875	5.03
481.228	4.93
481.582	4.84
481.935	4.82
482.289	4.94
482.642	5.07
482.995	5
483.348	4.85
483.701	4.94
484.055	5.01
484.408	4.97
484.761	4.9
485.114	4.94
485.466	4.83
485.819	4.78
486.172	4.78
486.525	4.74
486.878	4.76
487.23	4.81
487.583	4.88
487.936	4.95
488.288	4.88
488.641	5.01
488.993	4.95
489.345	4.86
489.698	4.88
490.05	4.76
490.402	4.93
490.754	4.89
491.107	4.9
491.459	5
491.811	5.01
492.163	4.95
492.515	5.02
492.866	5.08
493.218	5.02
493.57	5.04
493.922	4.97
494.274	4.97
494.625	5.07
494.977	5
495.328	5.2
495.68	5.1
496.031	5.25
496.383	5.16
496.734	5.31
497.086	5.33
497.437	5.16
497.788	5.24
498.139	5.23
498.49	5.27
498.842	5.13
499.193	5.22
499.544	5.21
499.894	5.13
500.245	5.26
500.596	5.22
500.947	5.26
501.298	5.16
501.648	5.27
501.999	5.44
502.35	5.21
502.7	5.18
503.051	5.21
503.401	5.24
503.752	5.34
504.102	5.3
504.452	5.35
504.803	5.34
505.153	5.22
505.503	5.37
505.853	5.34
506.203	5.27
506.553	5.26
506.903	5.34
507.253	5.46
507.603	5.33
507.953	5.46
508.303	5.46
508.652	5.31
509.002	5.51
509.352	5.44
509.701	5.42
510.051	5.29
510.4	5.41
510.75	5.35
511.099	5.41
511.449	5.36
511.798	5.36
512.147	5.39
512.496	5.41
512.846	5.51
513.195	5.43
513.544	5.48
513.893	5.54
514.242	5.47
514.591	5.65
514.939	5.41
515.288	5.35
515.637	5.62
515.986	5.56
516.334	5.62
516.683	5.64
517.032	5.64
517.38	5.59
517.729	5.5
518.077	5.43
518.426	5.69
518.774	5.68
519.122	5.62
519.47	5.63
519.819	5.58
520.167	5.67
520.515	5.55
520.863	5.64
521.211	5.65
521.559	5.66
521.907	5.57
522.255	5.69
522.602	5.76
522.95	5.68
523.298	5.77
523.645	5.73
523.993	5.74
524.341	5.92
524.688	5.79
525.036	5.7
525.383	5.85
525.73	5.92
526.078	5.71
526.425	5.86
526.772	5.93
527.119	5.95
527.466	5.83
527.814	5.81
528.161	5.8
528.508	5.74
528.854	5.82
529.201	5.72
529.548	5.75
529.895	5.81
530.242	5.72
530.588	5.7
530.935	5.72
531.282	5.67
531.628	5.66
531.975	5.73
532.321	5.86
532.667	5.92
533.014	5.98
533.36	5.93
533.706	5.98
534.052	6.02
534.399	5.92
534.745	5.96
535.091	5.99
535.437	5.96
535.783	5.96
536.129	5.95
536.474	5.97
536.82	6.02
537.166	5.98
537.512	6.17
537.857	6.07
538.203	6.17
538.549	6.02
538.894	6.01
539.239	6.07
539.585	6.1
539.93	6.08
540.276	6.19
540.621	6.28
540.966	6.35
541.311	6.18
541.656	6.14
542.001	6.29
542.346	6.33
542.691	6.27
543.036	6.24
543.381	6.13
543.726	6.2
544.071	6.18
544.415	6.22
544.76	6.15
545.105	6.31
545.449	6.33
545.794	6.46
546.138	6.35
546.483	6.43
546.827	6.49
547.171	6.41
547.516	6.7
547.86	6.47
548.204	6.55
548.548	6.56
548.892	6.6
549.236	6.57
549.58	6.63
549.924	6.6
550.268	6.7
550.612	6.79
550.956	6.91
551.3	6.64
551.643	6.86
551.987	6.78
552.33	6.8
552.674	6.77
553.017	6.75
553.361	6.81
553.704	6.87
554.048	7.01
554.391	6.81
554.734	6.95
555.077	6.88
555.42	6.93
555.764	6.82
556.107	6.65
556.45	6.73
556.793	6.88
557.135	7
557.478	7.04
557.821	6.97
558.164	6.89
558.507	7.06
558.849	6.96
559.192	7.24
559.534	7.02
559.877	7.23
560.219	7.2
560.562	7.36
560.904	7.24
561.246	7.27
561.589	7.27
561.931	7.07
562.273	7.07
562.615	7.36
562.957	7.29
563.299	7.16
563.641	7.4
563.983	7.53
564.325	7.42
564.667	7.39
565.008	7.5
565.35	7.44
565.692	7.35
566.033	7.5
566.375	7.66
566.716	7.82
567.058	7.53
567.399	7.73
567.741	7.56
568.082	7.62
568.423	7.67
568.764	7.61
569.105	7.78
569.447	7.79
569.788	7.59
570.129	7.81
570.47	7.81
570.811	7.88
571.151	7.86
571.492	7.79
571.833	7.82
572.174	7.83
572.514	7.99
572.855	8.04
573.195	8.08
573.536	8.1
573.876	7.88
574.217	7.91
574.557	8.1
574.898	8.08
575.238	8.28
575.578	7.99
575.918	8.31
576.258	8.09
576.598	8.34
576.938	8.24
577.278	8.35
577.618	8.34
577.958	8.25
578.298	8.22
578.638	8.04
578.977	8.19
579.317	8.35
579.657	8.37
579.996	8.43
580.336	8.57
580.675	8.45
581.014	8.5
581.354	8.56
581.693	8.7
582.032	8.58
582.372	8.7
582.711	8.57
583.05	8.46
583.389	9.05
583.728	8.61
584.067	8.87
584.406	9.01
584.745	8.94
585.083	8.85
585.422	8.88
585.761	9.25
586.1	9
586.438	8.87
586.777	8.78
587.115	9.18
587.454	8.84
587.792	8.87
588.13	9.05
588.469	9.01
588.807	9.16
589.145	9.11
589.483	9.18
589.821	9.17
590.159	9.25
590.497	9.32
590.835	9.82
591.173	9.12
591.511	9.53
591.849	9.37
592.187	9.53
592.524	9.4
592.862	9.61
593.2	9.4
593.537	9.57
593.875	9.31
594.212	9.44
594.55	9.33
594.887	9.56
595.224	9.79
595.561	9.93
595.899	9.82
596.236	9.77
596.573	9.96
596.91	9.49
597.247	9.58
597.584	10.16
597.921	10.04
598.258	9.9
598.594	9.91
598.931	9.9
599.268	9.96
599.604	9.91
599.941	9.98
600.277	9.97
600.614	10.01
600.95	9.6
601.287	10.39
601.623	10.27
601.959	9.76
602.296	10.32
602.632	10.18
602.968	10.5
603.304	10.31
603.64	10.29
603.976	10.34
604.312	10.32
604.648	10.45
604.984	10.65
605.319	10.35
605.655	10.53
605.991	10.54
606.326	10.62
606.662	10.65
606.998	10.53
607.333	10.64
607.668	10.45
608.004	10.78
608.339	10.8
608.674	10.65
609.01	10.43
609.345	10.69
609.68	11.39
610.015	10.91
610.35	10.67
610.685	10.67
611.02	11.13
611.355	11.1
611.689	11.14
612.024	11.07
612.359	10.86
612.694	11.01
613.028	10.96
613.363	11.22
613.697	10.95
614.032	11.11
614.366	11.38
614.7	11.42
615.035	11.51
615.369	11.63
615.703	11.61
616.037	11.5
616.371	11.24
616.705	11.38
617.039	11.61
617.373	11.35
617.707	11.28
618.041	11.79
618.375	11.72
618.709	11.66
619.042	11.21
619.376	12
619.71	11.92
620.043	11.88
620.377	11.99
620.71	11.93
621.043	11.31
621.377	11.7
621.71	11.96
622.043	12.28
622.376	12
622.709	11.9
623.043	12.05
623.376	12.06
623.709	11.97
624.041	12.78
624.374	12.2
624.707	12.51
625.04	12.67
625.373	12.29
625.705	12.25
626.038	12.62
626.37	12.59
626.703	12.62
627.035	12.43
627.368	13.3
627.7	12.72
628.032	12.63
628.365	12.9
628.697	12.89
629.029	12.67
629.361	12.8
629.693	12.92
630.025	12.59
630.357	13.36
630.689	13.27
631.021	13.09
631.353	12.99
631.684	12.88
632.016	12.74
632.348	13.3
632.679	13.12
633.011	13.17
633.342	13.22
633.674	12.99
634.005	13.53
634.336	13.3
634.668	13.58
634.999	13.16
635.33	13.68
635.661	14.17
635.992	13.44
636.323	13.94
636.654	14.17
636.985	13.44
637.316	13.62
637.647	13.19
637.977	13.81
638.308	13.69
638.639	13.54
638.969	13.61
639.3	13.6
639.63	13.61
639.961	13.93
640.291	13.93
640.622	14.1
640.952	14
641.282	14.54
641.612	14.17
641.943	13.88
642.273	13.93
642.603	14.74
642.933	14.37
643.263	14.34
643.592	14.05
643.922	14.33
644.252	14.24
644.582	14.24
644.911	13.36
645.241	14.46
645.571	13.98
645.9	14.28
646.23	14.28
646.559	14.49
646.888	14.46
647.218	14.06
647.547	15.22
647.876	14.98
648.205	14.4
648.534	14.24
648.863	14.23
649.192	14.88
649.521	14.48
649.85	14.51
650.179	14.94
650.508	14.84
650.837	15.27
651.165	14.66
651.494	15.2
651.822	14.6
652.151	15.08
652.479	14.95
652.808	14.59
653.136	15.59
653.465	14.95
653.793	14.78
654.121	15.1
654.449	15.1
654.777	16.08
655.105	15.44
655.433	15.29
655.761	15.39
656.089	15.6
656.417	15.78
656.745	15.6
657.073	15.46
657.4	16.59
657.728	16.09
658.056	15.93
658.383	15.65
658.711	16.02
659.038	15.83
659.365	16.26
659.693	16.35
660.02	15.93
660.347	16.09
660.674	15.97
661.001	16.45
661.329	15.4
661.656	16.46
661.982	16.75
662.309	16.46
662.636	16.23
662.963	16.62
663.29	16.64
663.616	16.48
663.943	16.45
664.27	16.71
664.596	17.07
664.923	16.45
665.249	16.26
665.576	16.65
665.902	17.7
666.228	16.81
666.554	16.92
666.881	16.03
667.207	16.71
667.533	16.81
667.859	16.98
668.185	17.27
668.511	16.48
668.837	16.57
669.162	16.71
669.488	16.56
669.814	17.27
670.139	16.92
670.465	17.68
670.791	17.19
671.116	18.15
671.442	17.01
671.767	17.45
672.092	17.54
672.418	17.5
672.743	17.07
673.068	17.02
673.393	17.27
673.718	17.42
674.043	17.67
674.368	17.17
674.693	17.95
675.018	17.33
675.343	17.38
675.667	17.8
675.992	17.88
676.317	17.68
676.641	17.47
676.966	18.26
677.29	18
677.615	17.89
677.939	18.39
678.264	18.43
678.588	18.34
678.912	17.66
679.236	18.86
679.56	17.76
679.885	18.63
680.209	18.41
680.532	18.29
680.856	18.51
681.18	17.84
681.504	18.39
681.828	18.94
682.152	18.51
682.475	19.33
682.799	18.64
683.122	19.14
683.446	18.09
683.769	18.6
684.093	18.36
684.416	18.72
684.739	18.43
685.062	18.57
685.386	19.21
685.709	17.97
686.032	19.17
686.355	18.77
686.678	19.1
687.001	19.37
687.324	19.19
687.646	18.32
687.969	19.04
688.292	19.14
688.614	19.21
688.937	20.12
689.26	19.43
689.582	19.68
689.904	19.28
690.227	19.73
690.549	19.43
690.871	20.43
691.194	18.97
691.516	18.76
691.838	20.1
692.16	19.07
692.482	19.89
692.804	19.41
693.126	19.87
693.448	19.75
693.769	19.97
694.091	18.93
694.413	19.7
694.735	19.52
695.056	19.74
695.378	19.73
695.699	19.03
696.021	19.81
696.342	19.61
696.663	19.89
696.984	20.27
697.306	19.17
697.627	21.29
697.948	20.96
698.269	20.39
698.59	21.2
698.911	19.77
699.232	20.16
699.553	20.82
699.873	20.89
700.194	21.01
700.515	20.87
700.835	20.62
701.156	20.66
701.477	20.81
701.797	20.41
702.117	21.35
702.438	21.41
702.758	20.67
703.078	20.95
703.398	20.46
703.719	20.51
704.039	19.83
704.359	21.77
704.679	21.46
704.999	20.93
705.319	19.59
705.638	21.32
705.958	21.56
706.278	21.16
706.597	20.77
706.917	22.93
707.237	22.14
707.556	21.23
707.876	21.4
708.195	22.06
708.514	20.67
708.834	21.04
709.153	21.65
709.472	22.66
709.791	22.97
710.11	21.06
710.429	22.36
710.748	22.3
711.067	22.62
711.386	21.81
711.705	22.1
712.023	21.8
712.342	21.57
712.661	21.7
712.979	21.91
713.298	24.1
713.616	22.84
713.935	21.7
714.253	21.27
714.572	22.78
714.89	22.13
715.208	23.43
715.526	22.02
715.844	22.69
716.162	23.28
716.48	23.52
716.798	22.72
717.116	23.11
717.434	22.88
717.752	22.17
718.069	22.49
718.387	23.3
718.705	22.24
719.022	21.62
719.34	23.36
719.657	22.07
719.975	22.6
720.292	22.97
720.609	23.32
720.927	23.13
721.244	23.63
721.561	23.34
721.878	23.75
722.195	22.57
722.512	25.12
722.829	22.61
723.146	24.21
723.463	24.74
723.779	22.29
724.096	24.28
724.413	22.85
724.729	22.36
725.046	22.79
725.362	24.47
725.679	25.02
725.995	22.91
726.311	24.35
726.628	24.81
726.944	24.83
727.26	24.75
727.576	23.59
727.892	24.37
728.208	22.16
728.524	22.6
728.84	22.78
729.156	24.11
729.472	22.88
729.787	22.77
730.103	23.88
730.419	23.28
730.734	22.18
731.05	23.33
731.365	24.17
731.681	25.17
731.996	24.92
732.311	23.19
732.626	26.69
732.942	24.14
733.257	24.8
733.572	25.15
733.887	23.24
734.202	25.35
734.517	26.1
734.832	23.97
735.146	26.29
735.461	25.27
735.776	25.01
736.091	25.93
736.405	25.34
736.72	24.77
737.034	25.52
737.349	27.31
737.663	25.78
737.977	25.15
738.292	23.86
738.606	25.45
738.92	25.55
739.234	24.93
739.548	25.4
739.862	24.28
740.176	25.72
740.49	24.94
740.804	25.65
741.117	25.86
741.431	26.08
741.745	25.09
742.058	26.25
742.372	26.42
742.685	26.19
742.999	24.21
743.312	25.46
743.626	25.2
743.939	25.42
744.252	28
744.565	24.95
744.878	24.51
745.191	24.22
745.505	25.54
745.817	25.64
746.13	26.11
746.443	27.05
746.756	25.92
747.069	24.5
747.381	26.96
747.694	24.95
748.007	26.44
748.319	26.73
748.632	25.24
748.944	25.96
749.256	26.98
749.569	27.34
749.881	26.19
750.193	28.53
750.505	27.06
750.817	26.1
751.129	26.42
751.441	24.81
751.753	26.69
752.065	29.64
752.377	25.67
752.689	26.9
753	25.65
753.312	26.81
753.624	25.18
753.935	28.74
754.247	26.92
754.558	28.36
754.869	28.25
755.181	27.5
755.492	27.83
755.803	26.93
756.114	26.41
756.425	26.72
756.736	26.38
757.047	28.79
757.358	28.66
757.669	26.41
757.98	26.01
758.291	27.28
758.601	26.22
758.912	27.75
759.223	27.71
759.533	27.96
759.844	24.47
760.154	28.86
760.464	29.68
760.775	29.05
761.085	29.08
761.395	28.86
761.705	26.58
762.016	28.56
762.326	28.37
762.636	28.98
762.945	25.51
763.255	28.64
763.565	27.15
763.875	27.17
764.185	28.14
764.494	29.47
764.804	27.37
765.113	28.21
765.423	27.12
765.732	29.16
766.042	27.79
766.351	29.38
766.66	29.5
766.97	30.03
767.279	27.8
767.588	29.71
767.897	30.61
768.206	28.78
768.515	27.75
768.824	27.21
769.133	28.38
769.441	26.52
769.75	28.21
770.059	29.7
770.367	28.3
770.676	30.53
770.984	28.94
771.293	27.08
771.601	31.38
771.91	28.35
772.218	32.19
772.526	30.95
772.834	28.07
773.142	27.64
773.45	28.01
773.758	29.06
774.066	26.3
774.374	28.15
774.682	28.29
774.99	30.87
775.298	28.4
775.605	28.26
775.913	26.72
776.22	32.7
776.528	27.61
776.835	27.59
777.143	30.98
777.45	27.29
777.757	31.42
778.065	29.36
778.372	29.15
778.679	28.93
778.986	30.61
779.293	27.56
779.6	30.56
779.907	31.23
780.214	28.99
780.52	31.12
780.827	33.09
781.134	29.57
781.44	28.75
781.747	28.49
782.053	28.11
782.36	32.44
782.666	30.65
782.973	27.06
783.279	32.02
783.585	31.24
783.891	31.12
784.197	27.97
784.503	31.78
784.809	28.82
785.115	30.5
785.421	32.63
785.727	30.83
786.033	30.68
786.339	27.53
786.644	28.26
786.95	26.54
787.255	27.48
787.561	30.4
787.866	28.58
788.172	31.88
788.477	30.3
788.782	32.63
789.088	31.71
789.393	31.94
789.698	29.39
790.003	25.81
790.308	30.2
790.613	30.54
790.918	34.58
791.223	29.98
791.527	27.36
791.832	32.41
792.137	29.26
792.441	30.07
792.746	31.34
793.05	32.31
793.355	29.53
793.659	31.39
793.963	30.6
794.268	28.88
794.572	31.7
794.876	32.95
795.18	32.5
795.484	28.77
795.788	30.96
796.092	27.27
796.396	30.02
796.7	26.74
797.004	32.33
797.307	26.81
797.611	38.84
797.915	29.16
798.218	34.67
798.522	31.53
798.825	29.68
799.128	31.03
799.432	29.42
799.735	31.44
800.038	34.22
800.341	31.54
800.644	30.82
800.947	29.94
801.25	26.27
801.553	29.16
801.856	28.58
802.159	29.68
802.462	30.78
802.764	32.6
803.067	33.12
803.37	32.33
803.672	25.96
803.975	29.17
804.277	30.1
804.579	27.43
804.882	32.92
805.184	31.41
805.486	29.96
805.788	27.83
806.09	34.42
806.392	34.53
806.694	36.47
806.996	34.12
807.298	32.62
807.6	32.02
807.902	36.44
808.203	32.36
808.505	30.49
808.807	24.78
809.108	31.55
809.409	36.07
809.711	32.02
810.012	33.23
810.313	30.12
810.615	36
810.916	29.53
811.217	29.42
811.518	34.01
811.819	28.86
812.12	27.37
812.421	33.91
812.722	40.54
813.023	30.05
813.323	29.12
813.624	28.35
813.925	40.38
814.225	29.69
814.526	29.89
814.826	35.21
815.126	30.16
815.427	31.74
815.727	32.73
816.027	30.77
816.327	31.11
816.627	29.78
816.927	33.55
817.227	35.11
817.527	30.57
817.827	43.08
818.127	36.02
818.427	27.76
818.727	35.6
819.026	33.55
819.326	35.93
819.625	33.42
819.925	29.37
820.224	31.62
820.524	29.45
820.823	35.63
821.122	29.06
821.421	33.52
821.72	29.92
822.019	37.18
822.318	38.44
822.617	32.66
822.916	33.05
823.215	34.83
823.514	38.78
823.813	33.03
824.111	36.04
824.41	36.96
824.709	37.5
825.007	35.64
825.306	36.09
825.604	36.62
825.902	35.22
826.201	36.46
826.499	35.69
826.797	34.05
827.095	36.46
827.393	34.2
827.691	36.17
827.989	33.36
828.287	33.82
828.585	34.64
828.882	34.08
829.18	34.66
829.478	36.07
829.775	36.79
830.073	35.15
830.37	38.24
830.668	34.46
830.965	36.34
831.263	39.61
831.56	36.04
831.857	33.81
832.154	36.05
832.451	36.14
832.748	37.04
833.045	36.66
833.342	34.43
833.639	33.76
833.936	34.83
834.232	34.95
834.529	34.6
834.826	33.71
835.122	33.61
835.419	31.12
835.715	33.38
836.012	38.01
836.308	35.97
836.604	33.34
836.901	33.77
837.197	34.8
837.493	38.78
837.789	36.07
838.085	35.62
838.381	34.52
838.677	30.94
838.972	31.95
839.268	35.61
839.564	36.14
839.86	39.28
840.155	27.72
840.451	30.16
840.746	34.64
841.042	32.97
841.337	31.5
841.632	38.63
841.928	40.27
842.223	29.85
842.518	18.87
842.813	39.26
843.108	28.49
843.403	44.42
843.698	29.58
843.993	37.39
844.287	23.21
844.582	31.72
844.877	21.01
845.171	22.05
845.466	30.72
845.761	36.56
846.055	28.24
846.349	22.72
846.644	35.11
846.938	28.76
847.232	20.99
847.526	39.13
847.82	42.19
848.114	21.86
848.408	43.33
848.702	25.04
848.996	27.97
849.29	29.18
849.584	35.29
849.877	31.12
850.171	36.46
850.465	17.49
850.758	36.85
851.052	16.93
851.345	39.22
851.638	48.73
851.932	33.86
852.225	6.67
852.518	27.01
852.811	22.28
853.104	-1.76
853.397	75.51
853.69	32.15
853.983	4.28
854.276	36.36
854.569	30.17
854.861	33.46
855.154	38.63
855.447	26.73
855.739	35.74
856.032	35.42
856.324	33.49
856.616	57.36
856.909	24.95
857.201	21.09
857.493	15.04
857.785	9.53
858.077	41.3
858.369	12.72
858.661	19.41
858.953	17.25
859.245	23.55
859.537	24.8
859.829	33.45
860.12	43.19
860.412	19.48
860.703	21.51
860.995	4.52
861.286	5.58
861.578	27.93
861.869	20.21
862.16	17.72
862.452	72.55
862.743	25.6
863.034	10.96
863.325	12.81
863.616	40.15
863.907	44.16
864.198	33.07
864.488	48.27
864.779	16.83
865.07	18.92
865.36	19.3
865.651	27.82
865.941	29.51
866.232	35.4
866.522	13.29
866.813	35.06
867.103	-1.31
867.393	20.79
867.683	27.97
867.973	15.31
868.263	29.17
868.553	48.43
868.843	28.08
869.133	20.49
869.423	43.34
869.713	45.52
870.002	57.42
870.292	54.34
870.582	21.26
870.871	9.59
871.161	22.07
871.45	42.89
871.739	7.86
872.029	-11.68
872.318	29.97
872.607	67.02
872.896	-1.08
873.185	1.89
873.474	18.63
873.763	42.09
874.052	28.43
874.341	43.88
874.63	36.64
874.918	25.45
875.207	63.44
875.496	39.76
875.784	-51.57
876.073	-33.09
876.361	-49.8
876.649	17.86
876.938	-13.95
877.226	32.65
877.514	26.43
877.802	-3.45
878.09	14.38
878.378	30.6
878.666	70.48
878.954	20.86
879.242	39.86
879.53	37.22
879.817	71.69
880.105	29.06
880.392	27.11
880.68	27.41
880.967	33.83
881.255	42.92
881.542	37.4
881.83	-3.4
882.117	37.83
882.404	-6.83
882.691	27.38
882.978	32.96
883.265	40.56
883.552	41.62
883.839	34.68
884.126	23.59
884.413	37.44
884.699	39.25
884.986	47.22
885.273	35.47
885.559	35.47
885.846	35.47
