Data from 0143_forehead_Reflection__0__203.txt Node

Date: Mon Aug 28 20:24:29 CDT 2023
User: ToomeyLab
Spectrometer: FLMS14357
Trigger mode: 0
Integration Time (sec): 1.000000E-2
Scans to average: 100
Electric dark correction enabled: true
Nonlinearity correction enabled: false
Boxcar width: 0
XAxis mode: Wavelengths
Number of Pixels in Spectrum: 2048
>>>>>Begin Spectral Data<<<<<
189.047	1452.77
189.435	1452.77
189.823	1452.77
190.211	98.4
190.599	128.42
190.987	54.36
191.375	151.93
191.763	110.59
192.151	-248.07
192.538	148.59
192.926	114.02
193.314	19.06
193.702	41.05
194.089	139.48
194.477	-90.77
194.864	9.07
195.252	-277.55
195.639	-17.34
196.027	115.36
196.414	156.78
196.801	-912.88
197.189	-54.89
197.576	111.7
197.963	-50.12
198.351	41.97
198.738	28.66
199.125	23.69
199.512	32.74
199.899	9.77
200.286	64.94
200.673	70.19
201.06	16.68
201.447	77
201.833	56.56
202.22	32.63
202.607	19.33
202.994	49.06
203.38	30.12
203.767	37.61
204.154	-22.06
204.54	30.93
204.927	19.17
205.313	37.81
205.699	5.26
206.086	21.01
206.472	53.44
206.858	54.91
207.245	-1.95
207.631	74.89
208.017	14.58
208.403	36.6
208.789	38.87
209.175	-4.03
209.561	16.75
209.947	58.27
210.333	2.99
210.719	76.78
211.105	48.91
211.491	37.19
211.876	21.99
212.262	45.78
212.648	82.09
213.034	3.72
213.419	4.42
213.805	12.74
214.19	9.33
214.576	11.99
214.961	38.07
215.346	17.43
215.732	39.92
216.117	35.32
216.502	31.08
216.888	-3.5
217.273	19.36
217.658	17.82
218.043	0.81
218.428	10.39
218.813	8.53
219.198	9.41
219.583	22.71
219.968	23.58
220.353	-3.18
220.738	7.62
221.122	34.07
221.507	14.77
221.892	24.33
222.276	21.28
222.661	24.66
223.046	19.48
223.43	14.95
223.815	13.4
224.199	27.08
224.583	9.53
224.968	25.21
225.352	28.14
225.736	18.87
226.121	9.4
226.505	6.93
226.889	17.44
227.273	10.38
227.657	14.65
228.041	16.21
228.425	12.4
228.809	9.29
229.193	8.35
229.577	11.05
229.961	5.04
230.344	5.87
230.728	7.42
231.112	7.3
231.495	7.67
231.879	7.49
232.263	8.01
232.646	5.03
233.03	9.74
233.413	10.65
233.797	7.27
234.18	6.14
234.563	7.93
234.946	11.54
235.33	6.5
235.713	6.79
236.096	10.34
236.479	8.93
236.862	9.02
237.245	8.46
237.628	7.3
238.011	9.65
238.394	7.63
238.777	8.81
239.16	7.82
239.543	7.56
239.925	9.4
240.308	7.88
240.691	8.61
241.073	8.39
241.456	6.44
241.838	7.63
242.221	8.95
242.603	8.28
242.986	8.31
243.368	7.28
243.75	6.87
244.133	6.09
244.515	6.76
244.897	7.27
245.279	7.32
245.661	6.8
246.043	7.38
246.425	8.01
246.807	7.59
247.189	7.61
247.571	6.79
247.953	7.06
248.335	7.17
248.717	6.69
249.098	6.75
249.48	6.7
249.862	6.74
250.243	6.65
250.625	7.59
251.006	7.1
251.388	7.31
251.769	7.85
252.151	6.68
252.532	6.76
252.913	8.07
253.295	6.13
253.676	7.1
254.057	7.1
254.438	6.96
254.819	6.7
255.2	6.99
255.581	7.06
255.962	7.32
256.343	9.59
256.724	6.33
257.105	6.73
257.486	7.27
257.867	6.88
258.247	7.19
258.628	6.75
259.009	6.71
259.389	6.19
259.77	7.6
260.15	6.33
260.531	6.74
260.911	6.78
261.292	6.83
261.672	6.78
262.052	6.37
262.432	6.44
262.813	6.65
263.193	6.84
263.573	6.78
263.953	7
264.333	6.63
264.713	6.75
265.093	6.94
265.473	7.1
265.853	6.52
266.233	6.54
266.612	7.83
266.992	6.69
267.372	7.07
267.752	7.44
268.131	7.15
268.511	6.18
268.89	6.66
269.27	5.98
269.649	7.14
270.029	7.07
270.408	6.97
270.787	6.9
271.167	7.02
271.546	6.36
271.925	7.44
272.304	7.06
272.683	7.03
273.062	6.77
273.441	6.83
273.82	6.85
274.199	6.37
274.578	6.53
274.957	6.53
275.336	6.83
275.715	6.67
276.093	6.36
276.472	5.84
276.851	6.84
277.229	7.34
277.608	7.02
277.986	6.71
278.365	7.07
278.743	6.83
279.122	6.17
279.5	6.61
279.878	6.23
280.257	6.4
280.635	6.63
281.013	6.64
281.391	7.02
281.769	6.53
282.147	7.28
282.525	6.9
282.903	7.11
283.281	6.49
283.659	7.14
284.037	6.65
284.415	6.5
284.792	6.58
285.17	6.74
285.548	6.98
285.925	7.26
286.303	6.78
286.68	7.08
287.058	6.95
287.435	6.29
287.813	6.63
288.19	6.98
288.567	6.9
288.945	6.61
289.322	6.54
289.699	7.13
290.076	7.39
290.453	7.2
290.83	6.13
291.207	6.69
291.584	7.43
291.961	7.06
292.338	7.02
292.715	6.61
293.092	7.23
293.469	7.18
293.845	7.3
294.222	7.71
294.599	7.57
294.975	7.58
295.352	7.33
295.728	7.51
296.105	7.85
296.481	7.61
296.858	8.16
297.234	7.41
297.61	7.71
297.986	7.81
298.363	7.79
298.739	7.85
299.115	7.15
299.491	7.74
299.867	7.73
300.243	7.85
300.619	8.03
300.995	8.51
301.371	7.56
301.746	8.49
302.122	8.27
302.498	7.78
302.874	8.43
303.249	8.5
303.625	8.86
304	8.6
304.376	8.66
304.751	8.02
305.127	8.94
305.502	8.51
305.878	8.75
306.253	8.38
306.628	9.2
307.003	9.03
307.378	8.79
307.754	9.59
308.129	9.08
308.504	9.21
308.879	9.38
309.254	9.05
309.629	8.92
310.003	9.76
310.378	8.99
310.753	9.93
311.128	9.72
311.502	9.92
311.877	9.85
312.252	9.83
312.626	9.69
313.001	9.84
313.375	9.95
313.75	9.88
314.124	9.97
314.498	10.26
314.873	10.43
315.247	10.44
315.621	9.82
315.995	11.29
316.369	10.39
316.743	10.31
317.117	10.56
317.491	10.37
317.865	10.26
318.239	11.01
318.613	11.22
318.987	10.95
319.361	11.51
319.734	11.02
320.108	11.06
320.482	11.4
320.855	11.01
321.229	11.21
321.602	11.64
321.976	10.93
322.349	11.37
322.723	11.48
323.096	12.01
323.469	11.17
323.843	11.72
324.216	12.05
324.589	12.5
324.962	11.77
325.335	11.8
325.708	11.73
326.081	12.48
326.454	12.08
326.827	12.11
327.2	12.03
327.573	11.53
327.945	12.81
328.318	12.83
328.691	12.5
329.063	11.77
329.436	12.26
329.809	12.32
330.181	12.09
330.553	12.91
330.926	12.18
331.298	13.22
331.671	12.96
332.043	13.08
332.415	13.63
332.787	12.65
333.159	13.13
333.532	13.13
333.904	13.33
334.276	13.31
334.648	13.13
335.02	13.94
335.391	13.32
335.763	13.43
336.135	13.44
336.507	14.32
336.879	13.71
337.25	14.11
337.622	13.6
337.993	13.7
338.365	13.61
338.736	14.53
339.108	13.45
339.479	13.65
339.851	13.84
340.222	14.18
340.593	14.55
340.964	14.14
341.336	14.62
341.707	13.77
342.078	13.97
342.449	14.47
342.82	14.77
343.191	14.99
343.562	14.61
343.933	14.69
344.303	14.6
344.674	15.19
345.045	14.66
345.416	15.27
345.786	15.64
346.157	15.57
346.527	14.93
346.898	15.28
347.268	14.98
347.639	15.18
348.009	15.21
348.38	15.55
348.75	15.44
349.12	16.04
349.49	15.39
349.861	15.51
350.231	15.55
350.601	16.02
350.971	16.03
351.341	15.94
351.711	16.13
352.081	16.14
352.45	16.46
352.82	16.22
353.19	16.47
353.56	16.25
353.929	16.89
354.299	16.1
354.669	16.5
355.038	16.72
355.408	17.03
355.777	16.69
356.147	16.58
356.516	16.91
356.885	17.35
357.254	17.14
357.624	16.9
357.993	17.1
358.362	17.04
358.731	17.14
359.1	17.11
359.469	17.34
359.838	16.94
360.207	17.15
360.576	17.17
360.945	17.63
361.314	17.79
361.682	17.55
362.051	17.89
362.42	17.28
362.788	17.82
363.157	17.74
363.525	17.65
363.894	18.12
364.262	17.96
364.631	17.8
364.999	18.12
365.367	18.12
365.735	18.44
366.104	18.08
366.472	18.54
366.84	18.86
367.208	18.57
367.576	18.4
367.944	18.81
368.312	18.78
368.68	18.85
369.048	18.8
369.416	19.17
369.783	18.93
370.151	19.01
370.519	19.19
370.886	19.03
371.254	18.75
371.621	19.48
371.989	19.45
372.356	19.85
372.724	20.14
373.091	20.12
373.458	19.6
373.826	20.08
374.193	19.83
374.56	20.06
374.927	19.83
375.294	19.69
375.661	20.21
376.028	19.95
376.395	20.01
376.762	20.22
377.129	20.1
377.496	20.46
377.863	20.71
378.229	20.45
378.596	20.82
378.963	20.76
379.329	20.85
379.696	20.81
380.062	20.62
380.429	20.63
380.795	21.37
381.161	21.01
381.528	21.43
381.894	20.87
382.26	21.13
382.626	21.27
382.993	21.37
383.359	21.61
383.725	21.79
384.091	21.39
384.457	21.76
384.823	21.93
385.188	21.74
385.554	21.77
385.92	21.92
386.286	22
386.651	21.9
387.017	22.26
387.383	22.33
387.748	22.16
388.114	22.19
388.479	22.25
388.845	22.56
389.21	22.15
389.575	22.68
389.94	22.9
390.306	22.6
390.671	22.77
391.036	23.11
391.401	23.11
391.766	22.97
392.131	23.16
392.496	22.93
392.861	23.42
393.226	23.32
393.591	23.24
393.956	23.42
394.32	23.29
394.685	23.61
395.05	23.57
395.414	23.71
395.779	23.43
396.143	23.59
396.508	23.69
396.872	23.6
397.236	23.76
397.601	24.07
397.965	24.13
398.329	24.38
398.694	24.57
399.058	24.39
399.422	24.58
399.786	24.62
400.15	24.53
400.514	24.56
400.878	24.6
401.242	24.74
401.605	24.55
401.969	25
402.333	25.2
402.697	24.75
403.06	25.1
403.424	25.21
403.787	25.16
404.151	25.16
404.514	25.35
404.878	25.34
405.241	25.52
405.604	25.47
405.968	25.43
406.331	25.73
406.694	25.7
407.057	25.57
407.42	25.73
407.783	25.87
408.146	25.99
408.509	25.98
408.872	26.04
409.235	25.98
409.598	26.26
409.961	26.1
410.323	26.43
410.686	26.65
411.049	26.68
411.411	26.8
411.774	26.63
412.136	26.78
412.499	26.65
412.861	26.82
413.223	26.69
413.586	26.8
413.948	27.09
414.31	27.38
414.672	26.95
415.035	26.97
415.397	27.19
415.759	27.47
416.121	27.48
416.483	27.58
416.845	27.55
417.206	27.44
417.568	27.51
417.93	27.53
418.292	27.78
418.653	27.61
419.015	27.57
419.377	27.62
419.738	28.13
420.1	27.85
420.461	27.87
420.822	27.76
421.184	27.74
421.545	27.9
421.906	27.88
422.267	27.93
422.629	27.96
422.99	27.89
423.351	28.04
423.712	27.98
424.073	28.16
424.434	28.3
424.795	28.45
425.155	28.48
425.516	28.48
425.877	28.61
426.238	28.37
426.598	28.49
426.959	28.6
427.32	28.71
427.68	28.8
428.041	28.91
428.401	29.07
428.761	29.16
429.122	29.36
429.482	29.47
429.842	29.74
430.202	29.6
430.563	29.95
430.923	30.01
431.283	30.19
431.643	30.07
432.003	30.05
432.363	30.32
432.722	30.25
433.082	30.25
433.442	30.44
433.802	30.52
434.161	30.52
434.521	30.49
434.881	30.33
435.24	30.49
435.6	30.61
435.959	30.72
436.319	30.77
436.678	30.61
437.037	30.7
437.396	31.07
437.756	31.02
438.115	30.99
438.474	31.15
438.833	31.37
439.192	31.48
439.551	31.2
439.91	31.46
440.269	31.44
440.628	31.42
440.987	31.52
441.345	31.47
441.704	31.46
442.063	31.46
442.421	31.66
442.78	31.57
443.138	31.63
443.497	31.67
443.855	31.87
444.214	32.03
444.572	32.05
444.93	32.16
445.288	32.44
445.647	32.39
446.005	32.46
446.363	32.42
446.721	32.52
447.079	32.56
447.437	32.4
447.795	32.39
448.153	32.53
448.51	32.21
448.868	32.37
449.226	32.49
449.584	32.59
449.941	32.85
450.299	32.78
450.656	33.18
451.014	33.03
451.371	33.15
451.729	33.24
452.086	33.26
452.443	33.85
452.801	33.86
453.158	33.75
453.515	33.83
453.872	33.86
454.229	33.88
454.586	34.13
454.943	33.93
455.3	34.07
455.657	34.23
456.014	34.4
456.371	34.44
456.727	34.4
457.084	34.37
457.441	34.78
457.797	34.75
458.154	34.77
458.51	34.9
458.867	34.8
459.223	34.92
459.58	34.92
459.936	34.95
460.292	35.14
460.648	34.98
461.005	34.87
461.361	34.86
461.717	34.7
462.073	34.71
462.429	34.73
462.785	35.19
463.141	35.27
463.496	35.23
463.852	35.52
464.208	35.78
464.564	35.79
464.919	35.73
465.275	36.04
465.631	36.09
465.986	36.34
466.342	36.2
466.697	36.41
467.052	36.31
467.408	36.25
467.763	36.79
468.118	36.47
468.473	36.49
468.829	36.95
469.184	36.72
469.539	36.72
469.894	36.74
470.249	36.81
470.603	37.11
470.958	37.22
471.313	37.04
471.668	37.1
472.023	37.37
472.377	37.36
472.732	37.35
473.086	37.46
473.441	37.55
473.795	37.69
474.15	37.64
474.504	37.59
474.859	37.83
475.213	37.64
475.567	37.83
475.921	38.1
476.275	38.05
476.63	38.4
476.984	38.04
477.338	38.28
477.692	38.2
478.045	38.38
478.399	38.67
478.753	38.22
479.107	38.53
479.461	38.54
479.814	38.78
480.168	38.53
480.521	38.77
480.875	38.74
481.228	38.64
481.582	38.69
481.935	38.95
482.289	38.76
482.642	39
482.995	39.14
483.348	38.85
483.701	38.83
484.055	38.88
484.408	38.62
484.761	38.55
485.114	38.56
485.466	38.07
485.819	38.06
486.172	38.16
486.525	38.34
486.878	38.46
487.23	38.39
487.583	38.58
487.936	38.87
488.288	38.99
488.641	39.06
488.993	38.86
489.345	38.66
489.698	38.67
490.05	38.72
490.402	38.86
490.754	38.96
491.107	39.28
491.459	39.6
491.811	39.75
492.163	39.85
492.515	39.93
492.866	40.03
493.218	39.82
493.57	39.56
493.922	39.6
494.274	39.76
494.625	39.8
494.977	40.26
495.328	40.53
495.68	40.84
496.031	40.99
496.383	41.42
496.734	41.47
497.086	41.28
497.437	41.64
497.788	41.61
498.139	41.86
498.49	41.58
498.842	41.6
499.193	41.46
499.544	41.61
499.894	41.78
500.245	41.65
500.596	41.79
500.947	41.84
501.298	42.02
501.648	42.16
501.999	42.33
502.35	42.37
502.7	42.6
503.051	42.57
503.401	42.76
503.752	42.86
504.102	42.67
504.452	42.81
504.803	43.02
505.153	43.04
505.503	42.75
505.853	42.91
506.203	43.07
506.553	43.09
506.903	43.18
507.253	43.21
507.603	43.3
507.953	43.32
508.303	43.4
508.652	43.34
509.002	43.57
509.352	43.42
509.701	43.66
510.051	43.55
510.4	43.6
510.75	43.59
511.099	43.77
511.449	43.59
511.798	43.68
512.147	43.92
512.496	43.97
512.846	43.86
513.195	43.83
513.544	44.14
513.893	44.03
514.242	44.12
514.591	44.12
514.939	44.37
515.288	44.2
515.637	44.47
515.986	44.24
516.334	44.61
516.683	44.79
517.032	44.9
517.38	45.03
517.729	44.83
518.077	44.99
518.426	44.79
518.774	45.07
519.122	45
519.47	44.96
519.819	44.98
520.167	44.77
520.515	44.8
520.863	44.57
521.211	44.82
521.559	44.74
521.907	45.19
522.255	45.15
522.602	45.55
522.95	45.69
523.298	45.96
523.645	45.86
523.993	45.98
524.341	46.14
524.688	46.08
525.036	46.14
525.383	46.15
525.73	46.14
526.078	46.24
526.425	45.95
526.772	46.22
527.119	45.97
527.466	45.76
527.814	45.83
528.161	45.92
528.508	45.9
528.854	46.09
529.201	46.14
529.548	45.98
529.895	45.85
530.242	45.59
530.588	45.69
530.935	45.76
531.282	45.78
531.628	45.74
531.975	45.82
532.321	46.06
532.667	46.25
533.014	46.59
533.36	46.74
533.706	46.83
534.052	47.23
534.399	46.84
534.745	47.02
535.091	46.65
535.437	46.4
535.783	46.59
536.129	46.73
536.474	46.93
536.82	47.3
537.166	47.56
537.512	47.53
537.857	47.93
538.203	47.66
538.549	47.48
538.894	47.54
539.239	47.52
539.585	47.74
539.93	48.05
540.276	48.14
540.621	48.5
540.966	48.29
541.311	48.53
541.656	48.46
542.001	48.77
542.346	48.41
542.691	48.31
543.036	47.96
543.381	47.9
543.726	47.99
544.071	47.94
544.415	48.14
544.76	48.19
545.105	48.32
545.449	48.36
545.794	48.72
546.138	49.02
546.483	48.99
546.827	49.07
547.171	49.07
547.516	49.58
547.86	49.57
548.204	49.8
548.548	49.58
548.892	49.34
549.236	49.45
549.58	49.76
549.924	49.67
550.268	50.13
550.612	49.98
550.956	50.23
551.3	50.33
551.643	50.74
551.987	50.49
552.33	50.77
552.674	50.91
553.017	50.86
553.361	50.97
553.704	50.81
554.048	51.16
554.391	51.14
554.734	50.89
555.077	51
555.42	50.86
555.764	51.18
556.107	51.15
556.45	51.18
556.793	51.33
557.135	51.46
557.478	51.54
557.821	51.88
558.164	51.56
558.507	51.68
558.849	51.94
559.192	51.96
559.534	51.88
559.877	52.05
560.219	52.13
560.562	52.09
560.904	52.45
561.246	52.47
561.589	52.16
561.931	52.37
562.273	52.44
562.615	52.56
562.957	52.33
563.299	52.63
563.641	52.34
563.983	52.9
564.325	52.7
564.667	52.73
565.008	52.79
565.35	53.2
565.692	53.21
566.033	52.91
566.375	53.12
566.716	52.94
567.058	52.94
567.399	52.99
567.741	53.23
568.082	52.98
568.423	52.75
568.764	52.94
569.105	53.28
569.447	53.17
569.788	53.27
570.129	53.29
570.47	53.34
570.811	53.84
571.151	53.67
571.492	53.77
571.833	53.73
572.174	53.87
572.514	53.84
572.855	53.75
573.195	53.96
573.536	53.67
573.876	53.71
574.217	53.75
574.557	53.72
574.898	53.85
575.238	53.76
575.578	53.92
575.918	53.94
576.258	54.13
576.598	54.49
576.938	54.34
577.278	54.41
577.618	54.28
577.958	54.56
578.298	54.57
578.638	54.74
578.977	54.95
579.317	54.97
579.657	54.9
579.996	54.96
580.336	55.12
580.675	55.54
581.014	55.6
581.354	55.2
581.693	55.64
582.032	55.68
582.372	55.81
582.711	55.56
583.05	55.62
583.389	55.85
583.728	55.75
584.067	55.91
584.406	55.98
584.745	55.95
585.083	55.86
585.422	56.1
585.761	55.95
586.1	56.34
586.438	56.16
586.777	56.45
587.115	56.49
587.454	56.79
587.792	56.53
588.13	56.34
588.469	56.46
588.807	56.48
589.145	56.39
589.483	56.63
589.821	56.97
590.159	57.06
590.497	56.96
590.835	56.58
591.173	56.5
591.511	56.72
591.849	57.02
592.187	57.15
592.524	57.31
592.862	57.3
593.2	56.96
593.537	56.95
593.875	57.26
594.212	57.26
594.55	57.3
594.887	57.34
595.224	57.55
595.561	57.26
595.899	57.29
596.236	57.73
596.573	57.56
596.91	57.53
597.247	57.37
597.584	57.36
597.921	57.08
598.258	57.91
598.594	57.46
598.931	57.37
599.268	57.24
599.604	57.46
599.941	57.88
600.277	57.9
600.614	58.21
600.95	57.9
601.287	58.3
601.623	58.36
601.959	58.44
602.296	58.56
602.632	58.87
602.968	58.43
603.304	58.28
603.64	58.73
603.976	58.69
604.312	58.52
604.648	59.08
604.984	58.67
605.319	58.53
605.655	58.66
605.991	58.7
606.326	58.62
606.662	58.66
606.998	58.63
607.333	58.56
607.668	58.61
608.004	58.41
608.339	58.95
608.674	59.09
609.01	59.31
609.345	59.4
609.68	59.55
610.015	59.54
610.35	59.9
610.685	59.85
611.02	59.3
611.355	59.55
611.689	59
612.024	59.36
612.359	59.2
612.694	59.66
613.028	59.54
613.363	59.5
613.697	59.57
614.032	60.24
614.366	60.04
614.7	59.97
615.035	60.42
615.369	60.89
615.703	60.34
616.037	60.33
616.371	60.5
616.705	60.55
617.039	60.46
617.373	60.11
617.707	60.16
618.041	61.07
618.375	60.73
618.709	60.87
619.042	61.24
619.376	60.68
619.71	61.09
620.043	60.9
620.377	60.66
620.71	60.97
621.043	61.36
621.377	61.35
621.71	60.8
622.043	60.67
622.376	61.15
622.709	61.56
623.043	61.41
623.376	61.17
623.709	61.55
624.041	61.1
624.374	61.15
624.707	60.89
625.04	61.67
625.373	61.41
625.705	61.87
626.038	61.76
626.37	61.94
626.703	61.71
627.035	61.77
627.368	61.49
627.7	61.72
628.032	62.08
628.365	61.69
628.697	62.18
629.029	61.65
629.361	61.84
629.693	61.79
630.025	61.77
630.357	62
630.689	62.24
631.021	62.03
631.353	62.23
631.684	62.09
632.016	62.11
632.348	62.34
632.679	62.82
633.011	62.4
633.342	62.07
633.674	62.39
634.005	62.36
634.336	62.62
634.668	62.48
634.999	62.82
635.33	62.82
635.661	62.66
635.992	63.22
636.323	62.56
636.654	62.96
636.985	62.76
637.316	62.27
637.647	63.07
637.977	62.78
638.308	63.63
638.639	63.35
638.969	63.67
639.3	63.31
639.63	63.5
639.961	63.26
640.291	63.47
640.622	63.66
640.952	63.41
641.282	63.16
641.612	64.1
641.943	63.86
642.273	64.07
642.603	64.02
642.933	63.5
643.263	63.61
643.592	63.74
643.922	63.87
644.252	63.59
644.582	63.59
644.911	63.7
645.241	64.16
645.571	64.43
645.9	63.67
646.23	63.98
646.559	64.45
646.888	64.45
647.218	64.41
647.547	64.92
647.876	64.38
648.205	64.48
648.534	65.17
648.863	64.62
649.192	64.49
649.521	64.58
649.85	64.71
650.179	64.88
650.508	64.2
650.837	64.13
651.165	64.88
651.494	64.78
651.822	64.22
652.151	64.4
652.479	65.6
652.808	65.31
653.136	64.94
653.465	64.78
653.793	64.84
654.121	65.26
654.449	64.59
654.777	64.89
655.105	65.13
655.433	65.11
655.761	65.46
656.089	65.57
656.417	65.19
656.745	65.08
657.073	65.47
657.4	65.85
657.728	65.88
658.056	65.84
658.383	65.52
658.711	65.91
659.038	65.67
659.365	65.44
659.693	65.38
660.02	65.53
660.347	65.74
660.674	66.09
661.001	65.71
661.329	65.43
661.656	65.44
661.982	65.93
662.309	65.84
662.636	66.12
662.963	66.27
663.29	65.76
663.616	65.94
663.943	65.86
664.27	65.96
664.596	65.07
664.923	66.2
665.249	66.36
665.576	66.42
665.902	66.09
666.228	65.54
666.554	66.29
666.881	66.2
667.207	65.21
667.533	66.38
667.859	66.37
668.185	66.64
668.511	66.55
668.837	66.54
669.162	66.69
669.488	66.57
669.814	67.2
670.139	66.69
670.465	67.09
670.791	66.66
671.116	66.85
671.442	66.81
671.767	66.43
672.092	67.5
672.418	67.06
672.743	66.85
673.068	66.77
673.393	67.01
673.718	67.46
674.043	66.97
674.368	67.51
674.693	66.79
675.018	67.03
675.343	67.45
675.667	66.29
675.992	66.85
676.317	66.97
676.641	67.25
676.966	67.65
677.29	66.99
677.615	67.9
677.939	67.55
678.264	66.88
678.588	66.75
678.912	67.92
679.236	67.11
679.56	67.57
679.885	67.75
680.209	67.69
680.532	67.73
680.856	67.33
681.18	67.75
681.504	67.43
681.828	68.32
682.152	67.7
682.475	67.69
682.799	67.83
683.122	67.52
683.446	67.72
683.769	68.01
684.093	68.6
684.416	68.89
684.739	68.13
685.062	68.41
685.386	68.01
685.709	68.46
686.032	68.26
686.355	68.29
686.678	69.09
687.001	67.99
687.324	69.62
687.646	69.32
687.969	68.74
688.292	69.11
688.614	67.98
688.937	68.76
689.26	68.49
689.582	68.76
689.904	68.74
690.227	69.03
690.549	68.31
690.871	69.51
691.194	69.26
691.516	68.62
691.838	69.1
692.16	67.84
692.482	68.14
692.804	68.39
693.126	68.52
693.448	68.7
693.769	68.16
694.091	69.15
694.413	68.93
694.735	68.84
695.056	68.73
695.378	70.27
695.699	69.5
696.021	68.6
696.342	69.22
696.663	68.62
696.984	69.12
697.306	69.47
697.627	69.54
697.948	69.18
698.269	69.44
698.59	69.76
698.911	68.49
699.232	69.42
699.553	69.54
699.873	68.94
700.194	68.65
700.515	69.83
700.835	69.29
701.156	69.17
701.477	69.36
701.797	69.3
702.117	68.74
702.438	69.46
702.758	69.37
703.078	69.38
703.398	70.46
703.719	70.29
704.039	70.47
704.359	69.54
704.679	70.89
704.999	70.52
705.319	70.53
705.638	70.13
705.958	70.58
706.278	70.05
706.597	69.67
706.917	69.96
707.237	69.85
707.556	69.71
707.876	70.33
708.195	70.65
708.514	70.44
708.834	69.55
709.153	69.71
709.472	70.21
709.791	69.08
710.11	69.88
710.429	70.32
710.748	70.71
711.067	68.95
711.386	70.85
711.705	71.46
712.023	69.68
712.342	71.35
712.661	70.95
712.979	70.22
713.298	70.76
713.616	70.77
713.935	71.22
714.253	69.78
714.572	70.48
714.89	72.52
715.208	70.57
715.526	70.61
715.844	70.86
716.162	71.24
716.48	71.65
716.798	69.62
717.116	71.41
717.434	70.78
717.752	70.91
718.069	70.85
718.387	70.61
718.705	69.69
719.022	70.93
719.34	71.16
719.657	70.27
719.975	70.54
720.292	70.07
720.609	70.34
720.927	70.23
721.244	71.34
721.561	69.98
721.878	71.66
722.195	71.03
722.512	70.78
722.829	71.29
723.146	70.59
723.463	71.54
723.779	71.22
724.096	71.22
724.413	70.77
724.729	71.44
725.046	71.26
725.362	71.23
725.679	70.97
725.995	71.68
726.311	72.29
726.628	72.58
726.944	71.56
727.26	71.75
727.576	70.85
727.892	72.06
728.208	70.97
728.524	72.83
728.84	71.62
729.156	71.02
729.472	70.9
729.787	72.1
730.103	72.81
730.419	72.8
730.734	72.15
731.05	70.43
731.365	71.99
731.681	72.22
731.996	71.53
732.311	70.29
732.626	72.28
732.942	72.88
733.257	72.09
733.572	71.89
733.887	72.11
734.202	73.47
734.517	73.48
734.832	72.6
735.146	74
735.461	71.97
735.776	71.73
736.091	70.21
736.405	73.91
736.72	73.53
737.034	71.7
737.349	72.07
737.663	72.49
737.977	72.53
738.292	71.73
738.606	72.55
738.92	72.68
739.234	72.46
739.548	71.67
739.862	73.76
740.176	73.13
740.49	72.2
740.804	72.13
741.117	73.05
741.431	72.69
741.745	71.71
742.058	73.03
742.372	71.77
742.685	72.92
742.999	73.64
743.312	73.87
743.626	72.24
743.939	73.68
744.252	70.95
744.565	72.55
744.878	71.24
745.191	71.45
745.505	72.84
745.817	73.46
746.13	71.87
746.443	70.81
746.756	74.83
747.069	72.57
747.381	74.67
747.694	75.76
748.007	72.72
748.319	71.3
748.632	73.27
748.944	74.76
749.256	73.24
749.569	72.28
749.881	73.37
750.193	74.31
750.505	73.14
750.817	73.76
751.129	73.75
751.441	72.68
751.753	71.8
752.065	74.18
752.377	73.54
752.689	71.26
753	72.49
753.312	73.83
753.624	75.15
753.935	72.83
754.247	72.78
754.558	74.5
754.869	73.43
755.181	72.17
755.492	72.29
755.803	73.34
756.114	74.88
756.425	72.48
756.736	73.18
757.047	74.88
757.358	72.44
757.669	74.45
757.98	74.05
758.291	72.67
758.601	74.3
758.912	74.74
759.223	75.44
759.533	75.54
759.844	71.63
760.154	74.45
760.464	72.42
760.775	75.39
761.085	74.1
761.395	73.24
761.705	73.1
762.016	75.57
762.326	73.78
762.636	74.02
762.945	72.52
763.255	74.64
763.565	74.66
763.875	76.13
764.185	72.42
764.494	74.4
764.804	74.98
765.113	73.72
765.423	75.21
765.732	74.29
766.042	74.15
766.351	74.6
766.66	75.41
766.97	74.69
767.279	74.41
767.588	75.17
767.897	75.56
768.206	73.95
768.515	74.27
768.824	75.86
769.133	74
769.441	73.65
769.75	77.56
770.059	74.27
770.367	76.09
770.676	73.76
770.984	74.1
771.293	75.79
771.601	75.42
771.91	75.23
772.218	73.9
772.526	72.51
772.834	74.64
773.142	74.51
773.45	73.72
773.758	78.55
774.066	73.29
774.374	72.47
774.682	75.43
774.99	71.51
775.298	73.32
775.605	76.84
775.913	75.55
776.22	76.14
776.528	75.96
776.835	75.38
777.143	74.21
777.45	74.76
777.757	76.84
778.065	74.44
778.372	76.68
778.679	71.36
778.986	72.42
779.293	73.85
779.6	75.53
779.907	74.63
780.214	72.24
780.52	75.3
780.827	76.77
781.134	76.59
781.44	77.19
781.747	73.3
782.053	74.4
782.36	72.85
782.666	73.11
782.973	72.3
783.279	76.64
783.585	72.81
783.891	74.73
784.197	72.38
784.503	77.15
784.809	76.4
785.115	77.7
785.421	74.5
785.727	77.36
786.033	75.6
786.339	76.37
786.644	73.67
786.95	73.48
787.255	73.68
787.561	77.09
787.866	76.22
788.172	80.58
788.477	75.87
788.782	75.18
789.088	74.32
789.393	73.37
789.698	77.32
790.003	75.86
790.308	76.68
790.613	78.47
790.918	73.6
791.223	77.37
791.527	75.7
791.832	75.22
792.137	75.96
792.441	77.86
792.746	72.23
793.05	74.08
793.355	75.69
793.659	74.82
793.963	71.56
794.268	74.46
794.572	75.43
794.876	75.46
795.18	77.26
795.484	76.94
795.788	75.61
796.092	75.97
796.396	76.19
796.7	71.13
797.004	77.9
797.307	75.74
797.611	81.27
797.915	77.28
798.218	78.87
798.522	75.94
798.825	78.17
799.128	75.99
799.432	81.13
799.735	74.68
800.038	77.08
800.341	78.68
800.644	78.04
800.947	78.56
801.25	77.04
801.553	74.69
801.856	77.07
802.159	76.41
802.462	79.95
802.764	79.68
803.067	75.72
803.37	74.61
803.672	74.21
803.975	73.04
804.277	74.69
804.579	73.41
804.882	77.07
805.184	73.62
805.486	77.58
805.788	74.48
806.09	77.11
806.392	77.35
806.694	81.07
806.996	76.85
807.298	73.78
807.6	72.49
807.902	75.67
808.203	78.5
808.505	76.61
808.807	77.25
809.108	79.8
809.409	74.25
809.711	80.57
810.012	75.97
810.313	72.6
810.615	74.24
810.916	78.06
811.217	77.12
811.518	77.72
811.819	78.12
812.12	80.95
812.421	75.37
812.722	83.61
813.023	74.9
813.323	71.54
813.624	77.67
813.925	78.87
814.225	74.52
814.526	77.51
814.826	82.78
815.126	76.43
815.427	80.61
815.727	75.31
816.027	79.45
816.327	75.97
816.627	82.6
816.927	78.7
817.227	76.16
817.527	72.59
817.827	86.94
818.127	76.3
818.427	68.48
818.727	76.15
819.026	81.9
819.326	81.25
819.625	74.85
819.925	79.82
820.224	77.02
820.524	74.21
820.823	73.39
821.122	77.25
821.421	79.29
821.72	74.33
822.019	83.37
822.318	75.15
822.617	77.25
822.916	75.38
823.215	76.16
823.514	78.47
823.813	80.95
824.111	80.72
824.41	78.62
824.709	79.61
825.007	78.86
825.306	78.86
825.604	78.06
825.902	78.27
826.201	77.79
826.499	79.17
826.797	78.33
827.095	77.82
827.393	79.17
827.691	79.26
827.989	78.69
828.287	79.68
828.585	78.29
828.882	76.62
829.18	76.96
829.478	77.02
829.775	77.23
830.073	78.64
830.37	79.42
830.668	78.61
830.965	78.79
831.263	79.11
831.56	79.65
831.857	79.43
832.154	80.61
832.451	77.56
832.748	75.35
833.045	79.19
833.342	78.92
833.639	74.34
833.936	80.63
834.232	79.67
834.529	73.99
834.826	74.17
835.122	77.48
835.419	79.97
835.715	77.24
836.012	76.23
836.308	80.78
836.604	77.9
836.901	76.6
837.197	77.5
837.493	77.56
837.789	78.41
838.085	79.05
838.381	80.01
838.677	81.54
838.972	81.37
839.268	78.69
839.564	76.17
839.86	78.43
840.155	83.22
840.451	80.42
840.746	78.92
841.042	72.01
841.337	74.97
841.632	74.46
841.928	76.22
842.223	73.38
842.518	78.06
842.813	74.09
843.108	83.67
843.403	79.05
843.698	76.15
843.993	74.48
844.287	76.77
844.582	76.32
844.877	78.48
845.171	76.85
845.466	82.98
845.761	89.57
846.055	86.94
846.349	83.62
846.644	81.94
846.938	78.98
847.232	86.16
847.526	75.37
847.82	71.48
848.114	70.24
848.408	74.56
848.702	75.05
848.996	74.37
849.29	83
849.584	72.27
849.877	77.81
850.171	67.19
850.465	85.87
850.758	71.33
851.052	78.12
851.345	68.03
851.638	69.95
851.932	72.57
852.225	70.38
852.518	77.2
852.811	73.74
853.104	74.43
853.397	68.72
853.69	70.97
853.983	78.07
854.276	77.64
854.569	59.41
854.861	60.76
855.154	73.02
855.447	79.49
855.739	83.05
856.032	70.36
856.324	75.24
856.616	77.59
856.909	59.54
857.201	74.85
857.493	81.74
857.785	106.81
858.077	64.49
858.369	75.51
858.661	90.55
858.953	89.78
859.245	75.65
859.537	92.59
859.829	84.14
860.12	85.44
860.412	74.73
860.703	95.2
860.995	69.06
861.286	68.56
861.578	70.09
861.869	70.85
862.16	69.53
862.452	86.04
862.743	85.63
863.034	74
863.325	71.13
863.616	78.69
863.907	80.66
864.198	83.41
864.488	71.52
864.779	77.88
865.07	75.84
865.36	96.8
865.651	85.87
865.941	70.48
866.232	61.34
866.522	71.15
866.813	70.35
867.103	66.41
867.393	59.77
867.683	84.47
867.973	83.4
868.263	98.17
868.553	66.25
868.843	80.34
869.133	74.89
869.423	67.1
869.713	80.93
870.002	60.9
870.292	75.01
870.582	71.72
870.871	90.2
871.161	90.89
871.45	83.77
871.739	69.2
872.029	63.4
872.318	72.85
872.607	67.28
872.896	77.15
873.185	72.39
873.474	67.46
873.763	87.47
874.052	78.48
874.341	66.1
874.63	64.01
874.918	73.12
875.207	89.13
875.496	98.88
875.784	90.7
876.073	69.62
876.361	82.99
876.649	79.57
876.938	79.03
877.226	65.24
877.514	74.75
877.802	82.43
878.09	70.84
878.378	102.86
878.666	99.57
878.954	74.12
879.242	47.39
879.53	69.98
879.817	87.41
880.105	75.48
880.392	68.72
880.68	68.94
880.967	85.99
881.255	106.26
881.542	78.71
881.83	62.73
882.117	86.68
882.404	74.36
882.691	56.42
882.978	96.66
883.265	87.82
883.552	94.7
883.839	74.33
884.126	100.55
884.413	64.68
884.699	74.12
884.986	81.94
885.273	81.7
885.559	81.7
885.846	81.7
