Data from 0178_chest_Reflection__2__033.txt Node

Date: Mon Aug 28 18:54:40 CDT 2023
User: ToomeyLab
Spectrometer: FLMS14357
Trigger mode: 0
Integration Time (sec): 1.000000E-2
Scans to average: 100
Electric dark correction enabled: true
Nonlinearity correction enabled: false
Boxcar width: 0
XAxis mode: Wavelengths
Number of Pixels in Spectrum: 2048
>>>>>Begin Spectral Data<<<<<
189.047	56.1
189.435	56.1
189.823	56.1
190.211	-5648.84
190.599	55.74
190.987	-559.25
191.375	81.5
191.763	64.68
192.151	-10.18
192.538	183.49
192.926	1.64
193.314	867.49
193.702	217.66
194.089	112.22
194.477	4363.53
194.864	184.75
195.252	35.19
195.639	681.2
196.027	109.87
196.414	68.33
196.801	125.17
197.189	71.21
197.576	-69.45
197.963	50.96
198.351	-70.72
198.738	88.71
199.125	-22.59
199.512	0.19
199.899	2.77
200.286	-78.43
200.673	4.99
201.06	13.53
201.447	-105.27
201.833	-32.96
202.22	-7.81
202.607	-40.64
202.994	38.72
203.38	5.38
203.767	-21.29
204.154	-9.45
204.54	-8.71
204.927	-11.57
205.313	16.66
205.699	-7.69
206.086	36.36
206.472	23.09
206.858	-18.6
207.245	22.24
207.631	10.5
208.017	16.48
208.403	18.45
208.789	21.14
209.175	-40.33
209.561	13.7
209.947	21.11
210.333	4.57
210.719	36.02
211.105	25.81
211.491	-31.61
211.876	41.77
212.262	-46.62
212.648	0.19
213.034	-16.25
213.419	4.07
213.805	32.2
214.19	-16.66
214.576	-5.47
214.961	34.27
215.346	-3.1
215.732	9.13
216.117	7.82
216.502	-15.6
216.888	0.76
217.273	-8.87
217.658	-11.6
218.043	6.18
218.428	9.64
218.813	11.08
219.198	-8.75
219.583	4.21
219.968	22.9
220.353	-21.78
220.738	9.37
221.122	5.15
221.507	-13.28
221.892	-4.27
222.276	-2.24
222.661	4.63
223.046	1.92
223.43	13.42
223.815	1.52
224.199	14.08
224.583	9.24
224.968	3
225.352	6.48
225.736	4.63
226.121	6.84
226.505	1.03
226.889	5.1
227.273	16.23
227.657	2.01
228.041	0.1
228.425	6.11
228.809	2.75
229.193	3.89
229.577	4.63
229.961	4.46
230.344	3.62
230.728	2.84
231.112	2.99
231.495	3.66
231.879	2.41
232.263	3.26
232.646	1.5
233.03	3.97
233.413	4.9
233.797	1.82
234.18	0.83
234.563	1.71
234.946	4.24
235.33	3.25
235.713	1.13
236.096	2.66
236.479	3.55
236.862	5.83
237.245	2.5
237.628	4.04
238.011	5.81
238.394	4.33
238.777	5.07
239.16	2.25
239.543	1.78
239.925	5.29
240.308	3.13
240.691	2.04
241.073	2.97
241.456	2.07
241.838	3.21
242.221	4.8
242.603	4.43
242.986	4.56
243.368	3.54
243.75	3.03
244.133	3.14
244.515	3.12
244.897	3.51
245.279	3.36
245.661	2.58
246.043	3.74
246.425	2.68
246.807	4.69
247.189	3.57
247.571	3.94
247.953	2.95
248.335	3.32
248.717	3.19
249.098	3.43
249.48	3.36
249.862	3.33
250.243	3.47
250.625	4.12
251.006	3.4
251.388	4
251.769	3.46
252.151	3.51
252.532	2.17
252.913	3.98
253.295	2.36
253.676	3.97
254.057	3.48
254.438	3.7
254.819	3.13
255.2	3.63
255.581	3.64
255.962	3.79
256.343	4.4
256.724	2.32
257.105	3.11
257.486	3.49
257.867	2.93
258.247	3.51
258.628	3.61
259.009	2.39
259.389	3
259.77	3.69
260.15	3.05
260.531	2.85
260.911	3.85
261.292	3.31
261.672	3.08
262.052	3.16
262.432	3.21
262.813	3.62
263.193	3.29
263.573	3.07
263.953	3.17
264.333	2.98
264.713	3.09
265.093	3.38
265.473	2.86
265.853	2.98
266.233	2.74
266.612	3.38
266.992	3.16
267.372	3.1
267.752	3.63
268.131	3.84
268.511	2.5
268.89	3.6
269.27	3.38
269.649	3.36
270.029	3.4
270.408	3.01
270.787	3.59
271.167	3.26
271.546	2.67
271.925	3.07
272.304	3.01
272.683	2.83
273.062	2.6
273.441	3.11
273.82	3.05
274.199	2.44
274.578	3.08
274.957	3.4
275.336	3.58
275.715	3.88
276.093	3.36
276.472	2.28
276.851	2.85
277.229	3.09
277.608	2.69
277.986	2.7
278.365	3.28
278.743	3.32
279.122	3.26
279.5	2.77
279.878	2.27
280.257	2.9
280.635	3.12
281.013	3.04
281.391	3.09
281.769	2.89
282.147	3.23
282.525	2.98
282.903	3.42
283.281	3.03
283.659	3.33
284.037	3.25
284.415	2.89
284.792	3.25
285.17	3.03
285.548	2.8
285.925	3.05
286.303	3.15
286.68	3.11
287.058	2.92
287.435	3.05
287.813	3.23
288.19	3.19
288.567	3.61
288.945	3.39
289.322	3.03
289.699	3.6
290.076	3.13
290.453	3.11
290.83	2.64
291.207	2.98
291.584	3.51
291.961	3.7
292.338	3.42
292.715	3.19
293.092	3.49
293.469	3.23
293.845	3.37
294.222	3.44
294.599	3.06
294.975	3.72
295.352	2.88
295.728	3.26
296.105	3.33
296.481	3.43
296.858	3.85
297.234	3.97
297.61	4.04
297.986	3.69
298.363	4.03
298.739	3.68
299.115	3.31
299.491	3.76
299.867	3.82
300.243	3.75
300.619	3.56
300.995	3.98
301.371	3.62
301.746	3.78
302.122	3.35
302.498	3.84
302.874	3.62
303.249	3.53
303.625	4.05
304	3.68
304.376	3.95
304.751	3.25
305.127	3.83
305.502	4.14
305.878	3.7
306.253	3.39
306.628	4
307.003	3.85
307.378	3.8
307.754	3.88
308.129	3.71
308.504	4.42
308.879	4.11
309.254	4.09
309.629	4.1
310.003	3.75
310.378	3.5
310.753	3.99
311.128	4.06
311.502	4.21
311.877	3.78
312.252	3.85
312.626	3.99
313.001	4.06
313.375	4.01
313.75	4.14
314.124	3.85
314.498	4.13
314.873	4.58
315.247	4.26
315.621	3.74
315.995	4.23
316.369	4.19
316.743	4.29
317.117	4.09
317.491	3.85
317.865	3.57
318.239	3.69
318.613	4.65
318.987	4.12
319.361	4.44
319.734	4.33
320.108	4
320.482	3.62
320.855	3.66
321.229	4.11
321.602	3.85
321.976	3.44
322.349	3.78
322.723	4.17
323.096	3.9
323.469	3.54
323.843	3.4
324.216	4.23
324.589	4.48
324.962	3.61
325.335	4.04
325.708	4.14
326.081	4.4
326.454	4.18
326.827	4.45
327.2	3.41
327.573	4.29
327.945	4.64
328.318	4.81
328.691	4.04
329.063	3.69
329.436	3.74
329.809	4.61
330.181	3.64
330.553	3.75
330.926	4.87
331.298	4.26
331.671	3.98
332.043	4.13
332.415	5.04
332.787	3.86
333.159	4.43
333.532	4.61
333.904	4.18
334.276	4.1
334.648	4.26
335.02	4.58
335.391	4.33
335.763	3.86
336.135	4.65
336.507	4.23
336.879	3.6
337.25	4.68
337.622	4.4
337.993	4.79
338.365	4.07
338.736	4.63
339.108	4.17
339.479	3.83
339.851	4.16
340.222	4.15
340.593	4.08
340.964	4.74
341.336	4.05
341.707	3.77
342.078	3.69
342.449	4.25
342.82	4.43
343.191	4.32
343.562	4.01
343.933	4.1
344.303	4.15
344.674	4.34
345.045	4.43
345.416	4.31
345.786	4.23
346.157	4.83
346.527	4.02
346.898	4.48
347.268	4.05
347.639	3.66
348.009	3.99
348.38	4.75
348.75	4.08
349.12	4.6
349.49	3.85
349.861	3.97
350.231	4.31
350.601	4.77
350.971	4.82
351.341	4.25
351.711	4.67
352.081	4.18
352.45	4.37
352.82	4.29
353.19	4.7
353.56	4.72
353.929	4.7
354.299	4
354.669	4.79
355.038	4.32
355.408	4.26
355.777	4.22
356.147	4.56
356.516	4.73
356.885	4.46
357.254	4.39
357.624	4.34
357.993	4.64
358.362	4.08
358.731	4.41
359.1	4.8
359.469	4.57
359.838	4.21
360.207	4.48
360.576	4.53
360.945	4.37
361.314	4.19
361.682	4.21
362.051	4.44
362.42	4.09
362.788	4.33
363.157	4.45
363.525	4.28
363.894	4.45
364.262	4.46
364.631	4.18
364.999	4.53
365.367	4.59
365.735	4.58
366.104	4.42
366.472	4.27
366.84	4.5
367.208	4.54
367.576	4.01
367.944	4.47
368.312	4.75
368.68	4.36
369.048	4.64
369.416	4.34
369.783	4.53
370.151	4.63
370.519	4.85
370.886	4.56
371.254	4.44
371.621	4.43
371.989	4.47
372.356	4.45
372.724	4.87
373.091	4.27
373.458	4.42
373.826	4.89
374.193	4.51
374.56	4.69
374.927	4.4
375.294	4.71
375.661	4.71
376.028	4.09
376.395	4.13
376.762	4.74
377.129	4.33
377.496	4.42
377.863	4.55
378.229	4.22
378.596	4.63
378.963	4.55
379.329	4.57
379.696	4.49
380.062	4.43
380.429	4.58
380.795	4.51
381.161	4.68
381.528	4.82
381.894	4.7
382.26	4.7
382.626	4.67
382.993	4.55
383.359	4.68
383.725	4.77
384.091	4.42
384.457	4.42
384.823	4.32
385.188	4.51
385.554	4.58
385.92	4.7
386.286	4.93
386.651	4.66
387.017	4.75
387.383	4.81
387.748	4.65
388.114	4.65
388.479	4.34
388.845	4.6
389.21	4.56
389.575	4.79
389.94	4.55
390.306	4.83
390.671	4.68
391.036	4.73
391.401	5.1
391.766	4.92
392.131	4.77
392.496	4.56
392.861	4.68
393.226	4.66
393.591	4.58
393.956	4.7
394.32	4.49
394.685	4.63
395.05	4.77
395.414	4.61
395.779	4.92
396.143	4.63
396.508	4.78
396.872	4.77
397.236	4.74
397.601	4.44
397.965	4.66
398.329	4.83
398.694	5.03
399.058	4.89
399.422	4.65
399.786	4.81
400.15	4.79
400.514	4.63
400.878	4.57
401.242	4.59
401.605	4.74
401.969	4.73
402.333	4.7
402.697	4.7
403.06	4.79
403.424	4.84
403.787	4.8
404.151	4.56
404.514	4.93
404.878	4.76
405.241	4.93
405.604	4.84
405.968	4.75
406.331	4.89
406.694	4.82
407.057	4.98
407.42	4.76
407.783	4.64
408.146	4.63
408.509	4.81
408.872	4.83
409.235	4.82
409.598	4.96
409.961	4.82
410.323	5.05
410.686	4.97
411.049	5
411.411	4.89
411.774	5.06
412.136	4.75
412.499	5.06
412.861	5.02
413.223	4.82
413.586	4.81
413.948	4.92
414.31	5.1
414.672	4.86
415.035	4.93
415.397	4.71
415.759	4.94
416.121	5.26
416.483	4.99
416.845	5.1
417.206	5.24
417.568	5.03
417.93	4.88
418.292	5.22
418.653	4.85
419.015	4.9
419.377	4.84
419.738	4.89
420.1	4.87
420.461	5
420.822	5.04
421.184	4.96
421.545	4.92
421.906	5.03
422.267	4.94
422.629	4.95
422.99	4.99
423.351	5.01
423.712	4.89
424.073	4.98
424.434	5.02
424.795	4.97
425.155	4.97
425.516	4.91
425.877	4.89
426.238	4.91
426.598	4.94
426.959	4.95
427.32	5.02
427.68	5.03
428.041	4.93
428.401	5.08
428.761	5.12
429.122	5.07
429.482	5.05
429.842	5.13
430.202	5.16
430.563	5.22
430.923	5.27
431.283	5.03
431.643	5.14
432.003	5.04
432.363	5.19
432.722	5.11
433.082	5.2
433.442	5.28
433.802	5.13
434.161	5.21
434.521	5.06
434.881	5.1
435.24	5.17
435.6	5.22
435.959	5.09
436.319	5.18
436.678	5.09
437.037	5.16
437.396	5.34
437.756	5.15
438.115	5.29
438.474	5.32
438.833	5.17
439.192	5.42
439.551	5.27
439.91	5.32
440.269	5.2
440.628	5.15
440.987	5.24
441.345	5.17
441.704	5.23
442.063	5.22
442.421	5.21
442.78	5.28
443.138	5.17
443.497	5.16
443.855	5.17
444.214	5.31
444.572	5.19
444.93	5.38
445.288	5.27
445.647	5.35
446.005	5.53
446.363	5.36
446.721	5.4
447.079	5.29
447.437	5.08
447.795	5.2
448.153	5.31
448.51	5.23
448.868	5.27
449.226	5.16
449.584	5.24
449.941	5.33
450.299	5.27
450.656	5.21
451.014	5.3
451.371	5.46
451.729	5.3
452.086	5.4
452.443	5.56
452.801	5.57
453.158	5.6
453.515	5.5
453.872	5.35
454.229	5.56
454.586	5.58
454.943	5.45
455.3	5.53
455.657	5.39
456.014	5.43
456.371	5.36
456.727	5.41
457.084	5.52
457.441	5.56
457.797	5.49
458.154	5.58
458.51	5.66
458.867	5.48
459.223	5.52
459.58	5.39
459.936	5.56
460.292	5.51
460.648	5.55
461.005	5.43
461.361	5.45
461.717	5.4
462.073	5.44
462.429	5.32
462.785	5.4
463.141	5.4
463.496	5.39
463.852	5.45
464.208	5.64
464.564	5.45
464.919	5.52
465.275	5.65
465.631	5.55
465.986	5.6
466.342	5.72
466.697	5.49
467.052	5.57
467.408	5.58
467.763	5.53
468.118	5.52
468.473	5.55
468.829	5.48
469.184	5.59
469.539	5.62
469.894	5.41
470.249	5.7
470.603	5.65
470.958	5.5
471.313	5.78
471.668	5.41
472.023	5.66
472.377	5.61
472.732	5.68
473.086	5.72
473.441	5.55
473.795	5.69
474.15	5.69
474.504	5.8
474.859	5.64
475.213	5.72
475.567	5.72
475.921	5.74
476.275	5.75
476.63	5.91
476.984	5.69
477.338	5.87
477.692	5.74
478.045	5.63
478.399	5.74
478.753	5.71
479.107	5.74
479.461	5.77
479.814	5.85
480.168	5.79
480.521	5.75
480.875	5.78
481.228	5.63
481.582	5.77
481.935	5.84
482.289	5.85
482.642	5.85
482.995	5.92
483.348	5.77
483.701	5.79
484.055	5.66
484.408	5.71
484.761	5.75
485.114	5.67
485.466	5.62
485.819	5.54
486.172	5.49
486.525	5.51
486.878	5.52
487.23	5.56
487.583	5.6
487.936	5.72
488.288	5.74
488.641	5.79
488.993	5.73
489.345	5.72
489.698	5.75
490.05	5.65
490.402	5.63
490.754	5.69
491.107	5.69
491.459	5.76
491.811	5.74
492.163	5.89
492.515	5.97
492.866	6.02
493.218	5.87
493.57	5.86
493.922	5.77
494.274	5.71
494.625	5.71
494.977	5.83
495.328	5.93
495.68	6
496.031	5.98
496.383	5.91
496.734	5.9
497.086	6.15
497.437	6.12
497.788	6.05
498.139	6.09
498.49	6.01
498.842	6.09
499.193	5.96
499.544	6.02
499.894	6.07
500.245	6.04
500.596	6.06
500.947	6.17
501.298	6.19
501.648	6.11
501.999	6.09
502.35	6.14
502.7	6.2
503.051	6.19
503.401	6.23
503.752	6.18
504.102	6.19
504.452	6.11
504.803	6.29
505.153	6.25
505.503	6.09
505.853	6.19
506.203	6.14
506.553	6.22
506.903	6.28
507.253	6.35
507.603	6.16
507.953	6.37
508.303	6.29
508.652	6.33
509.002	6.41
509.352	6.26
509.701	6.26
510.051	6.34
510.4	6.25
510.75	6.24
511.099	6.36
511.449	6.22
511.798	6.33
512.147	6.29
512.496	6.35
512.846	6.3
513.195	6.36
513.544	6.36
513.893	6.34
514.242	6.46
514.591	6.37
514.939	6.3
515.288	6.5
515.637	6.43
515.986	6.39
516.334	6.57
516.683	6.51
517.032	6.48
517.38	6.61
517.729	6.6
518.077	6.54
518.426	6.6
518.774	6.54
519.122	6.63
519.47	6.53
519.819	6.47
520.167	6.51
520.515	6.51
520.863	6.42
521.211	6.45
521.559	6.51
521.907	6.55
522.255	6.48
522.602	6.62
522.95	6.8
523.298	6.78
523.645	6.71
523.993	6.75
524.341	6.74
524.688	6.64
525.036	6.67
525.383	6.81
525.73	6.81
526.078	6.91
526.425	6.8
526.772	6.83
527.119	6.76
527.466	6.74
527.814	6.74
528.161	6.73
528.508	6.74
528.854	6.72
529.201	6.86
529.548	6.79
529.895	6.78
530.242	6.77
530.588	6.61
530.935	6.58
531.282	6.58
531.628	6.57
531.975	6.59
532.321	6.66
532.667	6.65
533.014	6.88
533.36	6.86
533.706	6.91
534.052	6.88
534.399	6.94
534.745	7.06
535.091	6.89
535.437	6.91
535.783	6.87
536.129	6.87
536.474	6.87
536.82	7.01
537.166	7.02
537.512	6.98
537.857	7.25
538.203	7.06
538.549	7.09
538.894	7.07
539.239	7.01
539.585	7.08
539.93	6.97
540.276	7.1
540.621	7.19
540.966	7.24
541.311	7.46
541.656	7.37
542.001	7.31
542.346	7.34
542.691	7.31
543.036	7.27
543.381	7.17
543.726	7.06
544.071	7.17
544.415	7.2
544.76	7.26
545.105	7.3
545.449	7.26
545.794	7.35
546.138	7.4
546.483	7.4
546.827	7.46
547.171	7.33
547.516	7.47
547.86	7.55
548.204	7.7
548.548	7.54
548.892	7.4
549.236	7.45
549.58	7.51
549.924	7.43
550.268	7.65
550.612	7.68
550.956	7.71
551.3	7.85
551.643	7.88
551.987	7.68
552.33	7.8
552.674	7.85
553.017	7.97
553.361	8
553.704	7.79
554.048	7.86
554.391	7.99
554.734	7.93
555.077	7.85
555.42	7.85
555.764	7.95
556.107	7.82
556.45	7.94
556.793	7.92
557.135	8.08
557.478	7.98
557.821	8.09
558.164	8.22
558.507	8.05
558.849	8.31
559.192	8.06
559.534	8.03
559.877	8.35
560.219	8.39
560.562	8.21
560.904	8.24
561.246	8.32
561.589	8.27
561.931	8.33
562.273	8.11
562.615	8.33
562.957	8.26
563.299	8.49
563.641	8.24
563.983	8.52
564.325	8.41
564.667	8.31
565.008	8.21
565.35	8.67
565.692	8.58
566.033	8.55
566.375	8.48
566.716	8.45
567.058	8.58
567.399	8.48
567.741	8.64
568.082	8.4
568.423	8.53
568.764	8.53
569.105	8.66
569.447	8.69
569.788	8.65
570.129	8.63
570.47	8.69
570.811	8.65
571.151	8.58
571.492	8.64
571.833	8.65
572.174	9.06
572.514	8.71
572.855	8.61
573.195	8.9
573.536	9.01
573.876	8.92
574.217	8.93
574.557	9.01
574.898	9.1
575.238	8.93
575.578	8.97
575.918	9.01
576.258	9.08
576.598	8.94
576.938	9.02
577.278	9.14
577.618	9.08
577.958	9.2
578.298	9.43
578.638	9.22
578.977	9.12
579.317	9.28
579.657	9.29
579.996	9.16
580.336	9.32
580.675	9.44
581.014	9.54
581.354	9.42
581.693	9.41
582.032	9.49
582.372	9.59
582.711	9.59
583.05	9.55
583.389	9.51
583.728	9.66
584.067	9.62
584.406	9.51
584.745	9.57
585.083	9.51
585.422	9.51
585.761	9.81
586.1	9.69
586.438	9.66
586.777	9.72
587.115	9.91
587.454	9.89
587.792	9.81
588.13	9.96
588.469	9.94
588.807	9.91
589.145	10.13
589.483	9.85
589.821	9.9
590.159	10.09
590.497	10.18
590.835	10.17
591.173	9.96
591.511	10.22
591.849	9.8
592.187	9.99
592.524	10.02
592.862	10.33
593.2	9.98
593.537	9.98
593.875	10.45
594.212	10.14
594.55	10.41
594.887	10.31
595.224	10.28
595.561	10.05
595.899	10.24
596.236	10.45
596.573	10.51
596.91	10.48
597.247	10.51
597.584	10.54
597.921	10.53
598.258	10.47
598.594	10.49
598.931	10.7
599.268	10.5
599.604	10.51
599.941	10.6
600.277	10.55
600.614	10.65
600.95	10.67
601.287	10.76
601.623	10.88
601.959	10.99
602.296	10.81
602.632	10.83
602.968	11.01
603.304	10.98
603.64	10.82
603.976	11.08
604.312	11.06
604.648	10.71
604.984	11.04
605.319	11.12
605.655	11.13
605.991	11.23
606.326	11
606.662	10.98
606.998	10.87
607.333	10.98
607.668	11.1
608.004	11.12
608.339	11.06
608.674	11.21
609.01	11.39
609.345	11.37
609.68	11.32
610.015	11.64
610.35	11.65
610.685	11.27
611.02	11.41
611.355	11.41
611.689	11.14
612.024	11.6
612.359	11.67
612.694	11.52
613.028	11.41
613.363	11.25
613.697	11.49
614.032	11.74
614.366	11.83
614.7	11.89
615.035	11.41
615.369	11.76
615.703	11.63
616.037	11.77
616.371	11.15
616.705	11.61
617.039	11.98
617.373	11.7
617.707	11.91
618.041	11.73
618.375	11.88
618.709	11.78
619.042	12.16
619.376	12.14
619.71	11.93
620.043	12.17
620.377	12.33
620.71	12.12
621.043	12.2
621.377	12.67
621.71	12.54
622.043	11.95
622.376	12.39
622.709	12.13
623.043	12.45
623.376	12.39
623.709	12.44
624.041	12.59
624.374	12.1
624.707	12.38
625.04	12.37
625.373	12.83
625.705	12.54
626.038	12.56
626.37	12.69
626.703	12.36
627.035	12.42
627.368	12.48
627.7	12.77
628.032	12.69
628.365	12.45
628.697	12.89
629.029	12.81
629.361	12.8
629.693	12.74
630.025	12.91
630.357	12.63
630.689	12.58
631.021	12.89
631.353	12.84
631.684	13.12
632.016	13.02
632.348	12.73
632.679	12.87
633.011	13
633.342	13.05
633.674	13.46
634.005	13.21
634.336	13.04
634.668	13.38
634.999	13.3
635.33	13.28
635.661	13.44
635.992	13.24
636.323	13.73
636.654	13.19
636.985	13.28
637.316	13.37
637.647	13.54
637.977	13.06
638.308	13.65
638.639	13.4
638.969	13.79
639.3	13.43
639.63	13.18
639.961	13.7
640.291	13.48
640.622	13.64
640.952	13.29
641.282	13.63
641.612	13.86
641.943	13.95
642.273	14.16
642.603	13.84
642.933	13.48
643.263	14.37
643.592	13.81
643.922	14.26
644.252	13.73
644.582	14.16
644.911	14.08
645.241	14.4
645.571	14.11
645.9	13.92
646.23	14.26
646.559	13.95
646.888	13.86
647.218	13.81
647.547	14.36
647.876	14.55
648.205	14.21
648.534	14.74
648.863	14.33
649.192	14.36
649.521	14.69
649.85	14.51
650.179	14.15
650.508	14.22
650.837	13.89
651.165	14.31
651.494	14.71
651.822	14.34
652.151	14.46
652.479	15.11
652.808	14.88
653.136	14.67
653.465	15.1
653.793	14.68
654.121	15.38
654.449	15.2
654.777	15.06
655.105	14.14
655.433	14.47
655.761	14.75
656.089	14.99
656.417	14.35
656.745	15.02
657.073	14.83
657.4	15.18
657.728	15.12
658.056	15.34
658.383	15.29
658.711	15.47
659.038	15.47
659.365	15.26
659.693	14.99
660.02	15.19
660.347	15.67
660.674	15.36
661.001	15.95
661.329	15.32
661.656	15.41
661.982	15.3
662.309	15.34
662.636	15.35
662.963	15.54
663.29	15.72
663.616	15.36
663.943	15.84
664.27	15.48
664.596	15.61
664.923	16.13
665.249	15.88
665.576	15.75
665.902	15.74
666.228	15.33
666.554	15.45
666.881	15.49
667.207	15.46
667.533	15.34
667.859	15.94
668.185	15.72
668.511	16.07
668.837	15.08
669.162	16.38
669.488	16.05
669.814	16.02
670.139	16.33
670.465	16.7
670.791	16.34
671.116	15.97
671.442	16.35
671.767	15.72
672.092	16.36
672.418	16.15
672.743	16.44
673.068	15.8
673.393	16.31
673.718	15.86
674.043	16.38
674.368	16.29
674.693	16.42
675.018	16.89
675.343	16.79
675.667	16.28
675.992	16.49
676.317	16
676.641	16.74
676.966	16.97
677.29	16.43
677.615	16.85
677.939	16.66
678.264	16.31
678.588	16.97
678.912	17.44
679.236	15.92
679.56	16.42
679.885	17.18
680.209	16.49
680.532	17.09
680.856	16.8
681.18	16.56
681.504	16.06
681.828	16.81
682.152	17.36
682.475	17.07
682.799	17.32
683.122	17.2
683.446	17
683.769	17.4
684.093	16.89
684.416	17.71
684.739	17.1
685.062	17.9
685.386	17.56
685.709	17.36
686.032	16.88
686.355	16.91
686.678	17.01
687.001	17.13
687.324	17.51
687.646	17.12
687.969	17.29
688.292	17.52
688.614	17.82
688.937	17.2
689.26	16.93
689.582	16.62
689.904	17.37
690.227	17.99
690.549	17.17
690.871	18.12
691.194	17.82
691.516	17.79
691.838	18.38
692.16	18.13
692.482	17.54
692.804	17.58
693.126	17.65
693.448	18.11
693.769	17.77
694.091	17.62
694.413	16.79
694.735	18.02
695.056	17.66
695.378	18.81
695.699	18.54
696.021	17.98
696.342	17.67
696.663	17.84
696.984	17.38
697.306	17.76
697.627	18.22
697.948	17.8
698.269	18.22
698.59	17.76
698.911	18.2
699.232	17.92
699.553	18.13
699.873	18.42
700.194	18.8
700.515	18.37
700.835	18.51
701.156	18.47
701.477	18.55
701.797	17.95
702.117	18.29
702.438	18.7
702.758	18.32
703.078	18.68
703.398	19.07
703.719	19.32
704.039	18.72
704.359	18.68
704.679	18.11
704.999	18.91
705.319	18.33
705.638	18.58
705.958	19.13
706.278	19.16
706.597	18.3
706.917	19.06
707.237	17.9
707.556	18.68
707.876	19.53
708.195	19.51
708.514	19.21
708.834	17.94
709.153	19.09
709.472	18.62
709.791	19.52
710.11	18.72
710.429	18.95
710.748	20.68
711.067	19.03
711.386	19.39
711.705	19.68
712.023	18.94
712.342	20.4
712.661	19.06
712.979	19.66
713.298	19.94
713.616	19.2
713.935	18.44
714.253	19.93
714.572	19.78
714.89	19.67
715.208	20.67
715.526	20.07
715.844	19.36
716.162	19.42
716.48	18.88
716.798	20.46
717.116	19.51
717.434	19.56
717.752	19.4
718.069	20.18
718.387	19.29
718.705	20.37
719.022	19.87
719.34	18.85
719.657	20.41
719.975	19.75
720.292	20.64
720.609	19.79
720.927	20.27
721.244	20.26
721.561	20.6
721.878	20.58
722.195	19.85
722.512	20.16
722.829	21.13
723.146	20.11
723.463	20.34
723.779	20.23
724.096	20.37
724.413	20.18
724.729	20.93
725.046	20.17
725.362	20.18
725.679	21.9
725.995	20.48
726.311	21.23
726.628	21.63
726.944	20.27
727.26	20.06
727.576	20.04
727.892	19
728.208	21.71
728.524	21.27
728.84	20.9
729.156	20.27
729.472	19.43
729.787	21.46
730.103	20.75
730.419	21.21
730.734	20.09
731.05	19.67
731.365	21.55
731.681	21.54
731.996	21.35
732.311	20.66
732.626	21.93
732.942	22.03
733.257	20.86
733.572	20.43
733.887	20.7
734.202	21.53
734.517	20.69
734.832	21.67
735.146	21.94
735.461	20.44
735.776	20.3
736.091	20.81
736.405	21.02
736.72	22.98
737.034	21.93
737.349	22.29
737.663	20.65
737.977	21.77
738.292	20.31
738.606	21.7
738.92	20.99
739.234	21.4
739.548	22.43
739.862	22.98
740.176	21.18
740.49	21.17
740.804	20.81
741.117	20.67
741.431	21.85
741.745	21.1
742.058	23.02
742.372	22.4
742.685	23.46
742.999	21.53
743.312	23.27
743.626	24.02
743.939	22.6
744.252	22.29
744.565	21.58
744.878	22.46
745.191	21.76
745.505	21.04
745.817	23.89
746.13	22.5
746.443	22.49
746.756	23.25
747.069	22.45
747.381	23.03
747.694	21.88
748.007	22.57
748.319	20.17
748.632	22.07
748.944	22.43
749.256	22.42
749.569	20.78
749.881	23.12
750.193	21.87
750.505	24.29
750.817	22.23
751.129	21.25
751.441	24.33
751.753	22.51
752.065	23.29
752.377	22.68
752.689	22.73
753	21.93
753.312	24.59
753.624	22.84
753.935	22.26
754.247	24.82
754.558	22.96
754.869	23.46
755.181	26.19
755.492	22.95
755.803	23.38
756.114	22.6
756.425	21.92
756.736	22.78
757.047	21.09
757.358	23
757.669	23.83
757.98	23.09
758.291	22.37
758.601	24.13
758.912	23.24
759.223	23.65
759.533	22.8
759.844	22.73
760.154	23.1
760.464	22.72
760.775	23.41
761.085	21.63
761.395	22.92
761.705	23.97
762.016	23.52
762.326	24.4
762.636	21.4
762.945	22.67
763.255	23.71
763.565	23.19
763.875	23.83
764.185	23.4
764.494	23.24
764.804	23.38
765.113	21.52
765.423	22.93
765.732	23.97
766.042	23.5
766.351	22.82
766.66	23.25
766.97	23.49
767.279	23.41
767.588	23.05
767.897	23.55
768.206	24.69
768.515	23.73
768.824	24.16
769.133	24.48
769.441	23.63
769.75	22.85
770.059	24.91
770.367	24.03
770.676	21.87
770.984	24.43
771.293	23.08
771.601	25.1
771.91	24.88
772.218	21.92
772.526	26.34
772.834	24.44
773.142	24.68
773.45	23.4
773.758	24.49
774.066	25.5
774.374	22.4
774.682	23.99
774.99	24.71
775.298	22.94
775.605	23.52
775.913	25.38
776.22	22.22
776.528	26.92
776.835	24.3
777.143	26.37
777.45	25.34
777.757	23.16
778.065	25.04
778.372	28.35
778.679	24.9
778.986	24.07
779.293	28.13
779.6	26.55
779.907	24.86
780.214	24.8
780.52	25.61
780.827	26.04
781.134	26
781.44	27.64
781.747	25.89
782.053	24.57
782.36	23.31
782.666	22.51
782.973	26.97
783.279	24.56
783.585	23.7
783.891	25.78
784.197	23.68
784.503	21.89
784.809	24.31
785.115	24.19
785.421	26.56
785.727	25.29
786.033	24.69
786.339	25.88
786.644	24.86
786.95	25.52
787.255	26.97
787.561	25.36
787.866	26.55
788.172	23.97
788.477	23.03
788.782	26.56
789.088	23.45
789.393	26.74
789.698	25.3
790.003	29.65
790.308	26.73
790.613	29.5
790.918	25.37
791.223	26.73
791.527	25.07
791.832	24.99
792.137	27.51
792.441	24.8
792.746	24.76
793.05	23.63
793.355	23.71
793.659	23.67
793.963	27.27
794.268	26.71
794.572	23.57
794.876	22.53
795.18	24.7
795.484	25.96
795.788	24.64
796.092	23.22
796.396	24.63
796.7	28.27
797.004	24.82
797.307	29.92
797.611	29.48
797.915	28.2
798.218	25.72
798.522	26.27
798.825	26.05
799.128	25.28
799.432	27.68
799.735	24.24
800.038	25.36
800.341	24.54
800.644	26.84
800.947	26.56
801.25	27.36
801.553	27.29
801.856	26.2
802.159	26.11
802.462	26.25
802.764	25.24
803.067	28.31
803.37	22.77
803.672	30.3
803.975	21.44
804.277	24.51
804.579	26.65
804.882	27.58
805.184	23.55
805.486	22.71
805.788	26.95
806.09	29.95
806.392	29.14
806.694	26.85
806.996	24.82
807.298	29.58
807.6	25.53
807.902	26.35
808.203	27.08
808.505	26.26
808.807	23.06
809.108	25.46
809.409	29.25
809.711	24.63
810.012	25.33
810.313	27.49
810.615	25.36
810.916	28.56
811.217	30.13
811.518	28.04
811.819	26.38
812.12	29.36
812.421	25.52
812.722	27.63
813.023	24.07
813.323	27.65
813.624	26.55
813.925	29.86
814.225	27.8
814.526	30.31
814.826	32.33
815.126	25.5
815.427	27.7
815.727	28.57
816.027	20.05
816.327	30.97
816.627	31.86
816.927	26.25
817.227	27.83
817.527	22.96
817.827	30.48
818.127	23.17
818.427	22.25
818.727	24.36
819.026	26.43
819.326	19.29
819.625	31.16
819.925	31.3
820.224	24.68
820.524	30.8
820.823	30.95
821.122	26.9
821.421	27.86
821.72	26.32
822.019	32.67
822.318	25.14
822.617	29.09
822.916	28.16
823.215	29.18
823.514	24.28
823.813	30.33
824.111	28.55
824.41	26.33
824.709	29.46
825.007	27.53
825.306	27.33
825.604	29.34
825.902	29.46
826.201	28.31
826.499	28.97
826.797	28.1
827.095	28.47
827.393	29.44
827.691	27.03
827.989	29.46
828.287	28.34
828.585	27.5
828.882	28.64
829.18	30.27
829.478	28.16
829.775	28.12
830.073	29.17
830.37	30.6
830.668	28.15
830.965	27.08
831.263	28.38
831.56	27.08
831.857	29.7
832.154	29.59
832.451	25.7
832.748	30.06
833.045	26.72
833.342	32.79
833.639	27.5
833.936	28.7
834.232	30.44
834.529	29.82
834.826	25.28
835.122	26.43
835.419	24.81
835.715	30.66
836.012	31.53
836.308	31.46
836.604	30.46
836.901	27.53
837.197	28.73
837.493	30
837.789	28.77
838.085	31.04
838.381	30.01
838.677	26.69
838.972	32.28
839.268	30.49
839.564	26.19
839.86	28.16
840.155	25.96
840.451	28.41
840.746	31.37
841.042	25.75
841.337	24.36
841.632	28.08
841.928	18.9
842.223	29.18
842.518	28.78
842.813	31.76
843.108	32.57
843.403	31.7
843.698	29.8
843.993	27.08
844.287	29.35
844.582	35.49
844.877	34.34
845.171	26.36
845.466	19.47
845.761	27.11
846.055	25.84
846.349	27.77
846.644	33.47
846.938	23.76
847.232	21.24
847.526	26.6
847.82	11.31
848.114	7.01
848.408	29.51
848.702	27.81
848.996	35.52
849.29	28.18
849.584	19.08
849.877	38.16
850.171	27.82
850.465	25.95
850.758	30.71
851.052	20.44
851.345	26
851.638	23.78
851.932	7.91
852.225	34.08
852.518	28.83
852.811	21.35
853.104	37.83
853.397	17.66
853.69	10.23
853.983	18.91
854.276	26.56
854.569	27.91
854.861	22.63
855.154	15.23
855.447	43.18
855.739	39.92
856.032	23.97
856.324	23.2
856.616	13.27
856.909	21.22
857.201	39.75
857.493	22.76
857.785	25.51
858.077	16.45
858.369	22.38
858.661	22.31
858.953	25.68
859.245	26.42
859.537	43.48
859.829	34.73
860.12	37.44
860.412	13.1
860.703	30.54
860.995	29.15
861.286	12.63
861.578	13.54
861.869	17.53
862.16	39.11
862.452	29.4
862.743	25.6
863.034	34.36
863.325	24.7
863.616	17.74
863.907	13.44
864.198	39.13
864.488	34.68
864.779	19.04
865.07	33.51
865.36	32.53
865.651	8.22
865.941	26.16
866.232	23.78
866.522	15.68
866.813	27.45
867.103	29.47
867.393	24.21
867.683	9.68
867.973	46.78
868.263	14.55
868.553	17.86
868.843	49.32
869.133	22.8
869.423	56.56
869.713	39.81
870.002	13.77
870.292	28.09
870.582	22.6
870.871	27.15
871.161	18.36
871.45	13.2
871.739	26.83
872.029	5.33
872.318	42.98
872.607	35.52
872.896	31.72
873.185	19.6
873.474	31.53
873.763	30.72
874.052	22.46
874.341	29.13
874.63	32.09
874.918	20.39
875.207	31.34
875.496	40.64
875.784	15.13
876.073	47.54
876.361	53.9
876.649	37.63
876.938	22.92
877.226	28.89
877.514	23.24
877.802	26.75
878.09	28.73
878.378	43.57
878.666	36.94
878.954	32.18
879.242	13.87
879.53	13.95
879.817	29.49
880.105	28.73
880.392	32.43
880.68	29.85
880.967	33.39
881.255	46.77
881.542	26.67
881.83	24.48
882.117	24.64
882.404	47.33
882.691	33.77
882.978	19.24
883.265	34.19
883.552	36.43
883.839	32.51
884.126	42.49
884.413	26.26
884.699	37.9
884.986	40.12
885.273	38.51
885.559	38.51
885.846	38.51
