Data from 0008_forehead_Reflection__2__359.txt Node

Date: Thu Dec 15 19:25:22 CST 2022
User: ToomeyLab
Spectrometer: FLMS14357
Trigger mode: 0
Integration Time (sec): 1.000000E-2
Scans to average: 100
Electric dark correction enabled: true
Nonlinearity correction enabled: false
Boxcar width: 0
XAxis mode: Wavelengths
Number of Pixels in Spectrum: 2048
>>>>>Begin Spectral Data<<<<<
189.047	1285.1
189.435	1285.1
189.823	1285.1
190.211	-170.71
190.599	56.65
190.987	23.22
191.375	231.81
191.763	506.25
192.151	-59.27
192.538	22.76
192.926	-79.79
193.314	1457.59
193.702	-82.97
194.089	143.46
194.477	173.33
194.864	52.5
195.252	-89.48
195.639	123.36
196.027	108.02
196.414	166.63
196.801	-93.16
197.189	36.34
197.576	11.55
197.963	126.73
198.351	10.83
198.738	-25.42
199.125	-81.81
199.512	13.63
199.899	-58.06
200.286	26.31
200.673	10.83
201.06	4.58
201.447	14.33
201.833	-25.11
202.22	8.45
202.607	7.73
202.994	-19.94
203.38	21.04
203.767	7.6
204.154	37.77
204.54	21.89
204.927	53.18
205.313	42.43
205.699	27.64
206.086	13.82
206.472	20.12
206.858	-43.41
207.245	25.96
207.631	-31.55
208.017	37.05
208.403	-51.57
208.789	1.98
209.175	6.19
209.561	-29.32
209.947	-37.44
210.333	4.09
210.719	40.97
211.105	32.05
211.491	18.69
211.876	-31.42
212.262	3.97
212.648	1.89
213.034	10.59
213.419	-19.77
213.805	-49.74
214.19	-34.4
214.576	-12.05
214.961	-13.88
215.346	-60.26
215.732	5.92
216.117	4.86
216.502	-4.49
216.888	11.01
217.273	-1.95
217.658	-9.25
218.043	-47.66
218.428	-22.97
218.813	-8.26
219.198	-36.65
219.583	-23.28
219.968	-11.87
220.353	-57.88
220.738	-10.05
221.122	-16.4
221.507	-2.5
221.892	-34.16
222.276	-37.69
222.661	-5.98
223.046	-14.4
223.43	11.31
223.815	-7.77
224.199	-4.26
224.583	-2.69
224.968	1.37
225.352	-14.65
225.736	-0.39
226.121	-0.66
226.505	-7.08
226.889	4.96
227.273	-6.37
227.657	-0.52
228.041	3.56
228.425	-0.02
228.809	-1.41
229.193	0.18
229.577	3.12
229.961	1.91
230.344	3.58
230.728	3.46
231.112	4.3
231.495	1.21
231.879	0.66
232.263	3.05
232.646	2.03
233.03	2.92
233.413	2.7
233.797	-0.63
234.18	3.42
234.563	3.44
234.946	1.42
235.33	1.19
235.713	3.77
236.096	4.11
236.479	3.59
236.862	2.01
237.245	0.71
237.628	0.71
238.011	1.79
238.394	-0.11
238.777	2.56
239.16	1.57
239.543	3.53
239.925	2.12
240.308	0.39
240.691	2.24
241.073	2.24
241.456	2.94
241.838	1.59
242.221	1.55
242.603	2.5
242.986	2.73
243.368	3.65
243.75	3.06
244.133	2.77
244.515	1.9
244.897	3.08
245.279	2.21
245.661	2.91
246.043	1.85
246.425	3.71
246.807	2.18
247.189	2.29
247.571	2.44
247.953	2.56
248.335	2.59
248.717	2.7
249.098	2.71
249.48	2.73
249.862	2.91
250.243	2.64
250.625	2.78
251.006	2.54
251.388	1.63
251.769	1.39
252.151	3.44
252.532	1.21
252.913	3.19
253.295	2.46
253.676	2.58
254.057	2.8
254.438	2.75
254.819	2.14
255.2	3.15
255.581	3
255.962	2.89
256.343	3.61
256.724	3.13
257.105	1.48
257.486	1.62
257.867	2.48
258.247	2.67
258.628	2.86
259.009	2.3
259.389	1.6
259.77	1.85
260.15	3.58
260.531	2.45
260.911	2.54
261.292	2.71
261.672	2.79
262.052	2.67
262.432	2.14
262.813	2.61
263.193	2.46
263.573	2.55
263.953	1.91
264.333	2.41
264.713	2.51
265.093	2.01
265.473	5.38
265.853	2.91
266.233	2.81
266.612	2.73
266.992	2.37
267.372	2.06
267.752	2.66
268.131	2.49
268.511	2.6
268.89	2.53
269.27	1.98
269.649	2.73
270.029	2.18
270.408	2.39
270.787	2.56
271.167	3.04
271.546	3.3
271.925	2.27
272.304	2.51
272.683	2.16
273.062	2.37
273.441	2.33
273.82	2.47
274.199	2.17
274.578	2.56
274.957	2.39
275.336	2.8
275.715	2.62
276.093	2.19
276.472	2.41
276.851	2.46
277.229	1.6
277.608	2.45
277.986	2.08
278.365	3.12
278.743	2.55
279.122	2.46
279.5	1.62
279.878	2.09
280.257	2.58
280.635	2.27
281.013	1.78
281.391	2.38
281.769	2.96
282.147	2.59
282.525	1.83
282.903	2.12
283.281	3.01
283.659	2.54
284.037	2.43
284.415	2.72
284.792	2.91
285.17	2.09
285.548	2.41
285.925	2.43
286.303	2.83
286.68	2.73
287.058	2.8
287.435	2.37
287.813	2.33
288.19	2.49
288.567	2.59
288.945	1.99
289.322	2.71
289.699	2.6
290.076	1.97
290.453	1.93
290.83	2.8
291.207	2.99
291.584	2.95
291.961	2.61
292.338	2.36
292.715	2.45
293.092	2.65
293.469	2.49
293.845	2.78
294.222	3.17
294.599	2.41
294.975	1.79
295.352	2.98
295.728	2.74
296.105	2.96
296.481	2.58
296.858	2.41
297.234	2.85
297.61	2.42
297.986	2.89
298.363	3.07
298.739	2.93
299.115	2.98
299.491	2.94
299.867	2.38
300.243	2.52
300.619	2.68
300.995	2.87
301.371	3.66
301.746	3.15
302.122	2.47
302.498	3.21
302.874	3.1
303.249	3.33
303.625	2.17
304	2.76
304.376	3.38
304.751	3.13
305.127	2.61
305.502	2.95
305.878	2.9
306.253	2.72
306.628	3.28
307.003	2.87
307.378	3.01
307.754	3.65
308.129	2.94
308.504	3.02
308.879	3.32
309.254	3.19
309.629	3.24
310.003	3.03
310.378	3.38
310.753	3.07
311.128	2.78
311.502	3.13
311.877	2.91
312.252	3.23
312.626	3.26
313.001	3.3
313.375	3.41
313.75	3.09
314.124	3.34
314.498	3.51
314.873	3.21
315.247	3.06
315.621	2.89
315.995	3.16
316.369	3.07
316.743	2.85
317.117	3.79
317.491	3.32
317.865	2.71
318.239	3.74
318.613	2.71
318.987	2.95
319.361	2.93
319.734	3.35
320.108	2.89
320.482	3.7
320.855	3.44
321.229	3.5
321.602	3.32
321.976	3.19
322.349	4.22
322.723	3.51
323.096	3.19
323.469	3.06
323.843	2.86
324.216	3.42
324.589	3.86
324.962	3.26
325.335	3.55
325.708	3.38
326.081	3.36
326.454	3.87
326.827	3.43
327.2	3.26
327.573	4.18
327.945	3.47
328.318	3.6
328.691	3.61
329.063	3.29
329.436	3.59
329.809	3.9
330.181	4.34
330.553	4.36
330.926	4.19
331.298	3.71
331.671	4.02
332.043	3.69
332.415	4.14
332.787	3.95
333.159	3.77
333.532	3.79
333.904	3.92
334.276	4.03
334.648	3.85
335.02	3.56
335.391	3.6
335.763	3.88
336.135	4.41
336.507	3.61
336.879	4.08
337.25	4.3
337.622	4.49
337.993	3.87
338.365	4.22
338.736	3.97
339.108	4.17
339.479	3.89
339.851	3.99
340.222	4.15
340.593	3.75
340.964	3.99
341.336	4.08
341.707	3.68
342.078	3.97
342.449	3.87
342.82	4.4
343.191	4.15
343.562	4.56
343.933	4.2
344.303	4.7
344.674	4.24
345.045	4.11
345.416	4.27
345.786	4.6
346.157	4.5
346.527	4.41
346.898	4.13
347.268	4.47
347.639	4.15
348.009	4.42
348.38	4.23
348.75	4.85
349.12	4.27
349.49	4.24
349.861	4.38
350.231	4.77
350.601	4.52
350.971	4.23
351.341	4.56
351.711	4.5
352.081	4.44
352.45	4.24
352.82	3.92
353.19	4.55
353.56	4.43
353.929	4.65
354.299	4.5
354.669	4.72
355.038	5.16
355.408	4.74
355.777	4.72
356.147	4.66
356.516	4.49
356.885	4.74
357.254	4.51
357.624	4.29
357.993	4.96
358.362	4.94
358.731	5.02
359.1	4.77
359.469	4.87
359.838	4.92
360.207	4.88
360.576	4.89
360.945	4.5
361.314	4.73
361.682	4.74
362.051	4.77
362.42	4.74
362.788	5.06
363.157	4.73
363.525	5.02
363.894	4.92
364.262	4.97
364.631	5.18
364.999	4.94
365.367	4.99
365.735	5.04
366.104	5
366.472	5.01
366.84	5.05
367.208	5.54
367.576	5.1
367.944	5.2
368.312	5.11
368.68	5.58
369.048	5.05
369.416	5.3
369.783	5.18
370.151	5.62
370.519	5.48
370.886	5.32
371.254	5.56
371.621	5.23
371.989	5.55
372.356	5.6
372.724	5.38
373.091	5.21
373.458	5.13
373.826	5.75
374.193	5.69
374.56	5.7
374.927	5.53
375.294	5.71
375.661	5.47
376.028	5.86
376.395	5.76
376.762	5.51
377.129	5.39
377.496	5.46
377.863	5.86
378.229	5.8
378.596	5.81
378.963	5.75
379.329	5.75
379.696	5.71
380.062	5.8
380.429	5.78
380.795	6.14
381.161	5.63
381.528	5.48
381.894	6.04
382.26	6.02
382.626	5.84
382.993	6.3
383.359	5.69
383.725	5.84
384.091	5.86
384.457	5.74
384.823	5.85
385.188	6.07
385.554	6.06
385.92	6.02
386.286	6.06
386.651	5.88
387.017	6.17
387.383	5.8
387.748	6.14
388.114	6.09
388.479	6.06
388.845	5.77
389.21	6.36
389.575	6.43
389.94	6.45
390.306	6.45
390.671	6.28
391.036	6.01
391.401	6.18
391.766	6.13
392.131	6.46
392.496	6.36
392.861	6.16
393.226	6.08
393.591	6.27
393.956	6.59
394.32	6.41
394.685	6.59
395.05	6.36
395.414	6.51
395.779	6.7
396.143	6.34
396.508	6.47
396.872	6.57
397.236	6.73
397.601	6.77
397.965	6.8
398.329	6.72
398.694	6.47
399.058	6.36
399.422	6.75
399.786	6.7
400.15	6.49
400.514	6.79
400.878	6.74
401.242	6.86
401.605	6.8
401.969	6.67
402.333	6.82
402.697	7.11
403.06	6.82
403.424	7
403.787	7.02
404.151	6.86
404.514	6.98
404.878	6.71
405.241	6.95
405.604	7.05
405.968	6.87
406.331	7.12
406.694	7.07
407.057	7
407.42	6.95
407.783	6.98
408.146	7.14
408.509	7.2
408.872	7.15
409.235	7.22
409.598	7.12
409.961	7.36
410.323	7.04
410.686	7.21
411.049	7.32
411.411	7.28
411.774	7.16
412.136	7.25
412.499	7.52
412.861	6.97
413.223	7.42
413.586	7.41
413.948	7.43
414.31	7.61
414.672	7.42
415.035	7.57
415.397	7.45
415.759	7.33
416.121	7.69
416.483	7.34
416.845	7.47
417.206	7.53
417.568	7.43
417.93	7.42
418.292	7.39
418.653	7.53
419.015	7.59
419.377	7.47
419.738	7.62
420.1	7.41
420.461	7.28
420.822	7.45
421.184	7.47
421.545	7.57
421.906	7.56
422.267	7.6
422.629	7.57
422.99	7.53
423.351	7.53
423.712	7.71
424.073	7.77
424.434	7.73
424.795	7.54
425.155	7.56
425.516	7.59
425.877	7.64
426.238	7.68
426.598	7.8
426.959	7.84
427.32	7.89
427.68	7.93
428.041	7.89
428.401	7.93
428.761	8.04
429.122	7.86
429.482	8.05
429.842	8.04
430.202	8.2
430.563	8.12
430.923	8.21
431.283	8.19
431.643	8.32
432.003	8.29
432.363	8.32
432.722	8.37
433.082	8.36
433.442	8.45
433.802	8.28
434.161	8.38
434.521	8.43
434.881	8.26
435.24	8.29
435.6	8.38
435.959	8.42
436.319	8.45
436.678	8.62
437.037	8.56
437.396	8.51
437.756	8.54
438.115	8.51
438.474	8.68
438.833	8.65
439.192	8.6
439.551	8.57
439.91	8.78
440.269	8.61
440.628	8.55
440.987	8.75
441.345	8.67
441.704	8.65
442.063	8.62
442.421	8.63
442.78	8.66
443.138	8.83
443.497	8.88
443.855	8.84
444.214	8.77
444.572	8.97
444.93	8.9
445.288	8.93
445.647	8.83
446.005	8.86
446.363	8.94
446.721	8.9
447.079	8.79
447.437	8.92
447.795	8.87
448.153	8.86
448.51	8.98
448.868	8.93
449.226	9.03
449.584	9.04
449.941	9.04
450.299	9.13
450.656	9.21
451.014	9.28
451.371	9.29
451.729	9.29
452.086	9.37
452.443	9.46
452.801	9.39
453.158	9.66
453.515	9.41
453.872	9.35
454.229	9.25
454.586	9.27
454.943	9.52
455.3	9.51
455.657	9.52
456.014	9.49
456.371	9.7
456.727	9.65
457.084	9.68
457.441	9.69
457.797	9.83
458.154	9.78
458.51	9.68
458.867	9.78
459.223	9.83
459.58	9.77
459.936	9.86
460.292	9.78
460.648	9.72
461.005	9.66
461.361	9.64
461.717	9.63
462.073	9.74
462.429	9.87
462.785	10.03
463.141	9.93
463.496	10.01
463.852	10.27
464.208	10.09
464.564	10.14
464.919	10.14
465.275	10.23
465.631	10.5
465.986	10.3
466.342	10.22
466.697	10.28
467.052	10.41
467.408	10.26
467.763	10.33
468.118	10.14
468.473	10.46
468.829	10.42
469.184	10.51
469.539	10.33
469.894	10.48
470.249	10.48
470.603	10.65
470.958	10.69
471.313	10.6
471.668	10.75
472.023	10.67
472.377	10.84
472.732	10.86
473.086	10.82
473.441	10.81
473.795	10.99
474.15	10.75
474.504	10.82
474.859	10.76
475.213	11.01
475.567	10.84
475.921	11
476.275	11.08
476.63	11.08
476.984	11.02
477.338	11.18
477.692	11
478.045	11
478.399	11.07
478.753	10.98
479.107	11.21
479.461	11.16
479.814	11.14
480.168	11.1
480.521	11.36
480.875	11.36
481.228	11.33
481.582	11.23
481.935	11.41
482.289	11.36
482.642	11.37
482.995	11.31
483.348	11.22
483.701	11.28
484.055	11.1
484.408	11.04
484.761	10.91
485.114	10.71
485.466	10.62
485.819	10.66
486.172	10.77
486.525	10.95
486.878	11.05
487.23	11.16
487.583	11.26
487.936	11.22
488.288	11.19
488.641	11.06
488.993	11.01
489.345	11.01
489.698	11.08
490.05	11.23
490.402	11.25
490.754	11.47
491.107	11.47
491.459	11.72
491.811	11.83
492.163	11.73
492.515	11.54
492.866	11.49
493.218	11.32
493.57	11.49
493.922	11.54
494.274	11.74
494.625	11.99
494.977	11.92
495.328	12.16
495.68	12.16
496.031	12.38
496.383	12.27
496.734	12.35
497.086	12.46
497.437	12.53
497.788	12.3
498.139	12.36
498.49	12.33
498.842	12.35
499.193	12.37
499.544	12.64
499.894	12.4
500.245	12.58
500.596	12.54
500.947	12.66
501.298	12.67
501.648	12.65
501.999	12.8
502.35	12.82
502.7	12.88
503.051	12.86
503.401	12.94
503.752	12.97
504.102	13
504.452	13.03
504.803	12.98
505.153	13.1
505.503	13.05
505.853	13.14
506.203	13.14
506.553	13.13
506.903	13.12
507.253	13.14
507.603	13.33
507.953	13.22
508.303	13.27
508.652	13.27
509.002	13.3
509.352	13.35
509.701	13.19
510.051	13.36
510.4	13.28
510.75	13.32
511.099	13.33
511.449	13.46
511.798	13.37
512.147	13.42
512.496	13.55
512.846	13.48
513.195	13.53
513.544	13.64
513.893	13.67
514.242	13.71
514.591	13.59
514.939	13.79
515.288	13.83
515.637	13.72
515.986	13.83
516.334	13.97
516.683	13.91
517.032	13.95
517.38	13.91
517.729	13.99
518.077	13.93
518.426	14.08
518.774	13.95
519.122	13.9
519.47	13.82
519.819	13.82
520.167	13.74
520.515	13.82
520.863	13.84
521.211	13.97
521.559	14.03
521.907	14.19
522.255	14.2
522.602	14.36
522.95	14.37
523.298	14.48
523.645	14.49
523.993	14.42
524.341	14.54
524.688	14.45
525.036	14.58
525.383	14.64
525.73	14.54
526.078	14.69
526.425	14.47
526.772	14.47
527.119	14.38
527.466	14.3
527.814	14.46
528.161	14.54
528.508	14.6
528.854	14.43
529.201	14.45
529.548	14.17
529.895	14.01
530.242	14.01
530.588	14.03
530.935	14.15
531.282	14.2
531.628	14.38
531.975	14.45
532.321	14.62
532.667	14.84
533.014	14.94
533.36	14.91
533.706	14.97
534.052	14.93
534.399	14.75
534.745	14.62
535.091	14.55
535.437	14.77
535.783	14.8
536.129	14.93
536.474	15.18
536.82	15.28
537.166	15.36
537.512	15.24
537.857	15.33
538.203	15.18
538.549	15.21
538.894	15.31
539.239	15.34
539.585	15.59
539.93	15.6
540.276	15.82
540.621	15.8
540.966	15.84
541.311	16.08
541.656	15.73
542.001	15.64
542.346	15.55
542.691	15.19
543.036	15.25
543.381	15.21
543.726	15.47
544.071	15.52
544.415	15.59
544.76	15.61
545.105	15.72
545.449	15.91
545.794	15.98
546.138	16.06
546.483	16.2
546.827	16.2
547.171	16.26
547.516	16.4
547.86	16.29
548.204	16.26
548.548	16.16
548.892	16.34
549.236	16.37
549.58	16.58
549.924	16.64
550.268	16.81
550.612	16.85
550.956	16.99
551.3	17.3
551.643	17.13
551.987	17.19
552.33	17.22
552.674	17.16
553.017	17.34
553.361	17.3
553.704	17.11
554.048	17.04
554.391	17.16
554.734	17.14
555.077	17.18
555.42	17.14
555.764	17.51
556.107	17.36
556.45	17.47
556.793	17.58
557.135	17.66
557.478	17.4
557.821	17.9
558.164	17.6
558.507	17.6
558.849	17.94
559.192	17.78
559.534	17.97
559.877	17.88
560.219	17.83
560.562	17.81
560.904	17.99
561.246	17.84
561.589	18.24
561.931	18.12
562.273	17.98
562.615	18.04
562.957	17.96
563.299	18.14
563.641	18.2
563.983	18.09
564.325	18.27
564.667	18.24
565.008	18.42
565.35	18.49
565.692	18.37
566.033	18.31
566.375	18.19
566.716	18.3
567.058	18.4
567.399	18.28
567.741	18.36
568.082	18.19
568.423	18.4
568.764	18.36
569.105	18.5
569.447	18.54
569.788	18.67
570.129	18.58
570.47	18.58
570.811	18.93
571.151	18.87
571.492	18.63
571.833	18.72
572.174	19.01
572.514	18.86
572.855	19
573.195	18.88
573.536	18.82
573.876	18.69
574.217	18.83
574.557	18.88
574.898	18.94
575.238	19.16
575.578	19.02
575.918	19.35
576.258	19.36
576.598	19.11
576.938	19.1
577.278	19.28
577.618	19.26
577.958	19.53
578.298	19.44
578.638	19.51
578.977	19.43
579.317	19.69
579.657	19.43
579.996	19.75
580.336	19.87
580.675	19.78
581.014	19.98
581.354	19.88
581.693	20.24
582.032	20.27
582.372	19.92
582.711	20.01
583.05	20.05
583.389	20.31
583.728	20.29
584.067	20.02
584.406	20.6
584.745	20.06
585.083	20.27
585.422	20.38
585.761	20.7
586.1	20.33
586.438	20.59
586.777	20.46
587.115	20.65
587.454	20.38
587.792	20.41
588.13	20.51
588.469	20.52
588.807	20.99
589.145	20.81
589.483	20.41
589.821	20.66
590.159	20.87
590.497	20.74
590.835	20.86
591.173	20.92
591.511	20.83
591.849	20.74
592.187	20.65
592.524	21.1
592.862	20.81
593.2	21.04
593.537	21.2
593.875	20.8
594.212	20.83
594.55	21.21
594.887	21.35
595.224	21.39
595.561	21.27
595.899	21.3
596.236	21.33
596.573	21.24
596.91	21.44
597.247	21.56
597.584	21.26
597.921	21.24
598.258	21.33
598.594	21.07
598.931	21.14
599.268	20.99
599.604	21.29
599.941	21.54
600.277	21.6
600.614	21.77
600.95	21.86
601.287	21.37
601.623	21.29
601.959	22.1
602.296	22.02
602.632	21.95
602.968	21.72
603.304	22.16
603.64	21.89
603.976	22.07
604.312	21.8
604.648	22.01
604.984	21.76
605.319	21.79
605.655	21.81
605.991	21.89
606.326	21.77
606.662	21.82
606.998	22.13
607.333	22.21
607.668	21.94
608.004	22.12
608.339	22.13
608.674	22.45
609.01	22.61
609.345	22.6
609.68	22.73
610.015	22.58
610.35	22.54
610.685	22.4
611.02	22.41
611.355	22.54
611.689	22.51
612.024	22.62
612.359	22.69
612.694	22.78
613.028	22.82
613.363	22.56
613.697	22.92
614.032	23.04
614.366	22.9
614.7	23.27
615.035	23.29
615.369	23.36
615.703	23.35
616.037	23.21
616.371	23.26
616.705	23.08
617.039	23.35
617.373	23.3
617.707	23.33
618.041	23.39
618.375	23.29
618.709	23.39
619.042	23.51
619.376	23.47
619.71	23.46
620.043	23.78
620.377	23.7
620.71	23.49
621.043	23.6
621.377	23.88
621.71	24.09
622.043	23.75
622.376	23.96
622.709	24.26
623.043	23.84
623.376	23.79
623.709	24.07
624.041	24.1
624.374	24.32
624.707	23.7
625.04	23.6
625.373	24.65
625.705	24.53
626.038	23.96
626.37	24.13
626.703	24.2
627.035	24.37
627.368	24.31
627.7	24.4
628.032	24.17
628.365	24.31
628.697	24.21
629.029	24.36
629.361	24.57
629.693	24.28
630.025	24.6
630.357	24.57
630.689	24.47
631.021	24.6
631.353	24.79
631.684	24.27
632.016	24.56
632.348	24.88
632.679	25.02
633.011	24.74
633.342	25.01
633.674	24.91
634.005	24.71
634.336	25.57
634.668	25.1
634.999	24.91
635.33	25.09
635.661	24.93
635.992	25.25
636.323	25.06
636.654	24.99
636.985	25.27
637.316	25.03
637.647	25.43
637.977	24.78
638.308	25.45
638.639	25.57
638.969	25.48
639.3	25.18
639.63	25.45
639.961	25.48
640.291	25.28
640.622	25.36
640.952	25.62
641.282	25.82
641.612	25.58
641.943	25.47
642.273	25.49
642.603	25.83
642.933	26.3
643.263	26.46
643.592	26.29
643.922	26.33
644.252	26.23
644.582	26.13
644.911	26
645.241	25.87
645.571	26.42
645.9	26.2
646.23	26.43
646.559	25.84
646.888	26.69
647.218	25.79
647.547	26.4
647.876	26.09
648.205	26.12
648.534	26.05
648.863	26.59
649.192	26.34
649.521	26.71
649.85	26.26
650.179	26.13
650.508	26.45
650.837	26.99
651.165	26.86
651.494	26.53
651.822	26.71
652.151	26.42
652.479	26.92
652.808	26.86
653.136	26.69
653.465	26.8
653.793	26.57
654.121	26.73
654.449	26.6
654.777	26.52
655.105	26.79
655.433	27.29
655.761	26.96
656.089	27.56
656.417	27.33
656.745	27.48
657.073	27.3
657.4	27.23
657.728	27.17
658.056	26.88
658.383	27.35
658.711	27.33
659.038	27.79
659.365	27.55
659.693	26.99
660.02	27.06
660.347	27.52
660.674	27.1
661.001	27.1
661.329	27.03
661.656	27.11
661.982	27.19
662.309	27.44
662.636	27.18
662.963	27.69
663.29	27.62
663.616	27.29
663.943	27.46
664.27	27.83
664.596	28.15
664.923	27.53
665.249	28.33
665.576	27.93
665.902	27.76
666.228	28.59
666.554	28.84
666.881	27.76
667.207	27.76
667.533	28.48
667.859	28.11
668.185	28.28
668.511	28.72
668.837	28.1
669.162	28.66
669.488	27.56
669.814	27.8
670.139	27.42
670.465	28.84
670.791	28.29
671.116	28.92
671.442	27.95
671.767	27.94
672.092	28.62
672.418	28.43
672.743	28.58
673.068	28.56
673.393	28.68
673.718	28.67
674.043	27.76
674.368	28.61
674.693	28.84
675.018	28.92
675.343	28.93
675.667	28.69
675.992	28.15
676.317	28.96
676.641	29.27
676.966	29.38
677.29	29.06
677.615	28.93
677.939	29.66
678.264	28.71
678.588	28.57
678.912	29.05
679.236	28.98
679.56	28.68
679.885	29.16
680.209	29.38
680.532	29.27
680.856	30.07
681.18	29.74
681.504	29.56
681.828	28.91
682.152	29.07
682.475	29.65
682.799	29.84
683.122	29.44
683.446	29.23
683.769	29.18
684.093	29.8
684.416	29.34
684.739	29.6
685.062	29.38
685.386	29.87
685.709	30.08
686.032	29.48
686.355	29.45
686.678	30.15
687.001	29.63
687.324	29.51
687.646	30.3
687.969	30.09
688.292	29.73
688.614	29.85
688.937	30.29
689.26	30.7
689.582	29.98
689.904	31.13
690.227	30.52
690.549	30.32
690.871	29.69
691.194	29.67
691.516	30.11
691.838	30.04
692.16	29.85
692.482	29.54
692.804	29.89
693.126	30.46
693.448	30.76
693.769	30.27
694.091	30.79
694.413	29.8
694.735	30.13
695.056	30.61
695.378	30.39
695.699	30.35
696.021	30.92
696.342	30.9
696.663	31.08
696.984	30.07
697.306	30.08
697.627	31.2
697.948	30.71
698.269	30.78
698.59	30.96
698.911	30.73
699.232	31.04
699.553	30.83
699.873	30.48
700.194	30.93
700.515	30.71
700.835	30.51
701.156	31.16
701.477	30.4
701.797	30.85
702.117	30.72
702.438	31.05
702.758	30.91
703.078	30.48
703.398	30.16
703.719	30.61
704.039	31.28
704.359	31.43
704.679	31.31
704.999	31.54
705.319	31.09
705.638	30.75
705.958	30.75
706.278	30.9
706.597	31.85
706.917	31.14
707.237	32.59
707.556	31.31
707.876	31.46
708.195	31.29
708.514	31.53
708.834	31.45
709.153	32.46
709.472	31.91
709.791	31.29
710.11	31.37
710.429	31.98
710.748	32.05
711.067	31.68
711.386	32.05
711.705	31.73
712.023	32.67
712.342	31.63
712.661	33.26
712.979	32.72
713.298	32.17
713.616	31.53
713.935	31.98
714.253	31.62
714.572	31.44
714.89	31.19
715.208	32.49
715.526	32.56
715.844	32.64
716.162	32.11
716.48	31.93
716.798	32.42
717.116	32.38
717.434	32.18
717.752	32.26
718.069	32.3
718.387	32.48
718.705	31.46
719.022	32.57
719.34	31.1
719.657	32.67
719.975	31.53
720.292	31.75
720.609	31.17
720.927	31.83
721.244	32.82
721.561	31.28
721.878	32.07
722.195	32.76
722.512	33.02
722.829	32.44
723.146	32.77
723.463	32.24
723.779	31.89
724.096	33.22
724.413	33.36
724.729	33.56
725.046	32.24
725.362	33.49
725.679	32.38
725.995	32.74
726.311	33.42
726.628	33.13
726.944	32.72
727.26	31.65
727.576	32.41
727.892	33.19
728.208	33.27
728.524	33.06
728.84	32.35
729.156	33.28
729.472	32.83
729.787	34.28
730.103	32.18
730.419	32.39
730.734	32.95
731.05	32.62
731.365	32.48
731.681	34.3
731.996	34
732.311	33.55
732.626	33.65
732.942	33.36
733.257	33.38
733.572	33.15
733.887	34.22
734.202	33.46
734.517	33.3
734.832	33.94
735.146	34.41
735.461	33.96
735.776	34.35
736.091	34.16
736.405	33.92
736.72	32.95
737.034	34.58
737.349	33.01
737.663	34.28
737.977	34.4
738.292	32.84
738.606	33.75
738.92	34.86
739.234	33.63
739.548	34.1
739.862	33.88
740.176	34.28
740.49	34.72
740.804	34.64
741.117	35.02
741.431	33.29
741.745	32.27
742.058	33.36
742.372	33.04
742.685	34.57
742.999	34.64
743.312	32.46
743.626	33.46
743.939	33.39
744.252	33.48
744.565	33.84
744.878	33.75
745.191	34.13
745.505	34.05
745.817	36.76
746.13	36.15
746.443	34.14
746.756	34.67
747.069	34.19
747.381	34.55
747.694	36.17
748.007	34.02
748.319	35.94
748.632	35.82
748.944	32.85
749.256	35.34
749.569	33.31
749.881	33.78
750.193	34
750.505	35.92
750.817	33.44
751.129	34.23
751.441	35.02
751.753	36.82
752.065	34.55
752.377	34.59
752.689	35.62
753	34.99
753.312	35.21
753.624	33.03
753.935	32.03
754.247	35.99
754.558	34.53
754.869	36.28
755.181	36.06
755.492	33.7
755.803	35.84
756.114	34.11
756.425	35.22
756.736	35
757.047	36.05
757.358	36.41
757.669	35.08
757.98	34.29
758.291	34.83
758.601	34.31
758.912	35.27
759.223	37.15
759.533	36.71
759.844	33.38
760.154	34.52
760.464	37.81
760.775	36.73
761.085	34.85
761.395	34.6
761.705	35.54
762.016	35.97
762.326	36.34
762.636	36.57
762.945	36.08
763.255	34.43
763.565	36.34
763.875	33.36
764.185	36.49
764.494	35.01
764.804	35.26
765.113	36.21
765.423	35.78
765.732	36.12
766.042	36.9
766.351	36.38
766.66	37.06
766.97	36.21
767.279	34.9
767.588	34.33
767.897	34.46
768.206	36.87
768.515	35.89
768.824	38.4
769.133	35.78
769.441	33.53
769.75	34.97
770.059	36.77
770.367	36.91
770.676	36.4
770.984	36.89
771.293	34.44
771.601	33.62
771.91	35.01
772.218	36.34
772.526	33.71
772.834	34.5
773.142	36.07
773.45	37.05
773.758	34.19
774.066	35.17
774.374	37.92
774.682	37
774.99	35.86
775.298	32.04
775.605	32.94
775.913	34.51
776.22	37.06
776.528	35.88
776.835	37.62
777.143	38.66
777.45	34.97
777.757	36.06
778.065	33.11
778.372	33.64
778.679	37.25
778.986	38.1
779.293	33.08
779.6	36.8
779.907	37.1
780.214	35.14
780.52	33.74
780.827	35.47
781.134	35.83
781.44	40.04
781.747	34.94
782.053	34.89
782.36	36.75
782.666	34.58
782.973	36.43
783.279	38.02
783.585	37.65
783.891	35.76
784.197	34.07
784.503	35.04
784.809	36.91
785.115	37.13
785.421	40
785.727	38.7
786.033	36.72
786.339	36.84
786.644	35.03
786.95	34.05
787.255	37
787.561	36.57
787.866	37.31
788.172	36.86
788.477	35.59
788.782	33.59
789.088	32.69
789.393	39.81
789.698	35.97
790.003	36.92
790.308	38.5
790.613	38.33
790.918	33.62
791.223	35.72
791.527	38.32
791.832	38.33
792.137	38.07
792.441	35.71
792.746	37.41
793.05	34.69
793.355	34.52
793.659	38.94
793.963	37.04
794.268	36.04
794.572	37.82
794.876	35.76
795.18	40.26
795.484	37.18
795.788	35.48
796.092	38.73
796.396	33.71
796.7	37.53
797.004	35.6
797.307	35.34
797.611	38.89
797.915	37.26
798.218	42.09
798.522	34.49
798.825	37.68
799.128	34.61
799.432	32.44
799.735	34.22
800.038	37.8
800.341	37.16
800.644	36.41
800.947	39.7
801.25	36.02
801.553	37.43
801.856	36.93
802.159	35.44
802.462	38.2
802.764	43.57
803.067	37.26
803.37	39.45
803.672	37.38
803.975	39.09
804.277	36.21
804.579	33.56
804.882	36.14
805.184	39.82
805.486	38.8
805.788	37.75
806.09	34.97
806.392	36.24
806.694	34.58
806.996	36.18
807.298	32.77
807.6	33.23
807.902	34.03
808.203	37.53
808.505	32.04
808.807	37.16
809.108	39.43
809.409	40.37
809.711	37.85
810.012	37.73
810.313	42.86
810.615	44.73
810.916	41.21
811.217	32.01
811.518	36.78
811.819	36.21
812.12	40.94
812.421	37.46
812.722	37.87
813.023	37.68
813.323	37.25
813.624	38.26
813.925	35.55
814.225	37.89
814.526	37.7
814.826	36.84
815.126	33.52
815.427	34.08
815.727	39.41
816.027	35.86
816.327	42.42
816.627	41.27
816.927	40.38
817.227	40.07
817.527	37.97
817.827	37.63
818.127	36.09
818.427	28.03
818.727	37.18
819.026	37.21
819.326	34.31
819.625	39.36
819.925	41.77
820.224	37.87
820.524	36.69
820.823	39.02
821.122	38.36
821.421	36.99
821.72	35.06
822.019	40.47
822.318	36.75
822.617	41.52
822.916	37.75
823.215	40.75
823.514	38.86
823.813	39.5
824.111	38.51
824.41	40.48
824.709	40.81
825.007	39.67
825.306	40.1
825.604	39.67
825.902	39.86
826.201	40.32
826.499	39.93
826.797	39.22
827.095	40.45
827.393	39.96
827.691	39.15
827.989	41.08
828.287	39.27
828.585	38.31
828.882	38.12
829.18	40.35
829.478	40.42
829.775	39.86
830.073	41.64
830.37	38.89
830.668	42.37
830.965	37.76
831.263	39.56
831.56	41.25
831.857	37.44
832.154	39.45
832.451	41.54
832.748	37.22
833.045	40.64
833.342	38.07
833.639	39.01
833.936	34.78
834.232	34.78
834.529	39.82
834.826	42.48
835.122	35.51
835.419	46.38
835.715	37.64
836.012	40.39
836.308	43.28
836.604	37.24
836.901	39.08
837.197	41.79
837.493	39.26
837.789	41.61
838.085	37.33
838.381	39.17
838.677	38.95
838.972	37.54
839.268	39.14
839.564	44.76
839.86	32.19
840.155	42.27
840.451	34.87
840.746	37.76
841.042	27.28
841.337	24.87
841.632	35.64
841.928	38.74
842.223	42.36
842.518	38.46
842.813	39.3
843.108	34.46
843.403	36.45
843.698	35.99
843.993	40.22
844.287	31.56
844.582	38.59
844.877	40.91
845.171	30.45
845.466	31.75
845.761	26.18
846.055	29.46
846.349	37.4
846.644	45.18
846.938	35.08
847.232	33.92
847.526	39.34
847.82	25.36
848.114	15.77
848.408	25.76
848.702	44.14
848.996	41.89
849.29	45.45
849.584	26.45
849.877	25.35
850.171	30
850.465	56.09
850.758	31.53
851.052	31.52
851.345	27.27
851.638	17.07
851.932	31.38
852.225	29.66
852.518	29.32
852.811	31.59
853.104	22.58
853.397	32.45
853.69	36.2
853.983	33.84
854.276	37.68
854.569	43.79
854.861	7.65
855.154	52.33
855.447	33.25
855.739	4.09
856.032	49.12
856.324	41.35
856.616	39.9
856.909	-6.26
857.201	30.93
857.493	22.98
857.785	39.7
858.077	7.54
858.369	42.26
858.661	19.25
858.953	37.09
859.245	-6.29
859.537	26.44
859.829	-2.13
860.12	49.24
860.412	40.37
860.703	34.99
860.995	35.86
861.286	10.91
861.578	27.25
861.869	43.1
862.16	58.05
862.452	47.88
862.743	18.1
863.034	26.75
863.325	43.68
863.616	58.35
863.907	35.46
864.198	9.26
864.488	31.25
864.779	63.46
865.07	31.14
865.36	57.17
865.651	26.06
865.941	24.96
866.232	43.86
866.522	22.35
866.813	39.28
867.103	54.44
867.393	36.11
867.683	42.75
867.973	48.21
868.263	18.62
868.553	27.51
868.843	-2.37
869.133	27.48
869.423	42.01
869.713	41.28
870.002	36.94
870.292	49.35
870.582	28.94
870.871	26.28
871.161	13.24
871.45	3.88
871.739	46
872.029	7.06
872.318	48.99
872.607	41.19
872.896	46.66
873.185	53.59
873.474	56.59
873.763	53.9
874.052	43.18
874.341	-16.85
874.63	12.88
874.918	22.62
875.207	36.43
875.496	60.78
875.784	1.5
876.073	38.36
876.361	34.08
876.649	63.42
876.938	27.33
877.226	45.83
877.514	70.23
877.802	8.28
878.09	38.07
878.378	29.02
878.666	48.11
878.954	46.23
879.242	49.18
879.53	48.65
879.817	0.68
880.105	34.86
880.392	34.78
880.68	48.39
880.967	13.15
881.255	41.46
881.542	24.58
881.83	28.35
882.117	59.33
882.404	15.15
882.691	37.26
882.978	27.1
883.265	46.21
883.552	30.83
883.839	45.15
884.126	46.5
884.413	39.32
884.699	41.34
884.986	40.92
885.273	41.49
885.559	41.49
885.846	41.49
