Data from 0389_forehead_Reflection__1__72.txt Node

Date: Fri Dec 15 16:53:00 CST 2023
User: ToomeyLab
Spectrometer: FLMS14357
Trigger mode: 0
Integration Time (sec): 1.000000E-2
Scans to average: 100
Electric dark correction enabled: true
Nonlinearity correction enabled: false
Boxcar width: 0
XAxis mode: Wavelengths
Number of Pixels in Spectrum: 2048
>>>>>Begin Spectral Data<<<<<
189.047	-32.57
189.435	-32.57
189.823	-32.57
190.211	86.63
190.599	202.56
190.987	96.81
191.375	-4803.39
191.763	507.56
192.151	44.19
192.538	58.3
192.926	-1.52
193.314	120.29
193.702	-1333.62
194.089	46.74
194.477	-47.03
194.864	436.78
195.252	59.17
195.639	91.32
196.027	1349.61
196.414	-73.14
196.801	129.38
197.189	148.89
197.576	-4505.08
197.963	114.87
198.351	11.22
198.738	81.86
199.125	43.61
199.512	11.2
199.899	5.83
200.286	70.19
200.673	25.57
201.06	155.12
201.447	33.19
201.833	51.11
202.22	59.44
202.607	56.55
202.994	42.08
203.38	59.31
203.767	34.39
204.154	39.92
204.54	32.22
204.927	38.21
205.313	0.3
205.699	38.77
206.086	61.35
206.472	33.01
206.858	47.39
207.245	44.12
207.631	39.21
208.017	44.62
208.403	32.67
208.789	33.96
209.175	57.33
209.561	42.11
209.947	77.96
210.333	-12.49
210.719	52.25
211.105	27.04
211.491	21.08
211.876	47.68
212.262	38.39
212.648	21.63
213.034	34.74
213.419	5.85
213.805	32.1
214.19	51.57
214.576	59.37
214.961	43.94
215.346	-15.92
215.732	31.31
216.117	26.61
216.502	12.23
216.888	34.26
217.273	40.42
217.658	21.02
218.043	23.38
218.428	21.51
218.813	14.77
219.198	11.01
219.583	29.76
219.968	29.99
220.353	5.48
220.738	29.71
221.122	22.48
221.507	13.43
221.892	-14.57
222.276	6.39
222.661	7.75
223.046	19.24
223.43	22.85
223.815	10.7
224.199	-1.26
224.583	18.03
224.968	3.83
225.352	18.33
225.736	4.88
226.121	-3.04
226.505	12.14
226.889	12.14
227.273	6.67
227.657	5.78
228.041	6.27
228.425	5.2
228.809	10.08
229.193	6.44
229.577	4.28
229.961	3.71
230.344	2.88
230.728	3.54
231.112	4.46
231.495	3.77
231.879	2.84
232.263	4.52
232.646	4.06
233.03	5.68
233.413	3.51
233.797	5.93
234.18	3.33
234.563	7.21
234.946	4.4
235.33	6.92
235.713	5.75
236.096	4.73
236.479	6.38
236.862	2.57
237.245	7.58
237.628	3.89
238.011	5.62
238.394	6.79
238.777	5.22
239.16	5.46
239.543	6.37
239.925	5.41
240.308	4.2
240.691	6.99
241.073	5.77
241.456	4.64
241.838	4.01
242.221	4.29
242.603	3.68
242.986	3.69
243.368	3.88
243.75	4.68
244.133	4.22
244.515	5.02
244.897	4.38
245.279	5.02
245.661	4.7
246.043	4.32
246.425	3.91
246.807	6.31
247.189	5.39
247.571	4.44
247.953	4.65
248.335	3.91
248.717	4.44
249.098	3.8
249.48	4.27
249.862	4.15
250.243	4.3
250.625	4.56
251.006	4.86
251.388	3.23
251.769	4.68
252.151	5.69
252.532	4.33
252.913	4.34
253.295	3.11
253.676	4.29
254.057	4.53
254.438	4.09
254.819	3.6
255.2	3.86
255.581	4.91
255.962	4.41
256.343	4.1
256.724	4.21
257.105	4.92
257.486	4.96
257.867	4.64
258.247	4.8
258.628	4.8
259.009	4.61
259.389	5.06
259.77	4.39
260.15	4.8
260.531	3.36
260.911	4.26
261.292	3.72
261.672	4.07
262.052	3.95
262.432	4.16
262.813	4.72
263.193	4.31
263.573	3.57
263.953	4.65
264.333	5.06
264.713	4.78
265.093	3.65
265.473	4.44
265.853	4.24
266.233	4.82
266.612	3.04
266.992	3.94
267.372	4.1
267.752	4.06
268.131	4.59
268.511	4.46
268.89	4.36
269.27	3.8
269.649	3.45
270.029	3.86
270.408	5.83
270.787	4.25
271.167	5.26
271.546	4.53
271.925	3.66
272.304	4.33
272.683	4.07
273.062	4.09
273.441	4.29
273.82	3.48
274.199	3.72
274.578	4.04
274.957	3.91
275.336	4.06
275.715	3.34
276.093	4.29
276.472	4.67
276.851	4.25
277.229	4.14
277.608	3.38
277.986	4.17
278.365	3.89
278.743	3.67
279.122	3.99
279.5	4.28
279.878	4.4
280.257	3.99
280.635	4.15
281.013	3.93
281.391	4.38
281.769	4.87
282.147	4.3
282.525	4.51
282.903	4.06
283.281	4.33
283.659	4.68
284.037	4.61
284.415	4.43
284.792	4.28
285.17	3.9
285.548	3.97
285.925	3.96
286.303	3.91
286.68	4.09
287.058	3.92
287.435	4.19
287.813	4.39
288.19	3.45
288.567	3.9
288.945	4.3
289.322	4.22
289.699	4.41
290.076	4.44
290.453	4.31
290.83	4.08
291.207	4.02
291.584	4.43
291.961	4.44
292.338	4.15
292.715	4.91
293.092	4.76
293.469	4.32
293.845	4.89
294.222	4.13
294.599	4.28
294.975	4.68
295.352	5
295.728	4.48
296.105	4.73
296.481	5.38
296.858	4.85
297.234	5.19
297.61	4.73
297.986	4.58
298.363	5.05
298.739	4.61
299.115	4.69
299.491	4.71
299.867	5.03
300.243	4.99
300.619	4.76
300.995	5.09
301.371	5.37
301.746	5.41
302.122	6.2
302.498	5.02
302.874	5.52
303.249	5.65
303.625	6.29
304	5.48
304.376	5.91
304.751	5
305.127	6.2
305.502	5.26
305.878	5.58
306.253	6.02
306.628	6.76
307.003	6.16
307.378	6.3
307.754	5.92
308.129	5.86
308.504	7
308.879	6.51
309.254	7.18
309.629	6.65
310.003	6.66
310.378	6.98
310.753	6.91
311.128	6.79
311.502	6.59
311.877	7.35
312.252	6.77
312.626	6.98
313.001	6.81
313.375	7.51
313.75	6.92
314.124	7.28
314.498	6.99
314.873	7.38
315.247	7.5
315.621	7.36
315.995	7.37
316.369	7.85
316.743	7.38
317.117	8.07
317.491	7.68
317.865	7.55
318.239	8.54
318.613	8.25
318.987	8.21
319.361	7.93
319.734	8.36
320.108	8.29
320.482	8.59
320.855	8.88
321.229	8.31
321.602	8.43
321.976	8.98
322.349	8.91
322.723	9.44
323.096	9.42
323.469	8.71
323.843	9.47
324.216	9.73
324.589	9.28
324.962	9.29
325.335	9.83
325.708	9
326.081	9.22
326.454	9.42
326.827	9.79
327.2	9.96
327.573	9.78
327.945	10.02
328.318	9.48
328.691	9.45
329.063	10.18
329.436	9.93
329.809	9.96
330.181	9.98
330.553	10.05
330.926	10.15
331.298	10.65
331.671	10.11
332.043	10.71
332.415	10.99
332.787	11
333.159	11.31
333.532	10.21
333.904	10.72
334.276	10.88
334.648	10.78
335.02	10.5
335.391	10.86
335.763	10.74
336.135	11.05
336.507	12.07
336.879	11.08
337.25	11.16
337.622	11.05
337.993	11.48
338.365	11.9
338.736	11.56
339.108	11.23
339.479	11.45
339.851	11.83
340.222	11.78
340.593	11.63
340.964	11.65
341.336	12.62
341.707	11.54
342.078	11.8
342.449	12.27
342.82	11.9
343.191	12.17
343.562	12.06
343.933	12.38
344.303	12.81
344.674	12.15
345.045	12.36
345.416	12.59
345.786	12.17
346.157	12.7
346.527	11.94
346.898	12.51
347.268	12.88
347.639	12.95
348.009	12.68
348.38	12.44
348.75	12.81
349.12	13.04
349.49	13.61
349.861	13.2
350.231	13.08
350.601	13.39
350.971	13.24
351.341	13.32
351.711	13.21
352.081	13.12
352.45	13.28
352.82	13.38
353.19	13.81
353.56	13.49
353.929	13.7
354.299	13.76
354.669	13.48
355.038	13.96
355.408	13.46
355.777	13.99
356.147	14.07
356.516	14.16
356.885	13.81
357.254	14.23
357.624	14.52
357.993	14.15
358.362	14.15
358.731	14
359.1	14.33
359.469	14.57
359.838	14.69
360.207	14.5
360.576	14.56
360.945	14.64
361.314	14.85
361.682	14.72
362.051	14.47
362.42	14.83
362.788	14.56
363.157	14.86
363.525	14.7
363.894	14.75
364.262	15.03
364.631	15.21
364.999	15.38
365.367	14.93
365.735	16.06
366.104	15.53
366.472	15.61
366.84	15.46
367.208	15.52
367.576	15.93
367.944	15.83
368.312	15.49
368.68	15.54
369.048	15.56
369.416	16.04
369.783	15.56
370.151	16.2
370.519	16.27
370.886	16.53
371.254	15.76
371.621	16.28
371.989	16.42
372.356	16.2
372.724	16.61
373.091	16.55
373.458	16.6
373.826	16.44
374.193	16.78
374.56	16.9
374.927	16.5
375.294	16.99
375.661	16.85
376.028	16.65
376.395	17.22
376.762	16.73
377.129	16.71
377.496	16.82
377.863	17.19
378.229	16.5
378.596	16.9
378.963	16.98
379.329	17.45
379.696	17.81
380.062	17.62
380.429	17.46
380.795	17.37
381.161	17.93
381.528	18.02
381.894	17.59
382.26	17.47
382.626	17.7
382.993	17.64
383.359	18.09
383.725	18.09
384.091	18.05
384.457	18.47
384.823	18.22
385.188	18.47
385.554	18.18
385.92	18.26
386.286	18.52
386.651	18.51
387.017	18.72
387.383	18.45
387.748	18.74
388.114	18.78
388.479	18.48
388.845	18.71
389.21	18.85
389.575	18.92
389.94	19.23
390.306	18.93
390.671	19.01
391.036	18.58
391.401	18.84
391.766	18.99
392.131	19.03
392.496	19.47
392.861	18.95
393.226	19.32
393.591	18.99
393.956	19.07
394.32	19.38
394.685	19.18
395.05	19.34
395.414	19.42
395.779	19.44
396.143	19.38
396.508	19.55
396.872	19.57
397.236	19.77
397.601	19.59
397.965	19.83
398.329	19.95
398.694	20.14
399.058	20.08
399.422	20.1
399.786	20.1
400.15	20.33
400.514	20.19
400.878	20.29
401.242	20.22
401.605	20.47
401.969	20.47
402.333	20.32
402.697	20.34
403.06	20.59
403.424	20.68
403.787	20.45
404.151	20.45
404.514	20.78
404.878	20.65
405.241	20.69
405.604	20.59
405.968	20.77
406.331	20.86
406.694	21.11
407.057	20.69
407.42	20.97
407.783	20.69
408.146	20.99
408.509	21.04
408.872	21.08
409.235	21.37
409.598	21.6
409.961	21.25
410.323	21.53
410.686	21.09
411.049	21.43
411.411	21.38
411.774	21.25
412.136	21.37
412.499	21.42
412.861	21.43
413.223	21.54
413.586	21.71
413.948	21.56
414.31	21.71
414.672	21.84
415.035	21.53
415.397	22.02
415.759	21.83
416.121	21.76
416.483	21.85
416.845	22.04
417.206	22.01
417.568	22.16
417.93	21.89
418.292	21.77
418.653	22.17
419.015	22.11
419.377	22.07
419.738	22.16
420.1	22.18
420.461	22.28
420.822	22.39
421.184	22.38
421.545	22.18
421.906	22.22
422.267	22.24
422.629	22.1
422.99	22.26
423.351	22.29
423.712	22.54
424.073	22.59
424.434	22.69
424.795	22.7
425.155	22.83
425.516	22.88
425.877	22.76
426.238	22.92
426.598	23.14
426.959	23.06
427.32	23.22
427.68	23.33
428.041	23.35
428.401	23.68
428.761	23.58
429.122	23.77
429.482	23.79
429.842	24.18
430.202	24.21
430.563	24.18
430.923	23.98
431.283	24.41
431.643	24.43
432.003	24.37
432.363	24.33
432.722	24.65
433.082	24.49
433.442	24.6
433.802	24.39
434.161	24.64
434.521	24.93
434.881	24.77
435.24	24.61
435.6	24.73
435.959	24.8
436.319	25.04
436.678	25.16
437.037	25.24
437.396	25.26
437.756	25.54
438.115	25.39
438.474	25.78
438.833	25.38
439.192	25.57
439.551	25.67
439.91	25.59
440.269	25.62
440.628	25.49
440.987	25.9
441.345	25.55
441.704	25.77
442.063	25.43
442.421	25.65
442.78	25.7
443.138	25.81
443.497	25.88
443.855	26.12
444.214	26.24
444.572	26.29
444.93	26.23
445.288	26.29
445.647	26.57
446.005	26.3
446.363	26.52
446.721	26.41
447.079	26.46
447.437	26.41
447.795	26.41
448.153	26.38
448.51	26.46
448.868	26.52
449.226	26.59
449.584	26.84
449.941	26.91
450.299	26.91
450.656	27.06
451.014	27.14
451.371	27.26
451.729	27.38
452.086	27.66
452.443	27.59
452.801	27.76
453.158	27.47
453.515	27.73
453.872	27.63
454.229	27.64
454.586	27.63
454.943	27.97
455.3	28.12
455.657	28.06
456.014	27.98
456.371	28.07
456.727	28.33
457.084	28.37
457.441	28.25
457.797	28.56
458.154	28.55
458.51	28.56
458.867	28.65
459.223	28.65
459.58	28.77
459.936	28.7
460.292	28.73
460.648	28.5
461.005	28.44
461.361	28.37
461.717	28.11
462.073	28.33
462.429	28.5
462.785	28.74
463.141	28.83
463.496	29.01
463.852	29.38
464.208	29.26
464.564	29.38
464.919	29.24
465.275	29.7
465.631	29.78
465.986	29.63
466.342	29.68
466.697	29.43
467.052	29.97
467.408	29.83
467.763	29.86
468.118	29.86
468.473	29.96
468.829	29.92
469.184	29.67
469.539	30.36
469.894	29.92
470.249	30.3
470.603	30.39
470.958	30.55
471.313	30.39
471.668	30.46
472.023	30.3
472.377	30.6
472.732	30.77
473.086	30.55
473.441	30.24
473.795	30.98
474.15	30.84
474.504	30.65
474.859	30.6
475.213	30.78
475.567	30.93
475.921	30.86
476.275	31.05
476.63	31.04
476.984	31.37
477.338	31.52
477.692	31.1
478.045	31.15
478.399	31.08
478.753	31.18
479.107	31.29
479.461	31.31
479.814	31.25
480.168	31.35
480.521	31.22
480.875	31.61
481.228	31.78
481.582	31.6
481.935	31.57
482.289	31.76
482.642	31.53
482.995	31.4
483.348	31.23
483.701	31.49
484.055	31.39
484.408	31.27
484.761	30.91
485.114	30.61
485.466	30.12
485.819	30.35
486.172	30.66
486.525	30.91
486.878	31.04
487.23	31.4
487.583	31.53
487.936	31.51
488.288	31.5
488.641	31.25
488.993	31.1
489.345	31.1
489.698	31.17
490.05	31.23
490.402	31.42
490.754	31.71
491.107	31.91
491.459	32.29
491.811	32.21
492.163	32.36
492.515	32.31
492.866	32.02
493.218	31.7
493.57	31.61
493.922	31.86
494.274	32.3
494.625	32.52
494.977	32.8
495.328	33.07
495.68	33.26
496.031	33.34
496.383	33.53
496.734	33.56
497.086	33.57
497.437	33.35
497.788	33.35
498.139	33.37
498.49	33.31
498.842	33.31
499.193	33.31
499.544	33.62
499.894	33.64
500.245	33.69
500.596	33.69
500.947	33.84
501.298	33.86
501.648	33.97
501.999	34.15
502.35	33.98
502.7	34.04
503.051	34.17
503.401	34.26
503.752	34.59
504.102	34.4
504.452	34.49
504.803	34.61
505.153	34.54
505.503	34.46
505.853	34.48
506.203	34.45
506.553	34.44
506.903	34.7
507.253	34.78
507.603	34.73
507.953	35.04
508.303	34.97
508.652	34.91
509.002	35.03
509.352	35.24
509.701	34.94
510.051	34.78
510.4	34.87
510.75	34.91
511.099	34.87
511.449	34.76
511.798	35.04
512.147	34.91
512.496	34.99
512.846	35.19
513.195	35.27
513.544	35.11
513.893	35.19
514.242	35.33
514.591	35.47
514.939	35.65
515.288	35.51
515.637	35.56
515.986	35.64
516.334	35.64
516.683	35.81
517.032	35.76
517.38	36.09
517.729	35.95
518.077	35.84
518.426	35.95
518.774	35.85
519.122	35.84
519.47	35.71
519.819	35.62
520.167	35.42
520.515	35.33
520.863	35.36
521.211	35.72
521.559	35.84
521.907	35.81
522.255	36.01
522.602	35.83
522.95	36.27
523.298	36.42
523.645	36.5
523.993	36.49
524.341	36.48
524.688	36.39
525.036	36.75
525.383	36.64
525.73	36.56
526.078	36.47
526.425	36.49
526.772	36.61
527.119	36.26
527.466	36.02
527.814	36.07
528.161	36.22
528.508	36.36
528.854	36.32
529.201	36.4
529.548	35.98
529.895	35.77
530.242	35.43
530.588	35.33
530.935	35.74
531.282	36.05
531.628	36.17
531.975	36.36
532.321	36.62
532.667	36.69
533.014	36.78
533.36	36.94
533.706	37.02
534.052	36.89
534.399	36.8
534.745	36.51
535.091	36.15
535.437	36.43
535.783	36.74
536.129	36.95
536.474	37.02
536.82	37.25
537.166	37.35
537.512	37.64
537.857	37.38
538.203	37.36
538.549	37.16
538.894	37.33
539.239	37.41
539.585	37.67
539.93	37.87
540.276	37.8
540.621	38.26
540.966	38.08
541.311	38.11
541.656	38.14
542.001	37.97
542.346	37.87
542.691	37.26
543.036	37.05
543.381	37.06
543.726	37.27
544.071	37.52
544.415	37.65
544.76	37.91
545.105	37.84
545.449	38.07
545.794	38.19
546.138	38.25
546.483	38.38
546.827	38.39
547.171	38.59
547.516	38.64
547.86	38.58
548.204	38.69
548.548	38.57
548.892	38.53
549.236	38.57
549.58	38.66
549.924	38.93
550.268	39.24
550.612	39.19
550.956	39.48
551.3	39.52
551.643	39.68
551.987	39.6
552.33	39.58
552.674	39.64
553.017	39.76
553.361	39.65
553.704	39.67
554.048	39.67
554.391	39.49
554.734	39.53
555.077	39.6
555.42	39.48
555.764	39.77
556.107	39.81
556.45	39.7
556.793	39.88
557.135	40.27
557.478	40.09
557.821	40.59
558.164	40.1
558.507	40.44
558.849	40.32
559.192	40.32
559.534	40.45
559.877	40.62
560.219	40.33
560.562	40.64
560.904	40.53
561.246	40.85
561.589	40.49
561.931	40.75
562.273	40.5
562.615	40.66
562.957	40.7
563.299	40.5
563.641	40.84
563.983	40.85
564.325	40.78
564.667	41.05
565.008	40.84
565.35	40.92
565.692	40.71
566.033	40.61
566.375	41.45
566.716	40.77
567.058	40.99
567.399	40.78
567.741	40.99
568.082	41.09
568.423	40.81
568.764	40.89
569.105	41.26
569.447	40.98
569.788	41.3
570.129	41.4
570.47	41.26
570.811	41.34
571.151	41.3
571.492	41.57
571.833	41.37
572.174	41.28
572.514	41.62
572.855	41.24
573.195	41.55
573.536	41.36
573.876	41.25
574.217	41.18
574.557	41.58
574.898	41.71
575.238	41.8
575.578	41.71
575.918	41.53
576.258	41.89
576.598	41.69
576.938	41.89
577.278	41.88
577.618	41.72
577.958	41.98
578.298	42.14
578.638	41.94
578.977	42.29
579.317	42.19
579.657	42.4
579.996	42.33
580.336	42.36
580.675	42.68
581.014	42.76
581.354	42.73
581.693	42.86
582.032	43.12
582.372	42.89
582.711	42.9
583.05	42.74
583.389	42.89
583.728	42.96
584.067	42.93
584.406	43.13
584.745	43.22
585.083	42.89
585.422	42.87
585.761	43.16
586.1	42.99
586.438	43.08
586.777	43.25
587.115	43.35
587.454	43.31
587.792	43.22
588.13	43.59
588.469	43.77
588.807	43.44
589.145	43.18
589.483	43.3
589.821	43.4
590.159	43.66
590.497	43.87
590.835	43.53
591.173	43.53
591.511	43.74
591.849	43.25
592.187	43.6
592.524	43.61
592.862	43.57
593.2	43.67
593.537	43.64
593.875	43.82
594.212	43.73
594.55	43.73
594.887	44.13
595.224	43.89
595.561	43.79
595.899	43.92
596.236	44.21
596.573	44.02
596.91	43.69
597.247	44
597.584	44.15
597.921	43.96
598.258	43.65
598.594	43.69
598.931	43.42
599.268	43.78
599.604	43.8
599.941	44.14
600.277	44.21
600.614	44.01
600.95	44.44
601.287	44.61
601.623	44.28
601.959	44.55
602.296	44.48
602.632	44.56
602.968	44.86
603.304	44.84
603.64	44.81
603.976	44.63
604.312	44.62
604.648	44.72
604.984	44.81
605.319	44.26
605.655	44.6
605.991	44.67
606.326	43.96
606.662	43.99
606.998	44.32
607.333	44.29
607.668	44.59
608.004	44.83
608.339	44.94
608.674	44.89
609.01	44.95
609.345	45.23
609.68	45.42
610.015	45.28
610.35	45.12
610.685	44.87
611.02	44.93
611.355	44.95
611.689	45.06
612.024	45.03
612.359	45.19
612.694	45.46
613.028	45.17
613.363	45.43
613.697	44.98
614.032	45.81
614.366	45.66
614.7	45.75
615.035	45.95
615.369	45.83
615.703	45.69
616.037	45.9
616.371	45.86
616.705	46.03
617.039	46.24
617.373	45.73
617.707	45.72
618.041	45.75
618.375	45.94
618.709	46.23
619.042	46.12
619.376	46.66
619.71	46.21
620.043	46.22
620.377	45.98
620.71	46.35
621.043	46.07
621.377	46.16
621.71	46.66
622.043	46.12
622.376	46.32
622.709	46.66
623.043	47.1
623.376	46.54
623.709	46.43
624.041	46.5
624.374	46.98
624.707	46.54
625.04	46.41
625.373	46.49
625.705	46.69
626.038	46.72
626.37	47.25
626.703	46.35
627.035	46.53
627.368	46.87
627.7	46.07
628.032	46.73
628.365	46.75
628.697	46.59
629.029	46.79
629.361	46.63
629.693	46.78
630.025	46.85
630.357	47.21
630.689	47.05
631.021	47.18
631.353	47.19
631.684	46.83
632.016	46.92
632.348	47.44
632.679	47.2
633.011	47.6
633.342	47.72
633.674	47.3
634.005	47.41
634.336	47.26
634.668	47.44
634.999	46.91
635.33	47.09
635.661	47.45
635.992	47.71
636.323	47.58
636.654	47.17
636.985	47.4
637.316	47.17
637.647	47.27
637.977	47.55
638.308	48.19
638.639	47.85
638.969	47.81
639.3	47.46
639.63	47.55
639.961	48.04
640.291	47.82
640.622	48.33
640.952	47.81
641.282	48.11
641.612	48.12
641.943	48.25
642.273	47.67
642.603	48.38
642.933	47.56
643.263	48.32
643.592	48.12
643.922	48.16
644.252	47.88
644.582	47.71
644.911	48
645.241	48.16
645.571	48.53
645.9	48.52
646.23	48.33
646.559	48.77
646.888	48.44
647.218	48.8
647.547	48.67
647.876	48.29
648.205	48.6
648.534	48.3
648.863	48.72
649.192	48.76
649.521	48.32
649.85	48.19
650.179	48.71
650.508	47.92
650.837	48.49
651.165	48.77
651.494	48.82
651.822	48.75
652.151	48.52
652.479	49.07
652.808	48.39
653.136	48.8
653.465	48.59
653.793	48.76
654.121	48.67
654.449	49.1
654.777	48.68
655.105	49.54
655.433	48.56
655.761	48.76
656.089	49.46
656.417	49.55
656.745	48.97
657.073	48.9
657.4	49.34
657.728	49.34
658.056	49.26
658.383	49.26
658.711	49.86
659.038	49.11
659.365	50.12
659.693	48.68
660.02	49.01
660.347	49.49
660.674	48.86
661.001	48.81
661.329	48.56
661.656	49.54
661.982	49.48
662.309	49.6
662.636	49.56
662.963	50.12
663.29	49.34
663.616	50.04
663.943	49.4
664.27	49.16
664.596	49.92
664.923	49.58
665.249	49.81
665.576	49.52
665.902	50.3
666.228	49.77
666.554	50.24
666.881	49.99
667.207	48.93
667.533	49.48
667.859	51.04
668.185	50.05
668.511	49.89
668.837	49.5
669.162	50.76
669.488	50.17
669.814	50.01
670.139	50.22
670.465	49.84
670.791	49.48
671.116	51.01
671.442	49.99
671.767	50.16
672.092	49.65
672.418	50.51
672.743	50.57
673.068	50.42
673.393	50.41
673.718	49.73
674.043	50.45
674.368	50.2
674.693	50.81
675.018	50.24
675.343	50.53
675.667	50.52
675.992	50.05
676.317	50.41
676.641	49.84
676.966	51.3
677.29	50.65
677.615	49.98
677.939	51.4
678.264	50.38
678.588	50.95
678.912	50.3
679.236	51.16
679.56	51.25
679.885	50.78
680.209	51.17
680.532	50.6
680.856	50.84
681.18	50.75
681.504	50.82
681.828	50.74
682.152	50.95
682.475	50.65
682.799	51.14
683.122	51.27
683.446	50.69
683.769	51.58
684.093	50.52
684.416	51.88
684.739	51.37
685.062	50.56
685.386	51.33
685.709	50.63
686.032	51.53
686.355	51.47
686.678	52.22
687.001	50.83
687.324	51.68
687.646	51.03
687.969	51.96
688.292	50.75
688.614	52.08
688.937	51.89
689.26	51.3
689.582	51.82
689.904	51.69
690.227	51.19
690.549	51.76
690.871	51.42
691.194	51.39
691.516	52.13
691.838	51.71
692.16	52.02
692.482	51.67
692.804	51.91
693.126	51.23
693.448	51.5
693.769	52.12
694.091	52.19
694.413	51.25
694.735	51.61
695.056	50.94
695.378	52.25
695.699	52.18
696.021	51.92
696.342	51.74
696.663	52.02
696.984	52.39
697.306	51.76
697.627	51.91
697.948	51.93
698.269	52.5
698.59	52.58
698.911	52.43
699.232	51.53
699.553	51.96
699.873	52.1
700.194	52.71
700.515	51.98
700.835	52.05
701.156	52.45
701.477	52.27
701.797	51.85
702.117	52.26
702.438	52.77
702.758	51.4
703.078	51.79
703.398	52.16
703.719	52.61
704.039	52.5
704.359	52.72
704.679	53.64
704.999	52.37
705.319	52.69
705.638	51.58
705.958	51.5
706.278	53.97
706.597	52.53
706.917	52.31
707.237	53.77
707.556	52.24
707.876	52.85
708.195	52.43
708.514	51.38
708.834	52.51
709.153	53.11
709.472	53.62
709.791	53.66
710.11	52.66
710.429	53.47
710.748	53.62
711.067	52.16
711.386	52.26
711.705	53.64
712.023	53.85
712.342	53.01
712.661	52.79
712.979	53.22
713.298	53.63
713.616	52.08
713.935	53.08
714.253	52.2
714.572	54.39
714.89	53.26
715.208	53.65
715.526	53.38
715.844	52.57
716.162	53.92
716.48	52.76
716.798	52.92
717.116	52.75
717.434	53.06
717.752	52.5
718.069	53.46
718.387	53.41
718.705	54.14
719.022	52.32
719.34	54.71
719.657	52.14
719.975	53.99
720.292	52.66
720.609	53.52
720.927	53.93
721.244	52.53
721.561	53.38
721.878	54.37
722.195	54.51
722.512	53.96
722.829	52.61
723.146	51.55
723.463	54.27
723.779	54.36
724.096	52.92
724.413	53.39
724.729	53.74
725.046	52.7
725.362	54.68
725.679	53.37
725.995	53.47
726.311	53.12
726.628	55.64
726.944	53.48
727.26	54.3
727.576	53.29
727.892	54.33
728.208	54.54
728.524	53.41
728.84	52.58
729.156	53.29
729.472	52.95
729.787	53.77
730.103	53.98
730.419	53.37
730.734	53.64
731.05	53.41
731.365	54.81
731.681	54.2
731.996	55.05
732.311	54.18
732.626	54.99
732.942	54.25
733.257	54.46
733.572	54.9
733.887	55.3
734.202	54.81
734.517	54.46
734.832	54.53
735.146	55.88
735.461	53
735.776	54.42
736.091	54.27
736.405	56.1
736.72	54.42
737.034	53.38
737.349	55.71
737.663	54.01
737.977	55.42
738.292	54.55
738.606	53.61
738.92	54.78
739.234	54.67
739.548	56.26
739.862	55.2
740.176	52.76
740.49	54.2
740.804	54.57
741.117	54.14
741.431	54.43
741.745	54.91
742.058	55.47
742.372	53.1
742.685	55.77
742.999	55.6
743.312	53.56
743.626	55.38
743.939	54.84
744.252	55.53
744.565	55.1
744.878	54.06
745.191	54.2
745.505	54.73
745.817	54.41
746.13	53.48
746.443	55.54
746.756	54.82
747.069	55.35
747.381	55.63
747.694	53.87
748.007	54.19
748.319	56.21
748.632	54.82
748.944	56.21
749.256	56.07
749.569	55.03
749.881	55.88
750.193	55.31
750.505	55.56
750.817	56.28
751.129	55.66
751.441	55.59
751.753	55.13
752.065	55.79
752.377	55.11
752.689	56.52
753	55.43
753.312	55.41
753.624	55.68
753.935	55.92
754.247	57.07
754.558	54.79
754.869	53.67
755.181	55.69
755.492	55.82
755.803	53.58
756.114	55
756.425	55.11
756.736	54.34
757.047	57.24
757.358	56.38
757.669	58.25
757.98	58.59
758.291	56.21
758.601	55.14
758.912	54.92
759.223	55.36
759.533	53.57
759.844	55.54
760.154	58.09
760.464	55.07
760.775	56.84
761.085	56.55
761.395	54.7
761.705	55.23
762.016	57.69
762.326	54.89
762.636	55.33
762.945	55.92
763.255	56.39
763.565	54.18
763.875	56.48
764.185	57.88
764.494	55.19
764.804	56.38
765.113	57.4
765.423	55.68
765.732	57.78
766.042	54.89
766.351	58.01
766.66	57.74
766.97	56.62
767.279	56.53
767.588	56.6
767.897	56.47
768.206	56.23
768.515	57.85
768.824	56.49
769.133	55.87
769.441	56.46
769.75	55.86
770.059	58.04
770.367	58.32
770.676	56.62
770.984	54.47
771.293	56.65
771.601	57.25
771.91	55.93
772.218	55.4
772.526	60.02
772.834	54.64
773.142	59.9
773.45	55.95
773.758	53.96
774.066	57.84
774.374	55.83
774.682	57.91
774.99	58.9
775.298	56.52
775.605	55.75
775.913	56.8
776.22	55.68
776.528	59.32
776.835	59.31
777.143	57.07
777.45	54.94
777.757	60.2
778.065	55.84
778.372	55.87
778.679	55.9
778.986	56.74
779.293	54.92
779.6	59.88
779.907	58.51
780.214	55.23
780.52	57.26
780.827	59.52
781.134	52.14
781.44	55.87
781.747	55.52
782.053	59.58
782.36	59.15
782.666	56.95
782.973	60.73
783.279	54.27
783.585	54.76
783.891	52.78
784.197	58.2
784.503	57.81
784.809	56.28
785.115	52.39
785.421	58.66
785.727	54.19
786.033	58.35
786.339	57.42
786.644	55.54
786.95	60.5
787.255	59.56
787.561	62.74
787.866	56.36
788.172	59.17
788.477	57.07
788.782	59.42
789.088	58.35
789.393	56.48
789.698	58.4
790.003	56.83
790.308	56.07
790.613	59.72
790.918	60.04
791.223	58.32
791.527	58.37
791.832	57.94
792.137	56.69
792.441	60.15
792.746	56.79
793.05	57.26
793.355	57.15
793.659	56.96
793.963	57.7
794.268	56.23
794.572	54.67
794.876	57.92
795.18	57.38
795.484	56.57
795.788	59.09
796.092	59.17
796.396	56.93
796.7	53.92
797.004	59.35
797.307	56.09
797.611	52.36
797.915	57.19
798.218	54.59
798.522	57.68
798.825	55.89
799.128	58.68
799.432	53.28
799.735	58.3
800.038	59.92
800.341	56.6
800.644	56.62
800.947	56.83
801.25	60.19
801.553	56.34
801.856	56.38
802.159	57.45
802.462	55.12
802.764	57.97
803.067	58.4
803.37	58.5
803.672	56.85
803.975	59.59
804.277	57.19
804.579	57.04
804.882	55.96
805.184	55.69
805.486	58.81
805.788	58.4
806.09	59.08
806.392	57.11
806.694	56.65
806.996	59.48
807.298	59.09
807.6	59.14
807.902	57.19
808.203	62.03
808.505	54.92
808.807	56.04
809.108	62.04
809.409	58.93
809.711	53.41
810.012	61.84
810.313	52.86
810.615	59.17
810.916	52.48
811.217	59.05
811.518	57.85
811.819	59.99
812.12	57.92
812.421	54.5
812.722	58.29
813.023	67.86
813.323	55.03
813.624	59.86
813.925	57.78
814.225	54.12
814.526	61.37
814.826	60.15
815.126	47.74
815.427	53.24
815.727	60.3
816.027	60.44
816.327	62.57
816.627	59.07
816.927	61.61
817.227	58.24
817.527	56.15
817.827	59.41
818.127	57.77
818.427	57.66
818.727	65.11
819.026	59.41
819.326	63.45
819.625	57.79
819.925	61.02
820.224	64.24
820.524	54.23
820.823	63.85
821.122	60.77
821.421	59.08
821.72	58.55
822.019	58.46
822.318	60.67
822.617	53.29
822.916	58.25
823.215	64.28
823.514	62.74
823.813	61.94
824.111	59.49
824.41	58.72
824.709	60.11
825.007	58.9
825.306	60.21
825.604	59.17
825.902	58.73
826.201	58.93
826.499	58.17
826.797	59.66
827.095	60.45
827.393	58.38
827.691	58.34
827.989	56.69
828.287	59.45
828.585	58.17
828.882	60.04
829.18	58.93
829.478	61.26
829.775	59.85
830.073	58.08
830.37	57.39
830.668	59.18
830.965	59.92
831.263	60.08
831.56	60.04
831.857	60.1
832.154	56.99
832.451	57.77
832.748	60.15
833.045	60.75
833.342	60.56
833.639	55.05
833.936	62.85
834.232	59.74
834.529	52.3
834.826	55.5
835.122	62.88
835.419	58.27
835.715	51.14
836.012	59.7
836.308	59.11
836.604	62.14
836.901	57.69
837.197	62.82
837.493	62.96
837.789	57.12
838.085	60.77
838.381	59.84
838.677	60.05
838.972	61.87
839.268	55.58
839.564	58.14
839.86	58.2
840.155	62.98
840.451	63.43
840.746	59.08
841.042	64.21
841.337	65.95
841.632	56.57
841.928	60.67
842.223	51.76
842.518	62.67
842.813	71.54
843.108	51.52
843.403	60.33
843.698	65.03
843.993	67.29
844.287	63.2
844.582	61.14
844.877	61.42
845.171	51.82
845.466	62.28
845.761	65.95
846.055	58.44
846.349	61.09
846.644	62.32
846.938	50.49
847.232	51.68
847.526	57.04
847.82	63.91
848.114	67.03
848.408	51.3
848.702	57.05
848.996	62.38
849.29	64.34
849.584	72.09
849.877	65.05
850.171	65.32
850.465	63.77
850.758	65.26
851.052	55.79
851.345	57.12
851.638	71.13
851.932	62.1
852.225	60.11
852.518	61.8
852.811	48.92
853.104	47.01
853.397	66.98
853.69	80.69
853.983	74.48
854.276	65.86
854.569	69.59
854.861	70.63
855.154	49.44
855.447	48.53
855.739	86.78
856.032	55.59
856.324	60.57
856.616	61.62
856.909	60.49
857.201	55.66
857.493	68.74
857.785	61
858.077	58.48
858.369	66.76
858.661	69.92
858.953	56.98
859.245	75.65
859.537	69.39
859.829	78.13
860.12	71.69
860.412	65.8
860.703	80.75
860.995	50.86
861.286	48.6
861.578	74.97
861.869	49.97
862.16	41.97
862.452	78.44
862.743	63.42
863.034	64.23
863.325	55.1
863.616	66.8
863.907	60.92
864.198	46.18
864.488	80.36
864.779	62.89
865.07	88.85
865.36	61.11
865.651	61.75
865.941	94.94
866.232	53.84
866.522	54.49
866.813	54.12
867.103	87.92
867.393	34.52
867.683	69.14
867.973	81.83
868.263	62.38
868.553	68.85
868.843	54.97
869.133	44.02
869.423	32.56
869.713	59.66
870.002	69.77
870.292	54.01
870.582	69.83
870.871	30.18
871.161	60.07
871.45	88.15
871.739	57.66
872.029	57.54
872.318	77.43
872.607	87.98
872.896	37.98
873.185	60.13
873.474	57.49
873.763	52.66
874.052	54.44
874.341	63.14
874.63	47.97
874.918	53.45
875.207	59.58
875.496	74.46
875.784	15.49
876.073	77.93
876.361	25.27
876.649	62.05
876.938	52.86
877.226	89.22
877.514	102.06
877.802	77.53
878.09	50.83
878.378	72.71
878.666	58.66
878.954	58.39
879.242	79.16
879.53	80.84
879.817	70.79
880.105	49.63
880.392	62.8
880.68	53.61
880.967	100.36
881.255	73.75
881.542	85.62
881.83	71.28
882.117	40.74
882.404	58.65
882.691	71
882.978	56.18
883.265	40.64
883.552	63.63
883.839	61.35
884.126	51.59
884.413	64.93
884.699	68.02
884.986	68
885.273	62.53
885.559	62.53
885.846	62.53
