Data from 1805-1_crown_Reflection__1__67.txt Node

Date: Fri Sep 30 18:17:09 CDT 2022
User: ToomeyLab
Spectrometer: FLMS14357
Trigger mode: 0
Integration Time (sec): 1.000000E-2
Scans to average: 100
Electric dark correction enabled: true
Nonlinearity correction enabled: false
Boxcar width: 0
XAxis mode: Wavelengths
Number of Pixels in Spectrum: 2048
>>>>>Begin Spectral Data<<<<<
189.047	4.68
189.435	4.68
189.823	4.68
190.211	-206.96
190.599	-757.82
190.987	37.18
191.375	234.76
191.763	-16.66
192.151	52.25
192.538	8.8
192.926	-61.03
193.314	47.01
193.702	89.27
194.089	473.1
194.477	-108.84
194.864	-221.31
195.252	76.07
195.639	51.77
196.027	57.74
196.414	-348.38
196.801	89.47
197.189	-35.02
197.576	-45.24
197.963	-24.99
198.351	10.86
198.738	-19.45
199.125	50.38
199.512	20.2
199.899	10.37
200.286	26.85
200.673	35.63
201.06	14.04
201.447	12.23
201.833	59.04
202.22	48.21
202.607	23.58
202.994	54.65
203.38	19.18
203.767	-6.97
204.154	23.92
204.54	16.38
204.927	35.76
205.313	-25.28
205.699	24.27
206.086	13.32
206.472	-16.92
206.858	59.95
207.245	9.04
207.631	8.94
208.017	29.47
208.403	19.46
208.789	13.4
209.175	14.58
209.561	-10.53
209.947	-6.9
210.333	-5.23
210.719	-3.32
211.105	-9.12
211.491	-19.24
211.876	16.3
212.262	36.13
212.648	32.08
213.034	-17.33
213.419	16.12
213.805	11.14
214.19	31.64
214.576	19.06
214.961	5.75
215.346	12.64
215.732	-3.58
216.117	9.45
216.502	27.38
216.888	33.2
217.273	18.21
217.658	22.66
218.043	-0.18
218.428	5.78
218.813	8.08
219.198	16.42
219.583	16.26
219.968	15.54
220.353	9.69
220.738	3.92
221.122	8.81
221.507	10.41
221.892	9.02
222.276	-2.54
222.661	12.71
223.046	5.35
223.43	6.79
223.815	11.06
224.199	5.39
224.583	7.32
224.968	10.32
225.352	8.54
225.736	8.26
226.121	6.72
226.505	6.81
226.889	-2.55
227.273	-1.95
227.657	9.79
228.041	6.24
228.425	9.84
228.809	5.17
229.193	6.7
229.577	3.27
229.961	5.96
230.344	4.64
230.728	5.17
231.112	5.65
231.495	4.5
231.879	7.67
232.263	6.15
232.646	3.78
233.03	6.16
233.413	5.86
233.797	6.45
234.18	4.71
234.563	5.39
234.946	5.86
235.33	5.13
235.713	5.8
236.096	6.24
236.479	4.87
236.862	4.7
237.245	6.45
237.628	6.53
238.011	7.32
238.394	4.08
238.777	2.51
239.16	4.77
239.543	4.73
239.925	4.18
240.308	4.07
240.691	6.11
241.073	5.15
241.456	3.73
241.838	5.6
242.221	4.52
242.603	5.87
242.986	5.48
243.368	4.47
243.75	5.05
244.133	4.86
244.515	4.72
244.897	5.11
245.279	5.44
245.661	5.05
246.043	4.33
246.425	4.16
246.807	4.6
247.189	5.11
247.571	4.79
247.953	4.85
248.335	4.71
248.717	4.76
249.098	5.02
249.48	5.02
249.862	5.06
250.243	5.02
250.625	4.94
251.006	4.61
251.388	3.25
251.769	5.38
252.151	5.83
252.532	5.21
252.913	4.08
253.295	4.22
253.676	4.66
254.057	4.54
254.438	5.12
254.819	6.24
255.2	4.41
255.581	4.62
255.962	5.12
256.343	5.82
256.724	6.08
257.105	6.7
257.486	4.57
257.867	4.98
258.247	4.47
258.628	5.06
259.009	5.13
259.389	4.4
259.77	4.59
260.15	4.46
260.531	4.77
260.911	4.6
261.292	4.3
261.672	4.48
262.052	4.59
262.432	4.74
262.813	5.2
263.193	4.54
263.573	4.79
263.953	4.4
264.333	4.88
264.713	4.77
265.093	4.18
265.473	4.56
265.853	4.6
266.233	4.65
266.612	3.87
266.992	4.55
267.372	3.97
267.752	4.01
268.131	3.86
268.511	3.83
268.89	4.09
269.27	4.5
269.649	4.37
270.029	4.53
270.408	3.74
270.787	4.46
271.167	4.43
271.546	4.42
271.925	4.93
272.304	4.69
272.683	4.18
273.062	4.28
273.441	3.89
273.82	3.9
274.199	4.32
274.578	4.31
274.957	4.22
275.336	4.19
275.715	4.72
276.093	4.34
276.472	4.23
276.851	4.49
277.229	4.4
277.608	4.26
277.986	3.84
278.365	4.72
278.743	3.98
279.122	4.13
279.5	4.13
279.878	4.28
280.257	4.71
280.635	4.61
281.013	4.71
281.391	3.83
281.769	4.4
282.147	3.93
282.525	4.59
282.903	3.87
283.281	3.86
283.659	3.85
284.037	3.95
284.415	3.97
284.792	4.18
285.17	3.62
285.548	3.97
285.925	4.37
286.303	3.89
286.68	3.86
287.058	3.91
287.435	4.11
287.813	3.91
288.19	4.08
288.567	3.88
288.945	3.66
289.322	3.74
289.699	4
290.076	4.16
290.453	3.66
290.83	4.03
291.207	3.89
291.584	3.65
291.961	3.72
292.338	4.27
292.715	4.07
293.092	3.81
293.469	3.55
293.845	4.25
294.222	4.25
294.599	4.27
294.975	4.31
295.352	4
295.728	3.98
296.105	3.77
296.481	4.21
296.858	3.98
297.234	4.07
297.61	3.51
297.986	3.38
298.363	3.54
298.739	3.6
299.115	3.59
299.491	3.93
299.867	3.93
300.243	3.42
300.619	3.82
300.995	4.32
301.371	3.91
301.746	3.39
302.122	4.18
302.498	3.7
302.874	3.88
303.249	4.31
303.625	3.84
304	4
304.376	3.92
304.751	3.97
305.127	3.53
305.502	3.84
305.878	3.9
306.253	3.61
306.628	3.76
307.003	3.59
307.378	3.93
307.754	3.87
308.129	3.51
308.504	3.77
308.879	3.87
309.254	3.43
309.629	4.03
310.003	3.2
310.378	3.05
310.753	3.33
311.128	3.67
311.502	3.57
311.877	3.55
312.252	3.8
312.626	3.69
313.001	3.43
313.375	3.75
313.75	4.14
314.124	3.53
314.498	3.13
314.873	3.61
315.247	3.21
315.621	3.74
315.995	3.52
316.369	3.62
316.743	4.03
317.117	4.07
317.491	4.29
317.865	4.16
318.239	4.08
318.613	3.83
318.987	3.69
319.361	3.8
319.734	3.72
320.108	3.63
320.482	3.29
320.855	4.21
321.229	3.9
321.602	4.22
321.976	3.62
322.349	3.56
322.723	3.28
323.096	3.98
323.469	3.81
323.843	3.43
324.216	2.89
324.589	4.18
324.962	4.07
325.335	3.48
325.708	3.56
326.081	3.76
326.454	3.76
326.827	3.57
327.2	3.86
327.573	3.54
327.945	3.76
328.318	3.12
328.691	3.77
329.063	4.06
329.436	3.45
329.809	4.12
330.181	3.86
330.553	3.69
330.926	4.26
331.298	3.74
331.671	4.17
332.043	3.52
332.415	3.7
332.787	4.1
333.159	3.44
333.532	3.97
333.904	3.82
334.276	3.99
334.648	3.44
335.02	4
335.391	3.72
335.763	3.3
336.135	3.98
336.507	3.94
336.879	3.39
337.25	3.2
337.622	3.65
337.993	3.57
338.365	3.6
338.736	3.53
339.108	3.65
339.479	4.08
339.851	3.35
340.222	4.22
340.593	3.67
340.964	3.62
341.336	3.93
341.707	3.44
342.078	4.03
342.449	3.79
342.82	3.6
343.191	3.29
343.562	3.9
343.933	4.04
344.303	3.48
344.674	3.61
345.045	3.33
345.416	4.2
345.786	3.87
346.157	4.16
346.527	4.11
346.898	3.9
347.268	3.5
347.639	3.68
348.009	3.56
348.38	4.34
348.75	4.1
349.12	4.22
349.49	4.55
349.861	3.5
350.231	3.69
350.601	3.77
350.971	3.6
351.341	3.45
351.711	3.46
352.081	3.55
352.45	4.02
352.82	3.86
353.19	3.88
353.56	3.81
353.929	3.1
354.299	4.09
354.669	3.8
355.038	4.17
355.408	4.06
355.777	3.58
356.147	4.01
356.516	4.27
356.885	3.6
357.254	4.2
357.624	3.89
357.993	3.66
358.362	4.14
358.731	3.63
359.1	3.84
359.469	3.84
359.838	4.05
360.207	3.8
360.576	3.93
360.945	3.94
361.314	4.02
361.682	3.88
362.051	3.74
362.42	3.73
362.788	3.83
363.157	4.03
363.525	3.8
363.894	3.85
364.262	4.09
364.631	4.27
364.999	3.83
365.367	4.13
365.735	3.65
366.104	3.91
366.472	4.28
366.84	3.89
367.208	3.64
367.576	4.4
367.944	4
368.312	3.68
368.68	3.84
369.048	3.49
369.416	3.92
369.783	4.04
370.151	3.92
370.519	4.21
370.886	4.13
371.254	3.78
371.621	4.16
371.989	4.17
372.356	4.02
372.724	4.15
373.091	4.01
373.458	3.89
373.826	3.84
374.193	4.35
374.56	4.23
374.927	4.56
375.294	4.23
375.661	4.17
376.028	3.8
376.395	4.05
376.762	3.84
377.129	4.5
377.496	4.45
377.863	3.78
378.229	4.47
378.596	4.19
378.963	4.17
379.329	4.14
379.696	4.34
380.062	4.31
380.429	4.13
380.795	4.3
381.161	3.68
381.528	4.2
381.894	3.98
382.26	3.99
382.626	4.12
382.993	4.54
383.359	3.93
383.725	3.7
384.091	4.06
384.457	4.29
384.823	4.21
385.188	4.39
385.554	4.43
385.92	4.21
386.286	4.38
386.651	4.22
387.017	4.23
387.383	4.14
387.748	3.94
388.114	4.04
388.479	4.05
388.845	3.99
389.21	4.15
389.575	4.43
389.94	4.16
390.306	4.06
390.671	4.33
391.036	4.24
391.401	4.1
391.766	4.32
392.131	4.18
392.496	4.23
392.861	4.15
393.226	4.15
393.591	4.05
393.956	4.34
394.32	4.28
394.685	4.15
395.05	4.29
395.414	4.23
395.779	4.04
396.143	4.47
396.508	3.98
396.872	4.43
397.236	4.17
397.601	4.19
397.965	4.26
398.329	4.24
398.694	4.39
399.058	4.26
399.422	4.46
399.786	4.33
400.15	4.25
400.514	4.36
400.878	4.21
401.242	4.37
401.605	4.21
401.969	4.52
402.333	4.29
402.697	4.53
403.06	4.13
403.424	4.4
403.787	4.56
404.151	4.51
404.514	4.44
404.878	4.1
405.241	4.31
405.604	4.36
405.968	4.37
406.331	4.13
406.694	4.12
407.057	4.15
407.42	4.56
407.783	4.34
408.146	4.14
408.509	4.25
408.872	4.35
409.235	4.37
409.598	4.62
409.961	4.34
410.323	4.55
410.686	4.54
411.049	4.28
411.411	4.59
411.774	4.44
412.136	4.39
412.499	4.17
412.861	4.35
413.223	4.27
413.586	4.07
413.948	4.64
414.31	4.5
414.672	4.32
415.035	4.62
415.397	4.35
415.759	4.3
416.121	4.33
416.483	4.36
416.845	4.48
417.206	4.56
417.568	4.13
417.93	4.22
418.292	4.46
418.653	4.29
419.015	4.33
419.377	4.42
419.738	4.29
420.1	4.33
420.461	4.46
420.822	4.39
421.184	4.36
421.545	4.22
421.906	4.16
422.267	4.27
422.629	4.37
422.99	4.27
423.351	4.33
423.712	4.29
424.073	4.28
424.434	4.32
424.795	4.4
425.155	4.38
425.516	4.39
425.877	4.33
426.238	4.3
426.598	4.29
426.959	4.33
427.32	4.31
427.68	4.45
428.041	4.32
428.401	4.42
428.761	4.65
429.122	4.48
429.482	4.43
429.842	4.46
430.202	4.53
430.563	4.52
430.923	4.42
431.283	4.55
431.643	4.63
432.003	4.42
432.363	4.48
432.722	4.57
433.082	4.46
433.442	4.5
433.802	4.5
434.161	4.32
434.521	4.41
434.881	4.4
435.24	4.49
435.6	4.54
435.959	4.38
436.319	4.46
436.678	4.51
437.037	4.47
437.396	4.53
437.756	4.39
438.115	4.43
438.474	4.46
438.833	4.6
439.192	4.56
439.551	4.42
439.91	4.51
440.269	4.32
440.628	4.43
440.987	4.52
441.345	4.47
441.704	4.37
442.063	4.46
442.421	4.47
442.78	4.54
443.138	4.41
443.497	4.49
443.855	4.62
444.214	4.46
444.572	4.51
444.93	4.36
445.288	4.55
445.647	4.39
446.005	4.49
446.363	4.66
446.721	4.37
447.079	4.33
447.437	4.43
447.795	4.34
448.153	4.39
448.51	4.37
448.868	4.44
449.226	4.45
449.584	4.45
449.941	4.53
450.299	4.51
450.656	4.42
451.014	4.64
451.371	4.71
451.729	4.56
452.086	4.62
452.443	4.65
452.801	4.58
453.158	4.46
453.515	4.46
453.872	4.51
454.229	4.64
454.586	4.58
454.943	4.73
455.3	4.53
455.657	4.6
456.014	4.45
456.371	4.51
456.727	4.51
457.084	4.46
457.441	4.42
457.797	4.42
458.154	4.32
458.51	4.41
458.867	4.37
459.223	4.4
459.58	4.49
459.936	4.73
460.292	4.62
460.648	4.33
461.005	4.46
461.361	4.42
461.717	4.34
462.073	4.46
462.429	4.44
462.785	4.51
463.141	4.59
463.496	4.5
463.852	4.48
464.208	4.59
464.564	4.57
464.919	4.62
465.275	4.67
465.631	4.48
465.986	4.6
466.342	4.59
466.697	4.61
467.052	4.59
467.408	4.53
467.763	4.59
468.118	4.68
468.473	4.5
468.829	4.49
469.184	4.65
469.539	4.55
469.894	4.66
470.249	4.53
470.603	4.53
470.958	4.62
471.313	4.6
471.668	4.65
472.023	4.55
472.377	4.61
472.732	4.77
473.086	4.52
473.441	4.72
473.795	4.56
474.15	4.62
474.504	4.64
474.859	4.67
475.213	4.58
475.567	4.58
475.921	4.53
476.275	4.44
476.63	4.68
476.984	4.51
477.338	4.57
477.692	4.5
478.045	4.58
478.399	4.54
478.753	4.68
479.107	4.54
479.461	4.62
479.814	4.63
480.168	4.6
480.521	4.63
480.875	4.8
481.228	4.52
481.582	4.66
481.935	4.59
482.289	4.68
482.642	4.62
482.995	4.67
483.348	4.56
483.701	4.55
484.055	4.47
484.408	4.4
484.761	4.37
485.114	4.31
485.466	4.21
485.819	4.23
486.172	4.34
486.525	4.45
486.878	4.5
487.23	4.5
487.583	4.52
487.936	4.48
488.288	4.49
488.641	4.37
488.993	4.34
489.345	4.36
489.698	4.36
490.05	4.4
490.402	4.45
490.754	4.52
491.107	4.55
491.459	4.54
491.811	4.48
492.163	4.64
492.515	4.54
492.866	4.43
493.218	4.29
493.57	4.36
493.922	4.4
494.274	4.54
494.625	4.61
494.977	4.65
495.328	4.63
495.68	4.5
496.031	4.72
496.383	4.62
496.734	4.67
497.086	4.65
497.437	4.68
497.788	4.68
498.139	4.51
498.49	4.46
498.842	4.52
499.193	4.53
499.544	4.54
499.894	4.64
500.245	4.58
500.596	4.68
500.947	4.6
501.298	4.8
501.648	4.56
501.999	4.58
502.35	4.6
502.7	4.59
503.051	4.63
503.401	4.62
503.752	4.61
504.102	4.68
504.452	4.63
504.803	4.51
505.153	4.66
505.503	4.55
505.853	4.55
506.203	4.55
506.553	4.48
506.903	4.68
507.253	4.67
507.603	4.71
507.953	4.71
508.303	4.8
508.652	4.65
509.002	4.68
509.352	4.69
509.701	4.64
510.051	4.66
510.4	4.5
510.75	4.51
511.099	4.48
511.449	4.6
511.798	4.61
512.147	4.58
512.496	4.59
512.846	4.66
513.195	4.69
513.544	4.69
513.893	4.61
514.242	4.57
514.591	4.67
514.939	4.45
515.288	4.63
515.637	4.49
515.986	4.82
516.334	4.63
516.683	4.49
517.032	4.66
517.38	4.63
517.729	4.66
518.077	4.53
518.426	4.59
518.774	4.55
519.122	4.53
519.47	4.59
519.819	4.56
520.167	4.58
520.515	4.48
520.863	4.61
521.211	4.58
521.559	4.58
521.907	4.58
522.255	4.59
522.602	4.64
522.95	4.7
523.298	4.68
523.645	4.48
523.993	4.7
524.341	4.65
524.688	4.74
525.036	4.58
525.383	4.53
525.73	4.65
526.078	4.56
526.425	4.54
526.772	4.59
527.119	4.41
527.466	4.44
527.814	4.52
528.161	4.53
528.508	4.55
528.854	4.55
529.201	4.48
529.548	4.38
529.895	4.33
530.242	4.26
530.588	4.35
530.935	4.43
531.282	4.5
531.628	4.46
531.975	4.5
532.321	4.5
532.667	4.59
533.014	4.58
533.36	4.48
533.706	4.53
534.052	4.51
534.399	4.49
534.745	4.41
535.091	4.41
535.437	4.45
535.783	4.48
536.129	4.58
536.474	4.53
536.82	4.55
537.166	4.66
537.512	4.62
537.857	4.58
538.203	4.52
538.549	4.43
538.894	4.56
539.239	4.58
539.585	4.6
539.93	4.65
540.276	4.52
540.621	4.66
540.966	4.69
541.311	4.57
541.656	4.66
542.001	4.51
542.346	4.57
542.691	4.34
543.036	4.34
543.381	4.37
543.726	4.41
544.071	4.61
544.415	4.59
544.76	4.61
545.105	4.53
545.449	4.54
545.794	4.55
546.138	4.6
546.483	4.67
546.827	4.58
547.171	4.63
547.516	4.44
547.86	4.5
548.204	4.51
548.548	4.51
548.892	4.44
549.236	4.68
549.58	4.64
549.924	4.57
550.268	4.74
550.612	4.71
550.956	4.7
551.3	4.76
551.643	4.63
551.987	4.76
552.33	4.79
552.674	4.72
553.017	4.47
553.361	4.51
553.704	4.76
554.048	4.61
554.391	4.68
554.734	4.56
555.077	4.59
555.42	4.59
555.764	4.59
556.107	4.76
556.45	4.56
556.793	4.55
557.135	4.57
557.478	4.68
557.821	4.77
558.164	4.9
558.507	4.7
558.849	4.64
559.192	4.71
559.534	4.73
559.877	4.63
560.219	4.76
560.562	4.8
560.904	4.4
561.246	4.68
561.589	4.53
561.931	4.61
562.273	4.64
562.615	4.64
562.957	4.56
563.299	4.73
563.641	4.44
563.983	4.52
564.325	4.71
564.667	4.88
565.008	4.68
565.35	4.61
565.692	4.86
566.033	4.6
566.375	4.48
566.716	4.55
567.058	4.62
567.399	4.53
567.741	4.66
568.082	4.66
568.423	4.53
568.764	4.7
569.105	4.56
569.447	4.68
569.788	4.78
570.129	4.72
570.47	4.61
570.811	4.55
571.151	4.69
571.492	4.72
571.833	4.58
572.174	4.43
572.514	4.59
572.855	4.47
573.195	4.6
573.536	4.58
573.876	4.7
574.217	4.5
574.557	4.51
574.898	4.61
575.238	4.83
575.578	4.74
575.918	4.43
576.258	4.74
576.598	4.56
576.938	4.65
577.278	4.67
577.618	4.65
577.958	4.5
578.298	4.56
578.638	4.64
578.977	4.74
579.317	4.57
579.657	4.66
579.996	4.43
580.336	4.65
580.675	4.7
581.014	4.71
581.354	4.62
581.693	4.84
582.032	4.57
582.372	4.51
582.711	4.63
583.05	4.7
583.389	4.6
583.728	4.59
584.067	4.59
584.406	4.5
584.745	4.71
585.083	4.58
585.422	4.77
585.761	4.65
586.1	4.7
586.438	4.81
586.777	4.76
587.115	4.86
587.454	4.62
587.792	4.35
588.13	4.73
588.469	4.54
588.807	4.66
589.145	4.53
589.483	4.76
589.821	4.72
590.159	4.84
590.497	4.61
590.835	4.43
591.173	4.48
591.511	4.62
591.849	4.58
592.187	4.57
592.524	4.45
592.862	4.83
593.2	4.61
593.537	4.45
593.875	4.79
594.212	4.67
594.55	4.69
594.887	4.86
595.224	4.63
595.561	4.72
595.899	4.33
596.236	4.74
596.573	4.54
596.91	4.6
597.247	4.44
597.584	4.49
597.921	4.55
598.258	4.26
598.594	4.44
598.931	4.51
599.268	4.49
599.604	4.47
599.941	4.55
600.277	4.57
600.614	4.66
600.95	4.64
601.287	4.61
601.623	4.69
601.959	4.52
602.296	4.62
602.632	4.69
602.968	4.58
603.304	4.52
603.64	4.66
603.976	4.2
604.312	4.52
604.648	4.7
604.984	4.55
605.319	4.5
605.655	4.64
605.991	4.68
606.326	4.53
606.662	4.59
606.998	4.35
607.333	4.55
607.668	4.55
608.004	4.74
608.339	4.7
608.674	4.7
609.01	4.47
609.345	4.38
609.68	4.87
610.015	4.72
610.35	4.47
610.685	4.35
611.02	4.47
611.355	4.34
611.689	4.24
612.024	4.74
612.359	4.67
612.694	4.74
613.028	4.78
613.363	4.56
613.697	4.47
614.032	4.61
614.366	4.79
614.7	4.41
615.035	4.79
615.369	4.45
615.703	4.72
616.037	4.67
616.371	4.41
616.705	4.3
617.039	4.88
617.373	4.86
617.707	4.55
618.041	4.5
618.375	4.4
618.709	4.75
619.042	4.22
619.376	4.89
619.71	5
620.043	4.81
620.377	4.82
620.71	4.38
621.043	4.51
621.377	4.55
621.71	4.11
622.043	4.48
622.376	4.17
622.709	4.57
623.043	4.79
623.376	4.68
623.709	4.5
624.041	4.71
624.374	4.42
624.707	4.23
625.04	4.64
625.373	4.54
625.705	4.43
626.038	4.48
626.37	4.41
626.703	5.03
627.035	4.76
627.368	4.88
627.7	4.73
628.032	4.53
628.365	4.23
628.697	4.63
629.029	4.23
629.361	4.49
629.693	4.8
630.025	4.55
630.357	4.58
630.689	4.54
631.021	4.39
631.353	4.12
631.684	4.46
632.016	4.74
632.348	4.54
632.679	4.48
633.011	4.64
633.342	4.74
633.674	4.76
634.005	4.88
634.336	4.79
634.668	4.52
634.999	4.76
635.33	4.67
635.661	4.35
635.992	4.4
636.323	4.45
636.654	4.53
636.985	4.4
637.316	4.8
637.647	4.27
637.977	4.88
638.308	4.5
638.639	4.27
638.969	4.76
639.3	4.27
639.63	4.39
639.961	4.68
640.291	4.35
640.622	4.94
640.952	4.75
641.282	4.76
641.612	4.51
641.943	4.86
642.273	4.87
642.603	4.38
642.933	4.48
643.263	4.74
643.592	4.49
643.922	4.13
644.252	4.86
644.582	4.68
644.911	4.71
645.241	4.86
645.571	4.46
645.9	4.47
646.23	4.55
646.559	4.62
646.888	4.45
647.218	4.29
647.547	4.61
647.876	5.13
648.205	4.6
648.534	4.67
648.863	4.63
649.192	4.31
649.521	4.55
649.85	4.91
650.179	4.73
650.508	4.58
650.837	4.57
651.165	4.4
651.494	4.5
651.822	5.15
652.151	4.6
652.479	4.51
652.808	4.69
653.136	4.48
653.465	3.94
653.793	4.53
654.121	4.36
654.449	5.21
654.777	4.13
655.105	5.18
655.433	4.57
655.761	4.66
656.089	4.97
656.417	4.72
656.745	4.48
657.073	4.29
657.4	4.42
657.728	4.85
658.056	4.81
658.383	4.51
658.711	4.83
659.038	4.17
659.365	4.34
659.693	4.61
660.02	4.61
660.347	5.04
660.674	4.56
661.001	4.93
661.329	4.72
661.656	4.5
661.982	4.42
662.309	4.84
662.636	5.26
662.963	4.51
663.29	4.01
663.616	4.41
663.943	4.97
664.27	4.25
664.596	4.45
664.923	4.66
665.249	5.08
665.576	4.92
665.902	4.75
666.228	5.16
666.554	4.66
666.881	4.49
667.207	4.52
667.533	5.04
667.859	5.09
668.185	4.62
668.511	4.42
668.837	4.71
669.162	5.08
669.488	4.74
669.814	4.63
670.139	4.46
670.465	5.28
670.791	4.78
671.116	4.38
671.442	4.87
671.767	4.9
672.092	4.47
672.418	4.62
672.743	4.37
673.068	4.67
673.393	4.53
673.718	4.19
674.043	5.14
674.368	4.96
674.693	4.67
675.018	5.15
675.343	4.68
675.667	4.9
675.992	4.58
676.317	5.48
676.641	5.09
676.966	4.31
677.29	4.39
677.615	4.18
677.939	4.58
678.264	4.42
678.588	4.99
678.912	4.47
679.236	4.45
679.56	4.46
679.885	5.11
680.209	4.82
680.532	5.08
680.856	5.05
681.18	4.82
681.504	4.41
681.828	4.64
682.152	4.58
682.475	4.61
682.799	5.01
683.122	4.69
683.446	4.87
683.769	5.51
684.093	5.12
684.416	5.24
684.739	5.46
685.062	4.76
685.386	5.39
685.709	5.03
686.032	4.93
686.355	4.55
686.678	4.86
687.001	5.1
687.324	4.98
687.646	4.69
687.969	4.64
688.292	5.24
688.614	4.22
688.937	5.11
689.26	4.65
689.582	4.36
689.904	5.08
690.227	4.85
690.549	4.08
690.871	5.34
691.194	4.93
691.516	4.94
691.838	4.32
692.16	5.14
692.482	4.69
692.804	5.45
693.126	4.67
693.448	4.24
693.769	5.03
694.091	4.43
694.413	4.72
694.735	5.69
695.056	5.75
695.378	4.76
695.699	5.28
696.021	4.42
696.342	4.06
696.663	5.37
696.984	4.15
697.306	4.84
697.627	4.61
697.948	5.21
698.269	4.75
698.59	5.2
698.911	4.56
699.232	5.33
699.553	5.25
699.873	3.91
700.194	5.27
700.515	4.66
700.835	4.18
701.156	4.48
701.477	4.72
701.797	4.93
702.117	4.58
702.438	4.96
702.758	5.53
703.078	4.8
703.398	5.13
703.719	5.6
704.039	4.78
704.359	5.16
704.679	5.15
704.999	4.91
705.319	5.26
705.638	4.39
705.958	4.96
706.278	5.33
706.597	5.16
706.917	4.86
707.237	5.19
707.556	4.2
707.876	5.09
708.195	5.19
708.514	4.52
708.834	5.63
709.153	4.66
709.472	4.73
709.791	4.88
710.11	5.21
710.429	4.68
710.748	5.51
711.067	4.57
711.386	4.46
711.705	5.5
712.023	5.5
712.342	5.05
712.661	4.79
712.979	4.53
713.298	4.98
713.616	4.95
713.935	4.46
714.253	5.2
714.572	5.67
714.89	4.92
715.208	4.77
715.526	5.3
715.844	5.56
716.162	5.38
716.48	4.83
716.798	4.84
717.116	4.4
717.434	5.51
717.752	4.55
718.069	4.86
718.387	4.01
718.705	5.56
719.022	4.93
719.34	5.38
719.657	5.64
719.975	6.05
720.292	5.44
720.609	4.34
720.927	4.51
721.244	5.18
721.561	5.34
721.878	6.14
722.195	5.24
722.512	4.79
722.829	4.52
723.146	4.58
723.463	4.52
723.779	4.5
724.096	3.87
724.413	3.8
724.729	4.56
725.046	4.53
725.362	4.88
725.679	4.61
725.995	5.71
726.311	4.74
726.628	5.34
726.944	5.72
727.26	5.56
727.576	4.53
727.892	7.22
728.208	5.6
728.524	5.08
728.84	5.83
729.156	5.32
729.472	4.42
729.787	4.92
730.103	5.42
730.419	5.04
730.734	5.15
731.05	6.65
731.365	4.7
731.681	4.55
731.996	5.08
732.311	4.57
732.626	5.53
732.942	6.05
733.257	6.04
733.572	5.34
733.887	5.22
734.202	5.93
734.517	5.86
734.832	5.9
735.146	4.71
735.461	3.23
735.776	5.31
736.091	5.5
736.405	4.87
736.72	4.82
737.034	5.01
737.349	4.94
737.663	5.98
737.977	6.46
738.292	6.53
738.606	5.07
738.92	6.62
739.234	4.31
739.548	4.43
739.862	5.72
740.176	4.51
740.49	7.34
740.804	7.08
741.117	4.81
741.431	6.75
741.745	4.35
742.058	6.91
742.372	4.88
742.685	4.55
742.999	5.72
743.312	6.75
743.626	5.38
743.939	6.15
744.252	5.83
744.565	5.81
744.878	5.81
745.191	5.07
745.505	5.56
745.817	5.08
746.13	6.73
746.443	2.93
746.756	5.04
747.069	5.44
747.381	5.13
747.694	3.06
748.007	5.38
748.319	4.76
748.632	6.37
748.944	6.91
749.256	7.19
749.569	4.93
749.881	4.96
750.193	5.29
750.505	5.75
750.817	5.49
751.129	5.62
751.441	6.65
751.753	5.65
752.065	6.27
752.377	5.59
752.689	4.04
753	6.28
753.312	6.21
753.624	4.54
753.935	5.42
754.247	6.3
754.558	6.45
754.869	4.73
755.181	4.64
755.492	4.12
755.803	4.6
756.114	6.03
756.425	7.05
756.736	5.45
757.047	4.93
757.358	6.27
757.669	7.25
757.98	5.79
758.291	6.83
758.601	5.42
758.912	5.71
759.223	7.8
759.533	6.23
759.844	5.59
760.154	3.73
760.464	6.91
760.775	5.99
761.085	6.54
761.395	6.49
761.705	8.09
762.016	5.8
762.326	5.43
762.636	4.2
762.945	7.04
763.255	5.64
763.565	5.85
763.875	5.8
764.185	6.16
764.494	4.34
764.804	5.49
765.113	5.84
765.423	6.32
765.732	5.91
766.042	6.4
766.351	6.72
766.66	5.57
766.97	6.69
767.279	5.85
767.588	6.09
767.897	5.59
768.206	4.5
768.515	5.86
768.824	6.9
769.133	4.69
769.441	5.5
769.75	5.76
770.059	6.36
770.367	6.75
770.676	5.1
770.984	8.3
771.293	4.6
771.601	3.88
771.91	5.49
772.218	8.51
772.526	4.15
772.834	6.78
773.142	7.64
773.45	4.04
773.758	4.82
774.066	7.89
774.374	6.7
774.682	5.25
774.99	5.16
775.298	7.02
775.605	6.8
775.913	11.13
776.22	6.32
776.528	4.7
776.835	8.66
777.143	5.14
777.45	4.81
777.757	6.37
778.065	5.09
778.372	5.97
778.679	8.7
778.986	7.05
779.293	6.15
779.6	7.8
779.907	9.34
780.214	3.91
780.52	4.9
780.827	7.74
781.134	5.01
781.44	5.22
781.747	5.49
782.053	6.43
782.36	7.12
782.666	7.2
782.973	5.32
783.279	6.46
783.585	6.73
783.891	7.93
784.197	5.46
784.503	6.53
784.809	5.18
785.115	7.98
785.421	4.77
785.727	4.32
786.033	8.07
786.339	8.58
786.644	4.94
786.95	11.41
787.255	6.4
787.561	5.5
787.866	5.34
788.172	5.29
788.477	8.23
788.782	7.67
789.088	6.27
789.393	8.41
789.698	5.68
790.003	8.19
790.308	5.79
790.613	5.5
790.918	3.14
791.223	7.66
791.527	7.37
791.832	7.55
792.137	5.54
792.441	6.5
792.746	5.89
793.05	5.65
793.355	8.05
793.659	6.1
793.963	5.41
794.268	8.33
794.572	10.65
794.876	4.84
795.18	6.42
795.484	8.7
795.788	8.92
796.092	11.15
796.396	6.26
796.7	5.33
797.004	6.5
797.307	3.24
797.611	5.65
797.915	4.77
798.218	8.17
798.522	5.62
798.825	9.63
799.128	7.93
799.432	7.46
799.735	6.62
800.038	5.54
800.341	3.47
800.644	3.22
800.947	4.68
801.25	6.58
801.553	9.06
801.856	6.72
802.159	4.56
802.462	8.84
802.764	8.25
803.067	6.64
803.37	5.54
803.672	3.72
803.975	4.46
804.277	5.45
804.579	7.86
804.882	15.83
805.184	4.93
805.486	10.63
805.788	2.19
806.09	5.35
806.392	6.64
806.694	10.35
806.996	13.32
807.298	4.22
807.6	5.82
807.902	6.83
808.203	5.22
808.505	9.03
808.807	9.39
809.108	6.9
809.409	8.31
809.711	-0.56
810.012	8.34
810.313	6.04
810.615	7.16
810.916	14.19
811.217	7.18
811.518	4.61
811.819	4.11
812.12	6.83
812.421	11.03
812.722	14.46
813.023	6.72
813.323	11.07
813.624	7.47
813.925	2.28
814.225	11.27
814.526	4.91
814.826	4.69
815.126	7.44
815.427	8.09
815.727	7.11
816.027	8.77
816.327	8.41
816.627	8.29
816.927	10.01
817.227	14.88
817.527	-0.89
817.827	6.94
818.127	4.81
818.427	3.37
818.727	4.41
819.026	12.29
819.326	6.49
819.625	7.53
819.925	2.08
820.224	8.23
820.524	8.05
820.823	11.99
821.122	6.37
821.421	13.65
821.72	11.46
822.019	5.01
822.318	7.99
822.617	10.1
822.916	6.87
823.215	9.9
823.514	8.12
823.813	6.58
824.111	8.32
824.41	5.68
824.709	7.63
825.007	6.62
825.306	6.86
825.604	6.41
825.902	7.15
826.201	6.38
826.499	7.26
826.797	6.05
827.095	7.64
827.393	6.95
827.691	9.34
827.989	6.16
828.287	6.75
828.585	6.12
828.882	8.52
829.18	7.63
829.478	9
829.775	7.59
830.073	7.58
830.37	8.95
830.668	7.39
830.965	4.74
831.263	6.59
831.56	4.75
831.857	9.54
832.154	9.06
832.451	6.81
832.748	10.37
833.045	10.05
833.342	8.3
833.639	4.41
833.936	4.98
834.232	7.39
834.529	0.55
834.826	10.12
835.122	11.65
835.419	8.82
835.715	6.43
836.012	8.86
836.308	8.19
836.604	6.25
836.901	6.25
837.197	9.59
837.493	3.03
837.789	8.65
838.085	6.47
838.381	9.85
838.677	6.02
838.972	7.57
839.268	13.1
839.564	7.62
839.86	6.66
840.155	11.35
840.451	11.7
840.746	14.85
841.042	22.59
841.337	8.57
841.632	7.24
841.928	19.29
842.223	14.78
842.518	7.31
842.813	3.33
843.108	14.25
843.403	7.54
843.698	16.17
843.993	4.85
844.287	3.74
844.582	4.78
844.877	3.3
845.171	-6.28
845.466	2.87
845.761	20.74
846.055	13.19
846.349	16.93
846.644	0.09
846.938	7.24
847.232	7.93
847.526	24.47
847.82	6.31
848.114	17.06
848.408	4.08
848.702	13.6
848.996	13.39
849.29	7.88
849.584	11.64
849.877	1.19
850.171	1.8
850.465	13.51
850.758	18.13
851.052	-1.55
851.345	20.18
851.638	2.22
851.932	16.59
852.225	18.85
852.518	3.1
852.811	-0.13
853.104	-5.68
853.397	20.9
853.69	12.19
853.983	15.9
854.276	16.47
854.569	12
854.861	9.42
855.154	20.6
855.447	25.83
855.739	1.05
856.032	8.76
856.324	32.31
856.616	28.51
856.909	15.39
857.201	-2.9
857.493	1.36
857.785	15.06
858.077	10.23
858.369	-13.57
858.661	23.49
858.953	19.02
859.245	8.02
859.537	10.75
859.829	10.56
860.12	17.74
860.412	15.46
860.703	8.36
860.995	3.93
861.286	8.08
861.578	14.22
861.869	12.84
862.16	14.05
862.452	-4.24
862.743	1.51
863.034	2.25
863.325	8.11
863.616	16.36
863.907	23.35
864.198	-8.82
864.488	29.64
864.779	-2.43
865.07	14.5
865.36	6.76
865.651	22.33
865.941	25.32
866.232	12.64
866.522	16.07
866.813	11.2
867.103	7.13
867.393	1.07
867.683	22.3
867.973	26.27
868.263	-10.77
868.553	1.36
868.843	5.01
869.133	29.51
869.423	25.45
869.713	12.36
870.002	-15.89
870.292	37.71
870.582	25.4
870.871	-32.81
871.161	8.09
871.45	19.35
871.739	-6.54
872.029	16.59
872.318	27.27
872.607	11.78
872.896	29.81
873.185	2.24
873.474	20.49
873.763	-17.66
874.052	-0.11
874.341	20.23
874.63	30.06
874.918	27.74
875.207	5.37
875.496	13.97
875.784	47.38
876.073	-4.63
876.361	24.49
876.649	20.83
876.938	0.38
877.226	7.77
877.514	-10.36
877.802	13.87
878.09	41.96
878.378	29.83
878.666	15.96
878.954	5.66
879.242	12.37
879.53	0.05
879.817	-6.28
880.105	1.27
880.392	16.75
880.68	-6.2
880.967	-9.23
881.255	7.49
881.542	8.89
881.83	15.4
882.117	18.16
882.404	8.09
882.691	11.67
882.978	21.11
883.265	8.96
883.552	-1.89
883.839	15.02
884.126	24.14
884.413	16.13
884.699	11.2
884.986	9.48
885.273	10.66
885.559	10.66
885.846	10.66
