Data from 21-5_chest_Reflection__2__02.txt Node

Date: Thu Dec 15 16:26:19 CST 2022
User: ToomeyLab
Spectrometer: FLMS14357
Trigger mode: 0
Integration Time (sec): 1.000000E-2
Scans to average: 100
Electric dark correction enabled: true
Nonlinearity correction enabled: false
Boxcar width: 0
XAxis mode: Wavelengths
Number of Pixels in Spectrum: 2048
>>>>>Begin Spectral Data<<<<<
189.047	-635.33
189.435	-635.33
189.823	-635.33
190.211	-166.74
190.599	433.82
190.987	178.81
191.375	37.62
191.763	233.54
192.151	255.41
192.538	75.85
192.926	167.02
193.314	80.68
193.702	551.84
194.089	-18.85
194.477	-40.08
194.864	72.7
195.252	13.02
195.639	182.58
196.027	-119.37
196.414	242.29
196.801	-77.7
197.189	92.84
197.576	-94.1
197.963	-47.53
198.351	-16.36
198.738	-1.88
199.125	-18.12
199.512	42.03
199.899	11.1
200.286	17.72
200.673	35.02
201.06	-34.21
201.447	15.13
201.833	26.61
202.22	4.89
202.607	-56.49
202.994	-4.51
203.38	6.18
203.767	-14.09
204.154	3.63
204.54	22.26
204.927	6.66
205.313	12.18
205.699	11.58
206.086	22.94
206.472	29.89
206.858	-4
207.245	-8.25
207.631	-21.62
208.017	29.1
208.403	-12.71
208.789	3.82
209.175	10.42
209.561	-25.16
209.947	-10.01
210.333	13.42
210.719	16.25
211.105	45.67
211.491	15.69
211.876	12.13
212.262	10.74
212.648	0.43
213.034	0.04
213.419	7.48
213.805	-2.07
214.19	-30.93
214.576	-35.7
214.961	7.17
215.346	-0.89
215.732	-15.88
216.117	6.65
216.502	6.69
216.888	14.22
217.273	12.86
217.658	-6.43
218.043	5.05
218.428	-1.52
218.813	34.04
219.198	9.74
219.583	6.24
219.968	1.17
220.353	-4.3
220.738	29.15
221.122	-2.21
221.507	-9.04
221.892	-15.11
222.276	-11.89
222.661	-17.99
223.046	-3.97
223.43	13.39
223.815	-1.66
224.199	-0.06
224.583	-6.17
224.968	-4.89
225.352	1.25
225.736	11.4
226.121	7.86
226.505	1.14
226.889	-2.01
227.273	-2.47
227.657	2.37
228.041	-1.43
228.425	1.85
228.809	1.11
229.193	2.24
229.577	-0.23
229.961	0.43
230.344	0.98
230.728	1.49
231.112	1.26
231.495	0.28
231.879	0.4
232.263	0.86
232.646	0.96
233.03	1.59
233.413	0.99
233.797	-0.45
234.18	-0.22
234.563	1.47
234.946	0.45
235.33	0.52
235.713	1.7
236.096	0.37
236.479	0.7
236.862	0.44
237.245	-0.24
237.628	0.24
238.011	1.52
238.394	0.48
238.777	0.54
239.16	1.68
239.543	1.91
239.925	0.61
240.308	0.6
240.691	0.11
241.073	-0.27
241.456	0.99
241.838	0.45
242.221	0.97
242.603	1.16
242.986	1.41
243.368	1.32
243.75	1.29
244.133	1.16
244.515	1.27
244.897	1.06
245.279	1.08
245.661	1.95
246.043	0.84
246.425	1.47
246.807	0.98
247.189	0.93
247.571	1.04
247.953	1.17
248.335	1.28
248.717	1.1
249.098	0.99
249.48	0.99
249.862	1.27
250.243	1.35
250.625	1.4
251.006	2.05
251.388	0.79
251.769	0.39
252.151	1.34
252.532	0.92
252.913	0.54
253.295	1.29
253.676	1.23
254.057	1.33
254.438	0.94
254.819	1.01
255.2	0.57
255.581	2.77
255.962	1.31
256.343	2.04
256.724	0.94
257.105	1.16
257.486	0.4
257.867	0.26
258.247	1.41
258.628	1.38
259.009	1.51
259.389	0.58
259.77	0.74
260.15	1.87
260.531	1.32
260.911	1.19
261.292	1.35
261.672	1.11
262.052	1.16
262.432	0.94
262.813	1.2
263.193	1.27
263.573	0.95
263.953	0.62
264.333	1.43
264.713	1.19
265.093	0.69
265.473	0.85
265.853	1.62
266.233	1.22
266.612	0.73
266.992	0.94
267.372	1.3
267.752	1.69
268.131	0.78
268.511	1.39
268.89	1.78
269.27	0.86
269.649	1.32
270.029	0.81
270.408	1.02
270.787	1.07
271.167	1.28
271.546	1.53
271.925	1.25
272.304	0.84
272.683	0.74
273.062	1.32
273.441	0.95
273.82	1.24
274.199	1.07
274.578	1.42
274.957	1.03
275.336	1.56
275.715	1.16
276.093	1.04
276.472	0.79
276.851	0.62
277.229	1.3
277.608	0.88
277.986	1.36
278.365	1.53
278.743	0.87
279.122	0.86
279.5	1.1
279.878	1.38
280.257	1.34
280.635	1.24
281.013	0.65
281.391	1.38
281.769	1.73
282.147	1.31
282.525	1.03
282.903	0.75
283.281	1.39
283.659	1.2
284.037	1.19
284.415	1.22
284.792	1.21
285.17	1.3
285.548	0.81
285.925	0.93
286.303	1.71
286.68	1.2
287.058	1.21
287.435	1.19
287.813	1.07
288.19	1.02
288.567	0.75
288.945	1.1
289.322	1.33
289.699	1.3
290.076	1.09
290.453	1.02
290.83	1.23
291.207	1.18
291.584	1.7
291.961	1.25
292.338	0.99
292.715	1.21
293.092	1.5
293.469	0.83
293.845	1.24
294.222	1.49
294.599	0.86
294.975	0.56
295.352	1.38
295.728	1.51
296.105	1.51
296.481	1.56
296.858	0.98
297.234	1.16
297.61	1.33
297.986	1.62
298.363	1.25
298.739	1.68
299.115	1.51
299.491	1.5
299.867	1.11
300.243	0.98
300.619	1.16
300.995	1.33
301.371	1.32
301.746	1.37
302.122	0.92
302.498	0.84
302.874	1.57
303.249	1.46
303.625	1.2
304	1.71
304.376	1.7
304.751	1.53
305.127	1.47
305.502	1.7
305.878	1.41
306.253	1.04
306.628	1.32
307.003	0.5
307.378	1.11
307.754	1.48
308.129	0.96
308.504	1.63
308.879	1.52
309.254	1.79
309.629	1.25
310.003	1.39
310.378	1.74
310.753	1.73
311.128	1.37
311.502	1.47
311.877	1.51
312.252	1.41
312.626	1.65
313.001	1.79
313.375	1.67
313.75	1.49
314.124	1.71
314.498	2.08
314.873	1.31
315.247	1.41
315.621	1.3
315.995	1.41
316.369	1.43
316.743	1.25
317.117	1.67
317.491	2.04
317.865	1.6
318.239	2.21
318.613	1.44
318.987	1.03
319.361	1.67
319.734	1.57
320.108	1.61
320.482	2.08
320.855	1.67
321.229	1.5
321.602	1.26
321.976	1.43
322.349	2.24
322.723	1.73
323.096	1.7
323.469	1.65
323.843	1.69
324.216	1.64
324.589	1.37
324.962	1.43
325.335	1.11
325.708	1.56
326.081	1.72
326.454	2.05
326.827	1.79
327.2	1.26
327.573	2.17
327.945	1.59
328.318	1.53
328.691	1.59
329.063	1.46
329.436	1.37
329.809	1.72
330.181	2.04
330.553	1.51
330.926	1.69
331.298	1.79
331.671	1.89
332.043	1.5
332.415	1.79
332.787	2.29
333.159	1.71
333.532	1.49
333.904	2.12
334.276	1.84
334.648	1.55
335.02	1.66
335.391	1.33
335.763	1.95
336.135	2.49
336.507	1.62
336.879	1.66
337.25	1.58
337.622	2.18
337.993	1.47
338.365	2
338.736	1.86
339.108	1.62
339.479	1.73
339.851	1.84
340.222	2.19
340.593	1.81
340.964	2.01
341.336	1.19
341.707	1.8
342.078	1.53
342.449	1.63
342.82	1.88
343.191	1.66
343.562	1.4
343.933	1.66
344.303	1.97
344.674	1.89
345.045	1.92
345.416	2.05
345.786	1.51
346.157	1.96
346.527	1.6
346.898	1.5
347.268	1.62
347.639	1.41
348.009	2.04
348.38	1.34
348.75	2.07
349.12	1.69
349.49	1.94
349.861	1.91
350.231	1.83
350.601	1.89
350.971	1.67
351.341	1.78
351.711	1.68
352.081	1.85
352.45	1.33
352.82	1.22
353.19	1.9
353.56	1.83
353.929	1.83
354.299	1.99
354.669	1.98
355.038	2.05
355.408	1.81
355.777	1.85
356.147	2.02
356.516	1.36
356.885	1.55
357.254	1.56
357.624	1.56
357.993	2.03
358.362	1.86
358.731	2.02
359.1	1.54
359.469	1.98
359.838	1.75
360.207	1.71
360.576	2.05
360.945	1.9
361.314	1.56
361.682	1.73
362.051	1.72
362.42	1.71
362.788	1.77
363.157	1.45
363.525	1.57
363.894	1.6
364.262	1.76
364.631	2.03
364.999	1.72
365.367	1.68
365.735	1.95
366.104	1.88
366.472	1.59
366.84	1.8
367.208	2.11
367.576	1.77
367.944	1.94
368.312	1.91
368.68	1.81
369.048	1.69
369.416	1.73
369.783	1.8
370.151	2.44
370.519	2.13
370.886	1.81
371.254	1.78
371.621	1.63
371.989	1.86
372.356	1.94
372.724	1.71
373.091	1.66
373.458	1.91
373.826	1.87
374.193	1.73
374.56	1.81
374.927	1.83
375.294	1.96
375.661	1.88
376.028	1.39
376.395	2.08
376.762	1.4
377.129	2.12
377.496	1.9
377.863	1.96
378.229	2.09
378.596	1.85
378.963	1.86
379.329	2.03
379.696	1.7
380.062	2.03
380.429	1.88
380.795	1.93
381.161	1.43
381.528	1.5
381.894	1.63
382.26	1.63
382.626	1.88
382.993	2.13
383.359	1.9
383.725	1.58
384.091	1.88
384.457	1.56
384.823	1.88
385.188	1.64
385.554	1.91
385.92	1.61
386.286	1.93
386.651	1.74
387.017	2.1
387.383	1.66
387.748	1.89
388.114	1.97
388.479	1.78
388.845	1.62
389.21	2.2
389.575	2.02
389.94	1.88
390.306	1.96
390.671	1.78
391.036	1.9
391.401	1.87
391.766	1.88
392.131	2.27
392.496	1.81
392.861	1.98
393.226	1.51
393.591	1.82
393.956	2.02
394.32	1.92
394.685	1.94
395.05	1.78
395.414	1.82
395.779	2.05
396.143	1.8
396.508	1.93
396.872	1.79
397.236	2.12
397.601	1.99
397.965	1.79
398.329	1.96
398.694	1.89
399.058	1.84
399.422	1.78
399.786	1.72
400.15	1.94
400.514	1.86
400.878	1.8
401.242	2.17
401.605	2.06
401.969	1.82
402.333	1.83
402.697	2.16
403.06	2.04
403.424	2.14
403.787	1.86
404.151	1.92
404.514	1.97
404.878	1.83
405.241	2.02
405.604	2.02
405.968	1.84
406.331	1.93
406.694	1.9
407.057	1.69
407.42	1.93
407.783	1.92
408.146	1.86
408.509	2.03
408.872	2.02
409.235	1.94
409.598	1.77
409.961	2.04
410.323	1.84
410.686	2.12
411.049	1.98
411.411	1.84
411.774	1.92
412.136	1.86
412.499	2.09
412.861	1.6
413.223	2.05
413.586	2.04
413.948	2.22
414.31	2.03
414.672	2.05
415.035	2.23
415.397	1.83
415.759	1.75
416.121	2.13
416.483	2.01
416.845	2.06
417.206	2.05
417.568	2.08
417.93	2
418.292	1.8
418.653	1.76
419.015	1.82
419.377	1.81
419.738	2
420.1	1.94
420.461	1.91
420.822	1.94
421.184	1.83
421.545	1.99
421.906	2.04
422.267	1.88
422.629	1.94
422.99	1.88
423.351	1.88
423.712	1.98
424.073	2.01
424.434	2.05
424.795	1.93
425.155	1.89
425.516	1.87
425.877	1.91
426.238	1.99
426.598	1.9
426.959	1.97
427.32	2
427.68	2.02
428.041	2.07
428.401	1.82
428.761	1.99
429.122	1.98
429.482	1.98
429.842	1.96
430.202	1.94
430.563	2.02
430.923	1.94
431.283	2.18
431.643	2.17
432.003	2.08
432.363	2.01
432.722	2.02
433.082	1.95
433.442	2.03
433.802	2.04
434.161	1.95
434.521	2.06
434.881	1.98
435.24	1.97
435.6	2.08
435.959	2.09
436.319	2.06
436.678	2.08
437.037	2.11
437.396	2.18
437.756	2
438.115	2.04
438.474	2.1
438.833	2.12
439.192	2.1
439.551	2.09
439.91	2.1
440.269	2.07
440.628	2.05
440.987	2.08
441.345	2.03
441.704	2.01
442.063	1.96
442.421	2.11
442.78	2.12
443.138	2.12
443.497	2.11
443.855	2.18
444.214	1.95
444.572	2.21
444.93	2.14
445.288	2.17
445.647	2.05
446.005	2.09
446.363	2.13
446.721	2.13
447.079	2.07
447.437	2.1
447.795	2.15
448.153	2.12
448.51	2.13
448.868	2.05
449.226	2.08
449.584	2.09
449.941	2.12
450.299	2.06
450.656	2.08
451.014	2.25
451.371	2.19
451.729	2.13
452.086	2.15
452.443	2.24
452.801	2.21
453.158	2.32
453.515	2.1
453.872	2.17
454.229	2.09
454.586	2.03
454.943	2.21
455.3	2.33
455.657	2.1
456.014	2.12
456.371	2.16
456.727	2.29
457.084	2.37
457.441	2.23
457.797	2.28
458.154	2.24
458.51	2.28
458.867	2.3
459.223	2.24
459.58	2.29
459.936	2.17
460.292	2.17
460.648	2.05
461.005	2.2
461.361	2.25
461.717	2.24
462.073	2.18
462.429	2.29
462.785	2.31
463.141	2.25
463.496	2.32
463.852	2.32
464.208	2.2
464.564	2.26
464.919	2.3
465.275	2.26
465.631	2.46
465.986	2.38
466.342	2.19
466.697	2.19
467.052	2.35
467.408	2.26
467.763	2.21
468.118	2.06
468.473	2.3
468.829	2.28
469.184	2.29
469.539	2.08
469.894	2.27
470.249	2.42
470.603	2.3
470.958	2.56
471.313	2.43
471.668	2.38
472.023	2.43
472.377	2.29
472.732	2.33
473.086	2.41
473.441	2.3
473.795	2.52
474.15	2.28
474.504	2.28
474.859	2.19
475.213	2.43
475.567	2.11
475.921	2.25
476.275	2.34
476.63	2.45
476.984	2.32
477.338	2.33
477.692	2.3
478.045	2.39
478.399	2.36
478.753	2.31
479.107	2.32
479.461	2.4
479.814	2.43
480.168	2.38
480.521	2.41
480.875	2.45
481.228	2.45
481.582	2.32
481.935	2.42
482.289	2.36
482.642	2.49
482.995	2.39
483.348	2.28
483.701	2.35
484.055	2.26
484.408	2.34
484.761	2.24
485.114	2.22
485.466	2.2
485.819	2.2
486.172	2.27
486.525	2.26
486.878	2.31
487.23	2.34
487.583	2.35
487.936	2.32
488.288	2.35
488.641	2.31
488.993	2.26
489.345	2.27
489.698	2.29
490.05	2.25
490.402	2.29
490.754	2.36
491.107	2.3
491.459	2.43
491.811	2.41
492.163	2.42
492.515	2.34
492.866	2.31
493.218	2.32
493.57	2.39
493.922	2.34
494.274	2.47
494.625	2.52
494.977	2.51
495.328	2.55
495.68	2.4
496.031	2.45
496.383	2.49
496.734	2.47
497.086	2.52
497.437	2.61
497.788	2.42
498.139	2.51
498.49	2.49
498.842	2.58
499.193	2.45
499.544	2.61
499.894	2.44
500.245	2.62
500.596	2.53
500.947	2.59
501.298	2.54
501.648	2.57
501.999	2.53
502.35	2.48
502.7	2.68
503.051	2.65
503.401	2.65
503.752	2.56
504.102	2.5
504.452	2.64
504.803	2.63
505.153	2.62
505.503	2.61
505.853	2.6
506.203	2.66
506.553	2.59
506.903	2.76
507.253	2.63
507.603	2.64
507.953	2.59
508.303	2.7
508.652	2.56
509.002	2.69
509.352	2.61
509.701	2.54
510.051	2.67
510.4	2.72
510.75	2.63
511.099	2.56
511.449	2.71
511.798	2.7
512.147	2.68
512.496	2.74
512.846	2.64
513.195	2.71
513.544	2.71
513.893	2.74
514.242	2.69
514.591	2.69
514.939	2.7
515.288	2.83
515.637	2.71
515.986	2.7
516.334	2.75
516.683	2.75
517.032	2.71
517.38	2.64
517.729	2.69
518.077	2.78
518.426	2.8
518.774	2.75
519.122	2.82
519.47	2.71
519.819	2.7
520.167	2.7
520.515	2.78
520.863	2.75
521.211	2.78
521.559	2.72
521.907	2.91
522.255	2.84
522.602	2.78
522.95	2.82
523.298	2.91
523.645	2.87
523.993	3
524.341	2.86
524.688	2.81
525.036	2.85
525.383	2.88
525.73	2.81
526.078	2.96
526.425	2.8
526.772	2.8
527.119	2.88
527.466	2.89
527.814	2.81
528.161	2.89
528.508	2.9
528.854	2.88
529.201	2.76
529.548	2.79
529.895	2.75
530.242	2.7
530.588	2.77
530.935	2.8
531.282	2.82
531.628	2.84
531.975	2.87
532.321	2.98
532.667	2.93
533.014	2.95
533.36	3.03
533.706	2.96
534.052	2.99
534.399	2.98
534.745	2.86
535.091	2.9
535.437	2.9
535.783	2.96
536.129	2.96
536.474	3.02
536.82	3.02
537.166	3
537.512	3
537.857	3.09
538.203	2.95
538.549	2.97
538.894	3.1
539.239	3.09
539.585	3.12
539.93	3.12
540.276	3.1
540.621	3.21
540.966	3.12
541.311	3.2
541.656	3.11
542.001	3.1
542.346	3.04
542.691	3.04
543.036	2.99
543.381	3.07
543.726	3.19
544.071	3.14
544.415	3.15
544.76	3.14
545.105	3.2
545.449	3.16
545.794	3.18
546.138	3.19
546.483	3.23
546.827	3.21
547.171	3.25
547.516	3.22
547.86	3.24
548.204	3.29
548.548	3.35
548.892	3.32
549.236	3.29
549.58	3.34
549.924	3.38
550.268	3.5
550.612	3.44
550.956	3.41
551.3	3.57
551.643	3.43
551.987	3.41
552.33	3.7
552.674	3.54
553.017	3.54
553.361	3.65
553.704	3.68
554.048	3.46
554.391	3.52
554.734	3.42
555.077	3.53
555.42	3.53
555.764	3.53
556.107	3.62
556.45	3.71
556.793	3.76
557.135	3.55
557.478	3.52
557.821	3.64
558.164	3.76
558.507	3.61
558.849	3.85
559.192	3.74
559.534	3.76
559.877	3.62
560.219	3.62
560.562	3.77
560.904	3.89
561.246	3.73
561.589	3.93
561.931	3.85
562.273	3.87
562.615	3.65
562.957	3.74
563.299	3.78
563.641	3.93
563.983	3.69
564.325	3.87
564.667	3.81
565.008	3.9
565.35	3.82
565.692	3.89
566.033	3.88
566.375	3.95
566.716	3.86
567.058	3.94
567.399	4.04
567.741	4
568.082	3.95
568.423	3.89
568.764	4.02
569.105	4.04
569.447	4.05
569.788	3.89
570.129	3.97
570.47	4.06
570.811	4.03
571.151	4.05
571.492	4.13
571.833	4.03
572.174	4.04
572.514	4.01
572.855	4.23
573.195	4.01
573.536	4.21
573.876	4.08
574.217	4.12
574.557	4.1
574.898	4.1
575.238	4.33
575.578	4.31
575.918	4.22
576.258	4.41
576.598	4.05
576.938	4.26
577.278	4.34
577.618	4.21
577.958	4.33
578.298	4.35
578.638	4.25
578.977	4.42
579.317	4.36
579.657	4.38
579.996	4.46
580.336	4.45
580.675	4.44
581.014	4.46
581.354	4.32
581.693	4.6
582.032	4.55
582.372	4.53
582.711	4.65
583.05	4.56
583.389	4.64
583.728	4.77
584.067	4.5
584.406	4.76
584.745	4.71
585.083	4.56
585.422	4.71
585.761	4.63
586.1	4.68
586.438	4.72
586.777	4.68
587.115	4.89
587.454	4.61
587.792	4.94
588.13	4.69
588.469	4.8
588.807	5.03
589.145	4.8
589.483	4.52
589.821	4.79
590.159	4.86
590.497	5.03
590.835	5.07
591.173	5.12
591.511	5.05
591.849	5.02
592.187	4.88
592.524	5.08
592.862	4.9
593.2	5.09
593.537	5.04
593.875	5.01
594.212	4.97
594.55	5.13
594.887	5.26
595.224	5.22
595.561	5.15
595.899	5.15
596.236	5.32
596.573	5.12
596.91	5.01
597.247	5.25
597.584	5.24
597.921	5.24
598.258	5.3
598.594	5.21
598.931	5.25
599.268	5.12
599.604	5.37
599.941	5.32
600.277	5.55
600.614	5.45
600.95	5.22
601.287	5.1
601.623	5.16
601.959	5.87
602.296	5.65
602.632	5.61
602.968	5.33
603.304	5.49
603.64	5.78
603.976	5.35
604.312	5.62
604.648	5.48
604.984	5.66
605.319	5.57
605.655	5.47
605.991	5.48
606.326	5.57
606.662	5.4
606.998	5.77
607.333	5.68
607.668	5.56
608.004	5.71
608.339	5.74
608.674	5.73
609.01	5.93
609.345	5.65
609.68	5.59
610.015	5.81
610.35	5.83
610.685	5.65
611.02	5.73
611.355	5.94
611.689	5.71
612.024	5.95
612.359	5.94
612.694	6.01
613.028	6
613.363	5.9
613.697	6.15
614.032	6.21
614.366	5.97
614.7	6.26
615.035	6.02
615.369	6.12
615.703	6.24
616.037	6.37
616.371	6.38
616.705	6.47
617.039	6.61
617.373	6.33
617.707	6.39
618.041	6.2
618.375	5.74
618.709	6.37
619.042	6.39
619.376	6.51
619.71	6.68
620.043	6.66
620.377	6.45
620.71	6.34
621.043	6.43
621.377	6.71
621.71	6.58
622.043	6.8
622.376	6.75
622.709	6.76
623.043	6.92
623.376	6.8
623.709	7.2
624.041	6.54
624.374	6.67
624.707	6.87
625.04	6.55
625.373	7.08
625.705	6.86
626.038	6.87
626.37	6.97
626.703	7.05
627.035	6.91
627.368	7.04
627.7	6.78
628.032	6.86
628.365	6.98
628.697	6.91
629.029	6.93
629.361	7.26
629.693	6.93
630.025	7.29
630.357	6.99
630.689	7.04
631.021	7.57
631.353	7
631.684	6.95
632.016	7.02
632.348	7.13
632.679	7.25
633.011	7.34
633.342	7.3
633.674	7.18
634.005	7.64
634.336	7.43
634.668	7.21
634.999	7.32
635.33	7.33
635.661	7.07
635.992	7.64
636.323	7.5
636.654	7.5
636.985	7.41
637.316	7.64
637.647	7.32
637.977	7.66
638.308	7.7
638.639	7.37
638.969	7.67
639.3	7.7
639.63	7.81
639.961	7.89
640.291	7.41
640.622	8
640.952	7.7
641.282	7.56
641.612	7.78
641.943	7.63
642.273	7.88
642.603	7.82
642.933	8.42
643.263	7.93
643.592	8.01
643.922	7.95
644.252	7.82
644.582	8.39
644.911	8.4
645.241	7.79
645.571	7.93
645.9	8.14
646.23	8.48
646.559	8.2
646.888	8.45
647.218	8.09
647.547	8.03
647.876	8.21
648.205	7.88
648.534	8.45
648.863	8.19
649.192	8.44
649.521	8.13
649.85	8.32
650.179	8.63
650.508	8.03
650.837	8.61
651.165	8.65
651.494	8.45
651.822	9.08
652.151	8.24
652.479	8.18
652.808	8.7
653.136	8.34
653.465	8.5
653.793	8.31
654.121	8.33
654.449	8.43
654.777	8.12
655.105	8.5
655.433	9.01
655.761	8.94
656.089	8.63
656.417	9.45
656.745	9.02
657.073	8.76
657.4	8.32
657.728	8.72
658.056	8.52
658.383	8.65
658.711	9.25
659.038	9.24
659.365	9.2
659.693	8.74
660.02	8.64
660.347	8.73
660.674	8.91
661.001	9.08
661.329	9.13
661.656	8.77
661.982	8.82
662.309	8.95
662.636	9.15
662.963	9.04
663.29	9.77
663.616	9.15
663.943	8.85
664.27	9.36
664.596	9.44
664.923	9.88
665.249	9.5
665.576	9.62
665.902	8.95
666.228	9.84
666.554	10.32
666.881	9.53
667.207	9.75
667.533	9.8
667.859	9.72
668.185	9.45
668.511	9.83
668.837	9.87
669.162	9.54
669.488	9.19
669.814	9.4
670.139	9.06
670.465	10.33
670.791	9.15
671.116	9.57
671.442	9.22
671.767	10.01
672.092	10.45
672.418	10
672.743	10.08
673.068	9.36
673.393	10.03
673.718	9.46
674.043	9.88
674.368	10.01
674.693	10.41
675.018	10.3
675.343	10.46
675.667	10.04
675.992	10.08
676.317	9.68
676.641	10.49
676.966	10.47
677.29	10.2
677.615	9.76
677.939	10.09
678.264	10.44
678.588	11.12
678.912	10.34
679.236	9.98
679.56	9.98
679.885	10.1
680.209	10.62
680.532	11.19
680.856	10.79
681.18	11.36
681.504	10.35
681.828	10.06
682.152	10.39
682.475	10.95
682.799	10.32
683.122	10.69
683.446	9.96
683.769	10.69
684.093	10.9
684.416	10.15
684.739	10.24
685.062	10.77
685.386	10.34
685.709	10.99
686.032	10.65
686.355	11
686.678	11.66
687.001	11.07
687.324	11.19
687.646	11.31
687.969	11.02
688.292	10.73
688.614	11.47
688.937	11.6
689.26	11.23
689.582	11.18
689.904	11.46
690.227	11.69
690.549	10.96
690.871	11.22
691.194	11.2
691.516	11.26
691.838	11.63
692.16	11.29
692.482	11.63
692.804	11.69
693.126	10.93
693.448	11.71
693.769	11.54
694.091	11.07
694.413	10.91
694.735	11.2
695.056	11.5
695.378	11.7
695.699	11.37
696.021	11.16
696.342	11.34
696.663	12.52
696.984	11.46
697.306	11.14
697.627	11.77
697.948	12.16
698.269	12.01
698.59	11.43
698.911	12.1
699.232	11.5
699.553	12.16
699.873	11.15
700.194	11.7
700.515	11.69
700.835	11.76
701.156	11.81
701.477	11.75
701.797	11.43
702.117	12
702.438	12.29
702.758	11.9
703.078	11.76
703.398	12.04
703.719	12.49
704.039	13.19
704.359	12.06
704.679	11.85
704.999	12
705.319	12.56
705.638	11.87
705.958	11.69
706.278	11.93
706.597	12.71
706.917	12.56
707.237	12.45
707.556	12.58
707.876	12.58
708.195	13.48
708.514	11.86
708.834	13.02
709.153	12.69
709.472	13.29
709.791	12.5
710.11	12.74
710.429	12.62
710.748	12.86
711.067	13.35
711.386	13.12
711.705	12.81
712.023	13.33
712.342	12.49
712.661	13.39
712.979	12.93
713.298	12.71
713.616	14.65
713.935	13.77
714.253	12.46
714.572	13.16
714.89	13.02
715.208	13.11
715.526	13.17
715.844	13.07
716.162	13.78
716.48	13.13
716.798	13.6
717.116	12.85
717.434	12.4
717.752	13.27
718.069	13.41
718.387	13.45
718.705	13.16
719.022	13.84
719.34	13.05
719.657	13.28
719.975	13.51
720.292	12.76
720.609	12.33
720.927	14.03
721.244	14.66
721.561	12.43
721.878	14.74
722.195	14.71
722.512	14.09
722.829	13.71
723.146	14.18
723.463	13.46
723.779	12.8
724.096	13.41
724.413	14.09
724.729	14.22
725.046	12.79
725.362	13.77
725.679	13.85
725.995	13.07
726.311	14.29
726.628	14.43
726.944	14.95
727.26	14.84
727.576	14.25
727.892	16.07
728.208	13.74
728.524	13.03
728.84	13.7
729.156	14.4
729.472	13.43
729.787	14.65
730.103	14.28
730.419	13.77
730.734	13.94
731.05	14.08
731.365	15.5
731.681	13.94
731.996	15.7
732.311	14.06
732.626	14.19
732.942	14.65
733.257	14.73
733.572	14.84
733.887	15.75
734.202	14.49
734.517	14.3
734.832	13.38
735.146	16.12
735.461	14.44
735.776	14.77
736.091	17.14
736.405	14.64
736.72	14.8
737.034	16.03
737.349	14.41
737.663	17.07
737.977	14.73
738.292	14.83
738.606	15.24
738.92	14.55
739.234	15.12
739.548	14.96
739.862	16.01
740.176	15.73
740.49	15.74
740.804	15.77
741.117	15.26
741.431	15.03
741.745	15.36
742.058	14.61
742.372	15.1
742.685	16.97
742.999	15.16
743.312	14.84
743.626	15.79
743.939	14.47
744.252	14.45
744.565	15.41
744.878	15.29
745.191	15.77
745.505	16.68
745.817	16.65
746.13	15.71
746.443	15.69
746.756	16.55
747.069	16.18
747.381	14.25
747.694	16.3
748.007	16.22
748.319	17.19
748.632	15.67
748.944	15.23
749.256	17.02
749.569	15.43
749.881	17.05
750.193	17.12
750.505	16.01
750.817	15.79
751.129	16.19
751.441	17.19
751.753	18.18
752.065	14.64
752.377	16.98
752.689	15.03
753	16.14
753.312	17.61
753.624	16.21
753.935	15.56
754.247	16.6
754.558	16.8
754.869	18.24
755.181	16.7
755.492	16.99
755.803	16.93
756.114	16.73
756.425	14.99
756.736	18.1
757.047	15.4
757.358	15.19
757.669	17.41
757.98	14.18
758.291	17.72
758.601	15.63
758.912	17.11
759.223	16.05
759.533	18
759.844	15.38
760.154	17
760.464	16.63
760.775	17.81
761.085	16.52
761.395	15.91
761.705	15.62
762.016	15.45
762.326	18.7
762.636	16.78
762.945	16.42
763.255	15.72
763.565	18.29
763.875	16.02
764.185	18.78
764.494	16.2
764.804	16.02
765.113	16.75
765.423	17.98
765.732	17.89
766.042	17.74
766.351	16.76
766.66	16.88
766.97	17.7
767.279	17.11
767.588	16.06
767.897	17.95
768.206	17.11
768.515	18.24
768.824	17.56
769.133	16.78
769.441	15.03
769.75	16.14
770.059	16.84
770.367	18.44
770.676	17.51
770.984	16.14
771.293	19.18
771.601	16.88
771.91	16.91
772.218	15.41
772.526	15.97
772.834	14.6
773.142	17.1
773.45	18.04
773.758	18.27
774.066	17.23
774.374	20.83
774.682	19.61
774.99	15.58
775.298	17.01
775.605	15.61
775.913	14.31
776.22	15.78
776.528	20.78
776.835	19.86
777.143	20.76
777.45	16.09
777.757	18.43
778.065	14.98
778.372	19.14
778.679	17.74
778.986	17.84
779.293	17.23
779.6	16.14
779.907	20.64
780.214	18.48
780.52	19.37
780.827	16.58
781.134	18.95
781.44	21.36
781.747	16.57
782.053	18.91
782.36	17.74
782.666	17.75
782.973	15.23
783.279	22.1
783.585	20.15
783.891	15.32
784.197	18.83
784.503	19.82
784.809	19.07
785.115	22.02
785.421	21.28
785.727	19.76
786.033	17.05
786.339	22.39
786.644	16.65
786.95	18.52
787.255	14.31
787.561	16.7
787.866	18.58
788.172	17.27
788.477	19.49
788.782	16.39
789.088	19.86
789.393	20.82
789.698	16.03
790.003	19.17
790.308	21.06
790.613	18.08
790.918	19.69
791.223	19.2
791.527	26.3
791.832	19.58
792.137	20.47
792.441	19.53
792.746	21.05
793.05	19.23
793.355	16.44
793.659	24.67
793.963	19.48
794.268	20.68
794.572	19.61
794.876	17.29
795.18	19.41
795.484	20.78
795.788	21.28
796.092	16.27
796.396	15.66
796.7	19.11
797.004	18.35
797.307	17.9
797.611	18.71
797.915	14.79
798.218	17.67
798.522	16.94
798.825	20.61
799.128	21.48
799.432	17.18
799.735	19.23
800.038	19.28
800.341	19.66
800.644	18.17
800.947	19.03
801.25	20.2
801.553	25.73
801.856	21.07
802.159	13.87
802.462	19.47
802.764	21.67
803.067	20.13
803.37	20.77
803.672	14.5
803.975	17.33
804.277	16.67
804.579	22.45
804.882	19.16
805.184	17.31
805.486	21.24
805.788	27.74
806.09	20.72
806.392	19.37
806.694	24.3
806.996	26.7
807.298	15.79
807.6	24.21
807.902	20.15
808.203	18.6
808.505	16.99
808.807	19.78
809.108	21.57
809.409	18.57
809.711	21.16
810.012	19.6
810.313	17.95
810.615	25.2
810.916	22.95
811.217	13.59
811.518	13.32
811.819	21.75
812.12	23.11
812.421	13.25
812.722	25.18
813.023	23.55
813.323	17.93
813.624	24.14
813.925	22.25
814.225	22.74
814.526	9.51
814.826	13.99
815.126	21
815.427	19.51
815.727	19.62
816.027	23.22
816.327	23.28
816.627	23.23
816.927	20.74
817.227	16.48
817.527	17.84
817.827	20.55
818.127	22.35
818.427	21.26
818.727	15.02
819.026	22.41
819.326	20.42
819.625	24
819.925	22.43
820.224	21.52
820.524	17.29
820.823	22.07
821.122	18.82
821.421	19.18
821.72	19.69
822.019	17.25
822.318	26.58
822.617	25.16
822.916	20.99
823.215	22.31
823.514	23.49
823.813	22.36
824.111	22.67
824.41	22.82
824.709	21.59
825.007	22.14
825.306	22.53
825.604	22.43
825.902	22.81
826.201	22.67
826.499	23.64
826.797	21.97
827.095	23.28
827.393	24.01
827.691	24.19
827.989	23.34
828.287	23.1
828.585	23.06
828.882	23.55
829.18	22.24
829.478	23.91
829.775	23.04
830.073	23.86
830.37	23.09
830.668	23.74
830.965	24.88
831.263	22.98
831.56	21.53
831.857	23.18
832.154	23.39
832.451	22.48
832.748	19.27
833.045	22.31
833.342	25.93
833.639	23.24
833.936	16.8
834.232	23.52
834.529	22.53
834.826	25.48
835.122	22.24
835.419	27.96
835.715	22.11
836.012	19.83
836.308	25.87
836.604	21.85
836.901	23.1
837.197	24.24
837.493	23.79
837.789	24.73
838.085	19.45
838.381	25.68
838.677	23.51
838.972	21.48
839.268	20.76
839.564	26.71
839.86	16.84
840.155	21.73
840.451	22.69
840.746	21.68
841.042	19.55
841.337	23.57
841.632	21.01
841.928	21.98
842.223	14.55
842.518	24.58
842.813	14.88
843.108	24.92
843.403	14.99
843.698	18.69
843.993	29.69
844.287	22.26
844.582	20.77
844.877	26.04
845.171	23.02
845.466	31.24
845.761	23.95
846.055	23.75
846.349	36.02
846.644	23.43
846.938	35.21
847.232	19.56
847.526	17.81
847.82	33.41
848.114	18.19
848.408	27.61
848.702	26.76
848.996	25.62
849.29	32.2
849.584	22.83
849.877	12.85
850.171	29.95
850.465	35.42
850.758	20.21
851.052	17.2
851.345	18.05
851.638	22.24
851.932	20.43
852.225	24.79
852.518	25.94
852.811	14.75
853.104	25.16
853.397	26.82
853.69	32.09
853.983	22.95
854.276	29.99
854.569	12.08
854.861	7.41
855.154	28.02
855.447	6.45
855.739	-23.31
856.032	38.44
856.324	43.37
856.616	26.62
856.909	8.41
857.201	8.84
857.493	27.4
857.785	16.47
858.077	7.13
858.369	20.65
858.661	33.28
858.953	39.84
859.245	26.19
859.537	5.57
859.829	24.42
860.12	27.89
860.412	18.92
860.703	27.53
860.995	27.46
861.286	-6.96
861.578	43.3
861.869	13.1
862.16	6.07
862.452	16.45
862.743	4.16
863.034	24.47
863.325	28.22
863.616	25.99
863.907	28.95
864.198	11.81
864.488	33.93
864.779	35.09
865.07	29.5
865.36	33.95
865.651	61.1
865.941	21.63
866.232	29.6
866.522	14.76
866.813	23.91
867.103	30.42
867.393	24.41
867.683	21.8
867.973	28.83
868.263	22.44
868.553	31.44
868.843	7.83
869.133	5.5
869.423	25.4
869.713	26.95
870.002	13.45
870.292	27.95
870.582	3.32
870.871	53.73
871.161	22.44
871.45	30.42
871.739	33.67
872.029	32.76
872.318	50.47
872.607	38.79
872.896	17.49
873.185	17.21
873.474	29.47
873.763	25.11
874.052	32.32
874.341	16.31
874.63	34.91
874.918	19.26
875.207	15.62
875.496	36.36
875.784	5.04
876.073	28.02
876.361	33.71
876.649	35.46
876.938	13.79
877.226	28.96
877.514	46.87
877.802	-1.53
878.09	26.78
878.378	25.56
878.666	38.67
878.954	27.63
879.242	38.21
879.53	26.62
879.817	1.85
880.105	40.01
880.392	27.77
880.68	15.97
880.967	7.74
881.255	41.69
881.542	16.35
881.83	32.48
882.117	27.69
882.404	33.67
882.691	27.84
882.978	17.44
883.265	36.53
883.552	36.6
883.839	39.02
884.126	24.73
884.413	26.55
884.699	30.58
884.986	22.46
885.273	33.96
885.559	33.96
885.846	33.96
