Data from 0391_crown_Reflection__1__191.txt Node

Date: Fri Dec 15 18:13:39 CST 2023
User: ToomeyLab
Spectrometer: FLMS14357
Trigger mode: 0
Integration Time (sec): 1.000000E-2
Scans to average: 100
Electric dark correction enabled: true
Nonlinearity correction enabled: false
Boxcar width: 0
XAxis mode: Wavelengths
Number of Pixels in Spectrum: 2048
>>>>>Begin Spectral Data<<<<<
189.047	-238.94
189.435	-238.94
189.823	-238.94
190.211	-143.07
190.599	-3769.18
190.987	76.05
191.375	71.08
191.763	-140.54
192.151	-47.39
192.538	64.95
192.926	-114.71
193.314	182.73
193.702	67.63
194.089	87.24
194.477	611.17
194.864	63.35
195.252	47.43
195.639	84.6
196.027	-22.23
196.414	306.45
196.801	-70.08
197.189	133.78
197.576	62
197.963	84.34
198.351	-184.17
198.738	-75.39
199.125	16.68
199.512	-16.31
199.899	14.21
200.286	24.21
200.673	5.17
201.06	-9.43
201.447	4.76
201.833	5.52
202.22	24.99
202.607	61.15
202.994	-1.54
203.38	-9.15
203.767	22.4
204.154	-13.42
204.54	4.08
204.927	-47.86
205.313	-50.19
205.699	37.06
206.086	39.12
206.472	46.44
206.858	-4.41
207.245	-18.89
207.631	-15.47
208.017	25.14
208.403	19.29
208.789	17.26
209.175	3.95
209.561	23.01
209.947	-6.68
210.333	-21.59
210.719	19.52
211.105	10.64
211.491	-18.41
211.876	51.7
212.262	16.01
212.648	11.75
213.034	18.36
213.419	-26.93
213.805	2.53
214.19	16.64
214.576	4.84
214.961	-6.27
215.346	-60.32
215.732	-11.39
216.117	12.2
216.502	-14.76
216.888	-5.43
217.273	11.12
217.658	-1.21
218.043	22.31
218.428	-24.33
218.813	-49.19
219.198	-50.98
219.583	-5.34
219.968	-5.88
220.353	2.22
220.738	11.53
221.122	6.55
221.507	-9.17
221.892	-33.8
222.276	-33.65
222.661	6.12
223.046	2.81
223.43	16.98
223.815	18.5
224.199	-8.22
224.583	3.41
224.968	-6.18
225.352	19.87
225.736	-6.14
226.121	-10.97
226.505	0.27
226.889	7.14
227.273	-0.95
227.657	9.96
228.041	-1.22
228.425	3.09
228.809	6.42
229.193	4.3
229.577	3.65
229.961	4.51
230.344	4.17
230.728	4.22
231.112	4.91
231.495	4.09
231.879	3.05
232.263	5.28
232.646	5.21
233.03	5.14
233.413	2.7
233.797	4.47
234.18	1.47
234.563	7.23
234.946	3.19
235.33	6.96
235.713	4.43
236.096	5.23
236.479	4.72
236.862	1.31
237.245	4.56
237.628	2.67
238.011	6.2
238.394	4.04
238.777	4.12
239.16	3.27
239.543	4.61
239.925	4.42
240.308	6.5
240.691	3.17
241.073	5.83
241.456	4.49
241.838	3.44
242.221	3.28
242.603	5.6
242.986	4.63
243.368	4.59
243.75	5.2
244.133	4.57
244.515	5.04
244.897	4.38
245.279	4.69
245.661	3.94
246.043	4.04
246.425	4.51
246.807	6.58
247.189	4.92
247.571	4.63
247.953	4.81
248.335	4.17
248.717	4.66
249.098	4.53
249.48	4.66
249.862	4.4
250.243	4.65
250.625	4.55
251.006	4.54
251.388	3.64
251.769	4.32
252.151	4.43
252.532	4.15
252.913	3.23
253.295	4.25
253.676	4.05
254.057	4.59
254.438	4.38
254.819	4.19
255.2	2.45
255.581	4.86
255.962	3.95
256.343	3.67
256.724	3.71
257.105	4.34
257.486	3.29
257.867	3.25
258.247	4.45
258.628	4.44
259.009	3.81
259.389	4.06
259.77	4.04
260.15	3.57
260.531	3.93
260.911	4.57
261.292	4.18
261.672	4.49
262.052	4.51
262.432	4.58
262.813	4.4
263.193	4.32
263.573	4.11
263.953	3.73
264.333	4.43
264.713	4.96
265.093	3.26
265.473	4.02
265.853	3.46
266.233	4.1
266.612	2.68
266.992	3.3
267.372	4.96
267.752	4.04
268.131	3.89
268.511	4.64
268.89	4.68
269.27	3.33
269.649	4.05
270.029	4.54
270.408	4.61
270.787	4.45
271.167	4.42
271.546	5
271.925	3.75
272.304	3.67
272.683	4.21
273.062	4.17
273.441	4.02
273.82	3.41
274.199	4.14
274.578	4.27
274.957	3.96
275.336	4.23
275.715	3.81
276.093	3.57
276.472	4.47
276.851	4.04
277.229	3.27
277.608	3.51
277.986	3.84
278.365	3.93
278.743	3.78
279.122	3.56
279.5	3.72
279.878	3.88
280.257	3.88
280.635	3.49
281.013	3.72
281.391	3.85
281.769	4.26
282.147	4.02
282.525	4.93
282.903	3.92
283.281	3.84
283.659	4.62
284.037	4.06
284.415	3.88
284.792	4.26
285.17	3.1
285.548	3.46
285.925	4
286.303	4.17
286.68	3.4
287.058	4.2
287.435	3.9
287.813	4.29
288.19	3.63
288.567	4.03
288.945	4.32
289.322	4.08
289.699	3.74
290.076	3.61
290.453	4.25
290.83	3.88
291.207	4.47
291.584	4.04
291.961	4.42
292.338	3.83
292.715	3.91
293.092	4.03
293.469	3.64
293.845	4.36
294.222	3.36
294.599	3.79
294.975	3.55
295.352	4.07
295.728	3.42
296.105	4.34
296.481	4.25
296.858	3.71
297.234	3.62
297.61	3.65
297.986	3.51
298.363	3.82
298.739	3.49
299.115	3.37
299.491	3.84
299.867	3.67
300.243	3.66
300.619	3.31
300.995	3.64
301.371	3.86
301.746	3.14
302.122	3.99
302.498	3.52
302.874	3.96
303.249	3.81
303.625	3.72
304	4.42
304.376	3.45
304.751	2.83
305.127	4.01
305.502	2.84
305.878	3.22
306.253	3.74
306.628	4.19
307.003	3.46
307.378	3.39
307.754	3.6
308.129	2.36
308.504	3.23
308.879	2.82
309.254	4.01
309.629	4.14
310.003	3.37
310.378	4.16
310.753	4
311.128	3.47
311.502	3.84
311.877	3.94
312.252	3.2
312.626	3.04
313.001	3.55
313.375	4.03
313.75	3.31
314.124	4.04
314.498	3.36
314.873	3.61
315.247	3.04
315.621	3
315.995	2.92
316.369	3.55
316.743	3.47
317.117	3.9
317.491	3.24
317.865	4.15
318.239	3
318.613	3.67
318.987	3.75
319.361	2.2
319.734	3.64
320.108	3.67
320.482	3.54
320.855	4.59
321.229	3.12
321.602	3.51
321.976	3.94
322.349	3.36
322.723	3.34
323.096	3.71
323.469	2.47
323.843	3.2
324.216	3.75
324.589	2.85
324.962	3.79
325.335	2.81
325.708	3.2
326.081	3.14
326.454	3.07
326.827	3.36
327.2	3.54
327.573	3.26
327.945	3.37
328.318	3.23
328.691	3.2
329.063	3.62
329.436	2.98
329.809	3.6
330.181	3.34
330.553	3.49
330.926	3.43
331.298	3.35
331.671	2.75
332.043	3.98
332.415	2.94
332.787	4.08
333.159	3.29
333.532	3.77
333.904	3.5
334.276	3.62
334.648	4.24
335.02	3.7
335.391	3.25
335.763	3.55
336.135	3.49
336.507	3.54
336.879	3.48
337.25	3.66
337.622	3.39
337.993	3.51
338.365	3.28
338.736	3.13
339.108	3.01
339.479	3.44
339.851	3.2
340.222	3.42
340.593	3.15
340.964	3.24
341.336	4.14
341.707	2.62
342.078	3.76
342.449	3.45
342.82	3.65
343.191	3.04
343.562	3.21
343.933	3.59
344.303	3.26
344.674	3.32
345.045	3.57
345.416	3.82
345.786	3.29
346.157	3.08
346.527	3.38
346.898	3.05
347.268	3.76
347.639	3.59
348.009	3.28
348.38	3.26
348.75	2.88
349.12	3.23
349.49	4.21
349.861	3.37
350.231	2.86
350.601	3.74
350.971	3.08
351.341	3.56
351.711	3.77
352.081	3.17
352.45	3.48
352.82	3.22
353.19	2.78
353.56	3.07
353.929	3.82
354.299	3.16
354.669	3.23
355.038	3.82
355.408	3.2
355.777	3.4
356.147	3.22
356.516	3.48
356.885	3.19
357.254	3.63
357.624	3.91
357.993	3.64
358.362	3.31
358.731	3.36
359.1	3.54
359.469	3.59
359.838	3.66
360.207	3.41
360.576	3.49
360.945	3.84
361.314	3.89
361.682	3.38
362.051	3.35
362.42	3.48
362.788	3.54
363.157	3.38
363.525	3.68
363.894	3.65
364.262	3.6
364.631	3.45
364.999	3.53
365.367	2.96
365.735	4.42
366.104	3.35
366.472	3.53
366.84	3.52
367.208	3.42
367.576	3.84
367.944	3.59
368.312	3.32
368.68	3.32
369.048	3.31
369.416	3.34
369.783	3.4
370.151	3.57
370.519	3.82
370.886	3.64
371.254	3.39
371.621	3.69
371.989	3.91
372.356	3.14
372.724	3.47
373.091	3.6
373.458	3.51
373.826	3.35
374.193	3.63
374.56	3.74
374.927	3.61
375.294	3.43
375.661	3.37
376.028	3.51
376.395	3.38
376.762	3.56
377.129	3.45
377.496	3.64
377.863	3.72
378.229	3.14
378.596	3.69
378.963	3.31
379.329	3.87
379.696	3.77
380.062	3.88
380.429	3.64
380.795	3.64
381.161	3.37
381.528	3.79
381.894	3.34
382.26	3.33
382.626	3.8
382.993	3.31
383.359	4.06
383.725	3.41
384.091	3.79
384.457	3.76
384.823	3.7
385.188	3.53
385.554	3.54
385.92	3.78
386.286	3.98
386.651	4.05
387.017	3.88
387.383	3.82
387.748	3.49
388.114	3.74
388.479	3.51
388.845	4.14
389.21	3.9
389.575	3.83
389.94	4
390.306	3.94
390.671	4
391.036	3.41
391.401	3.4
391.766	3.76
392.131	3.63
392.496	3.84
392.861	3.77
393.226	4.05
393.591	4.01
393.956	3.75
394.32	3.77
394.685	3.6
395.05	3.72
395.414	3.83
395.779	3.67
396.143	3.78
396.508	3.94
396.872	4.06
397.236	3.8
397.601	3.64
397.965	4.03
398.329	3.89
398.694	4.11
399.058	4.05
399.422	3.72
399.786	3.99
400.15	4.2
400.514	3.7
400.878	4.04
401.242	4.28
401.605	4.03
401.969	4.04
402.333	3.87
402.697	3.79
403.06	3.99
403.424	4.02
403.787	4.01
404.151	4.07
404.514	3.99
404.878	4.04
405.241	4.27
405.604	4.17
405.968	3.93
406.331	4.12
406.694	4.21
407.057	3.9
407.42	4.02
407.783	3.68
408.146	3.92
408.509	3.96
408.872	4.13
409.235	4.05
409.598	4.25
409.961	4.34
410.323	3.95
410.686	4.15
411.049	3.93
411.411	3.98
411.774	4.21
412.136	3.97
412.499	4.23
412.861	3.9
413.223	4.04
413.586	4.01
413.948	4.12
414.31	4.04
414.672	4.05
415.035	3.95
415.397	4.39
415.759	4.03
416.121	4.32
416.483	4.23
416.845	3.98
417.206	4.12
417.568	4.3
417.93	3.98
418.292	4.11
418.653	4.24
419.015	4.02
419.377	4.07
419.738	4.17
420.1	4.05
420.461	4.19
420.822	4.1
421.184	3.97
421.545	4
421.906	3.96
422.267	4.03
422.629	3.98
422.99	4.12
423.351	4.02
423.712	4.02
424.073	4.19
424.434	4.08
424.795	4.03
425.155	4.2
425.516	3.96
425.877	4.02
426.238	4.06
426.598	4.13
426.959	4.21
427.32	4.09
427.68	4.11
428.041	4.18
428.401	4.27
428.761	4.21
429.122	4.2
429.482	4.07
429.842	4.29
430.202	4.08
430.563	4.24
430.923	4.17
431.283	4.29
431.643	4.21
432.003	4.21
432.363	4.41
432.722	4.32
433.082	4.2
433.442	4.13
433.802	4.09
434.161	4.27
434.521	4.41
434.881	4.25
435.24	4.2
435.6	4.27
435.959	4.27
436.319	4.24
436.678	4.21
437.037	4.32
437.396	4.31
437.756	4.36
438.115	4.38
438.474	4.39
438.833	4.12
439.192	4.28
439.551	4.35
439.91	4.3
440.269	4.32
440.628	4.16
440.987	4.35
441.345	4.12
441.704	4.22
442.063	4.2
442.421	4.22
442.78	4.24
443.138	4.2
443.497	4.33
443.855	4.21
444.214	4.43
444.572	4.44
444.93	4.29
445.288	4.39
445.647	4.56
446.005	4.3
446.363	4.41
446.721	4.27
447.079	4.12
447.437	4.17
447.795	4.31
448.153	4.34
448.51	4.28
448.868	4.3
449.226	4.28
449.584	4.18
449.941	4.39
450.299	4.42
450.656	4.33
451.014	4.37
451.371	4.32
451.729	4.37
452.086	4.47
452.443	4.58
452.801	4.54
453.158	4.38
453.515	4.15
453.872	4.31
454.229	4.3
454.586	4.24
454.943	4.5
455.3	4.45
455.657	4.38
456.014	4.36
456.371	4.46
456.727	4.37
457.084	4.78
457.441	4.44
457.797	4.51
458.154	4.62
458.51	4.42
458.867	4.72
459.223	4.69
459.58	4.48
459.936	4.47
460.292	4.54
460.648	4.39
461.005	4.39
461.361	4.58
461.717	4.44
462.073	4.48
462.429	4.36
462.785	4.56
463.141	4.34
463.496	4.66
463.852	4.52
464.208	4.58
464.564	4.76
464.919	4.56
465.275	4.48
465.631	4.69
465.986	4.42
466.342	4.43
466.697	4.33
467.052	4.58
467.408	4.56
467.763	4.49
468.118	4.54
468.473	4.66
468.829	4.54
469.184	4.62
469.539	4.61
469.894	4.45
470.249	4.82
470.603	4.73
470.958	4.76
471.313	4.54
471.668	4.71
472.023	4.65
472.377	4.51
472.732	4.59
473.086	4.71
473.441	4.43
473.795	4.75
474.15	4.64
474.504	4.58
474.859	4.69
475.213	4.41
475.567	4.55
475.921	4.53
476.275	4.63
476.63	4.6
476.984	4.73
477.338	4.68
477.692	4.51
478.045	4.51
478.399	4.56
478.753	4.82
479.107	4.64
479.461	4.49
479.814	4.65
480.168	4.59
480.521	4.6
480.875	4.71
481.228	4.66
481.582	4.62
481.935	4.65
482.289	4.63
482.642	4.73
482.995	4.59
483.348	4.35
483.701	4.54
484.055	4.64
484.408	4.63
484.761	4.46
485.114	4.47
485.466	4.34
485.819	4.34
486.172	4.33
486.525	4.39
486.878	4.45
487.23	4.44
487.583	4.56
487.936	4.57
488.288	4.56
488.641	4.6
488.993	4.49
489.345	4.43
489.698	4.39
490.05	4.4
490.402	4.54
490.754	4.48
491.107	4.56
491.459	4.66
491.811	4.56
492.163	4.6
492.515	4.67
492.866	4.62
493.218	4.61
493.57	4.51
493.922	4.53
494.274	4.59
494.625	4.63
494.977	4.7
495.328	4.69
495.68	4.73
496.031	4.81
496.383	4.63
496.734	4.91
497.086	4.7
497.437	4.91
497.788	4.7
498.139	4.7
498.49	4.85
498.842	4.63
499.193	4.82
499.544	4.71
499.894	4.74
500.245	4.67
500.596	4.83
500.947	4.8
501.298	4.7
501.648	4.88
501.999	4.85
502.35	4.75
502.7	4.63
503.051	4.62
503.401	4.69
503.752	4.95
504.102	4.75
504.452	4.84
504.803	4.73
505.153	4.67
505.503	4.86
505.853	4.84
506.203	4.68
506.553	4.61
506.903	4.77
507.253	4.74
507.603	4.68
507.953	4.93
508.303	4.97
508.652	4.72
509.002	4.84
509.352	4.81
509.701	4.69
510.051	4.72
510.4	4.79
510.75	4.7
511.099	4.72
511.449	4.71
511.798	4.71
512.147	4.76
512.496	4.74
512.846	4.84
513.195	4.83
513.544	4.76
513.893	4.96
514.242	4.76
514.591	5.01
514.939	4.89
515.288	4.71
515.637	4.96
515.986	4.8
516.334	4.87
516.683	4.91
517.032	4.87
517.38	4.9
517.729	4.99
518.077	4.73
518.426	4.86
518.774	4.98
519.122	4.62
519.47	4.8
519.819	4.74
520.167	4.85
520.515	4.78
520.863	4.8
521.211	4.87
521.559	4.87
521.907	4.85
522.255	4.75
522.602	4.8
522.95	4.83
523.298	4.92
523.645	4.95
523.993	4.8
524.341	4.96
524.688	5.01
525.036	4.87
525.383	4.92
525.73	5.03
526.078	4.91
526.425	4.73
526.772	4.92
527.119	4.85
527.466	4.77
527.814	4.85
528.161	4.8
528.508	4.77
528.854	4.83
529.201	4.74
529.548	4.75
529.895	4.72
530.242	4.58
530.588	4.59
530.935	4.64
531.282	4.67
531.628	4.71
531.975	4.74
532.321	4.75
532.667	4.84
533.014	4.89
533.36	4.86
533.706	4.82
534.052	4.84
534.399	4.74
534.745	4.74
535.091	4.7
535.437	4.69
535.783	4.81
536.129	4.83
536.474	4.79
536.82	4.84
537.166	4.91
537.512	4.93
537.857	4.83
538.203	4.94
538.549	4.82
538.894	4.8
539.239	4.9
539.585	4.91
539.93	4.86
540.276	4.96
540.621	4.94
540.966	5.12
541.311	4.78
541.656	4.91
542.001	4.84
542.346	4.97
542.691	4.66
543.036	4.78
543.381	4.69
543.726	4.71
544.071	4.8
544.415	4.9
544.76	4.87
545.105	4.84
545.449	4.88
545.794	4.98
546.138	4.95
546.483	4.87
546.827	4.94
547.171	4.89
547.516	4.99
547.86	4.86
548.204	4.87
548.548	4.73
548.892	4.93
549.236	4.81
549.58	4.93
549.924	4.94
550.268	5.05
550.612	4.97
550.956	5.18
551.3	5.02
551.643	5.21
551.987	5.09
552.33	5
552.674	5.11
553.017	4.87
553.361	4.99
553.704	5.28
554.048	4.89
554.391	4.91
554.734	4.89
555.077	4.95
555.42	4.73
555.764	4.97
556.107	4.87
556.45	4.87
556.793	4.93
557.135	4.97
557.478	5.25
557.821	5.04
558.164	4.93
558.507	5.06
558.849	4.89
559.192	4.97
559.534	5.18
559.877	5.19
560.219	4.98
560.562	5.15
560.904	5.16
561.246	5.16
561.589	5.11
561.931	4.99
562.273	4.84
562.615	5.13
562.957	5.08
563.299	4.92
563.641	5
563.983	5.11
564.325	5.05
564.667	4.95
565.008	5.11
565.35	4.88
565.692	4.88
566.033	5.17
566.375	5.22
566.716	5.17
567.058	4.8
567.399	4.99
567.741	4.82
568.082	5.02
568.423	4.87
568.764	4.69
569.105	5.1
569.447	5.1
569.788	4.99
570.129	5.01
570.47	4.95
570.811	5.18
571.151	5
571.492	5.16
571.833	5.04
572.174	4.94
572.514	5.19
572.855	4.97
573.195	4.94
573.536	4.95
573.876	4.79
574.217	4.99
574.557	4.97
574.898	5.14
575.238	4.99
575.578	4.81
575.918	5.23
576.258	5.12
576.598	4.94
576.938	4.95
577.278	4.93
577.618	4.87
577.958	4.92
578.298	4.96
578.638	5.03
578.977	5.05
579.317	4.97
579.657	5.04
579.996	4.87
580.336	5.2
580.675	4.92
581.014	5.1
581.354	5.02
581.693	4.9
582.032	4.78
582.372	4.97
582.711	5.17
583.05	4.83
583.389	4.98
583.728	4.85
584.067	5.48
584.406	5.12
584.745	5.07
585.083	5.26
585.422	5.19
585.761	5.01
586.1	5.12
586.438	5.09
586.777	5.03
587.115	5.33
587.454	5.11
587.792	4.83
588.13	5.15
588.469	5.04
588.807	5.15
589.145	4.72
589.483	4.95
589.821	5.08
590.159	5.2
590.497	5.28
590.835	5.06
591.173	5.18
591.511	5.07
591.849	5.22
592.187	4.9
592.524	5
592.862	5.02
593.2	5.13
593.537	5.02
593.875	4.97
594.212	4.83
594.55	5.01
594.887	5.01
595.224	5.27
595.561	5.29
595.899	4.93
596.236	4.91
596.573	5.23
596.91	4.55
597.247	4.85
597.584	5.21
597.921	5.06
598.258	4.96
598.594	4.79
598.931	5.13
599.268	5.04
599.604	5.01
599.941	5.02
600.277	4.98
600.614	5.3
600.95	4.99
601.287	4.98
601.623	5.03
601.959	4.65
602.296	4.91
602.632	5.12
602.968	5.26
603.304	5.05
603.64	4.84
603.976	5.01
604.312	5.14
604.648	4.97
604.984	5.17
605.319	5.09
605.655	5.06
605.991	5.12
606.326	5
606.662	5.07
606.998	4.82
607.333	4.84
607.668	4.91
608.004	5.01
608.339	5.26
608.674	5.05
609.01	4.85
609.345	4.85
609.68	4.85
610.015	4.76
610.35	4.79
610.685	4.92
611.02	4.92
611.355	5.11
611.689	4.97
612.024	4.97
612.359	4.78
612.694	5.05
613.028	4.73
613.363	5.41
613.697	5.05
614.032	5.26
614.366	4.99
614.7	5.05
615.035	4.73
615.369	4.99
615.703	4.96
616.037	5.41
616.371	4.64
616.705	4.93
617.039	5.33
617.373	5.03
617.707	4.94
618.041	4.74
618.375	5.12
618.709	4.94
619.042	4.9
619.376	5.49
619.71	5.19
620.043	5.31
620.377	5.01
620.71	4.87
621.043	4.86
621.377	4.87
621.71	5.21
622.043	5
622.376	4.81
622.709	4.82
623.043	4.94
623.376	5.17
623.709	5.13
624.041	5.17
624.374	5.02
624.707	4.96
625.04	5.23
625.373	4.79
625.705	5.11
626.038	5.11
626.37	5.09
626.703	5.17
627.035	4.73
627.368	5.2
627.7	5.02
628.032	4.88
628.365	5.36
628.697	4.92
629.029	5.05
629.361	5.08
629.693	5.24
630.025	4.86
630.357	5.32
630.689	4.93
631.021	4.85
631.353	5.08
631.684	4.96
632.016	4.77
632.348	5.06
632.679	5.25
633.011	5.23
633.342	5.21
633.674	5.1
634.005	5.22
634.336	4.87
634.668	5.5
634.999	4.78
635.33	5.45
635.661	5.27
635.992	5.46
636.323	5.13
636.654	5.24
636.985	5.05
637.316	4.64
637.647	4.7
637.977	5.38
638.308	4.87
638.639	4.71
638.969	4.84
639.3	5.11
639.63	4.76
639.961	5.15
640.291	4.89
640.622	5.22
640.952	4.92
641.282	4.86
641.612	5.08
641.943	4.94
642.273	5.14
642.603	4.99
642.933	5.38
643.263	5.11
643.592	4.71
643.922	5.08
644.252	5.07
644.582	5.16
644.911	4.51
645.241	4.89
645.571	4.7
645.9	4.47
646.23	5.17
646.559	5.28
646.888	5.16
647.218	4.78
647.547	5.14
647.876	4.97
648.205	4.99
648.534	5.05
648.863	4.45
649.192	5.36
649.521	5.14
649.85	4.81
650.179	5.28
650.508	4.79
650.837	5.03
651.165	4.94
651.494	4.93
651.822	5.59
652.151	4.55
652.479	5.14
652.808	5.07
653.136	4.72
653.465	4.37
653.793	4.41
654.121	5.03
654.449	5.09
654.777	5.17
655.105	5.16
655.433	4.64
655.761	4.55
656.089	4.97
656.417	5.27
656.745	4.61
657.073	4.59
657.4	5.28
657.728	4.59
658.056	5.25
658.383	4.65
658.711	4.99
659.038	5.15
659.365	5.68
659.693	5.29
660.02	4.55
660.347	5.37
660.674	5.16
661.001	5.05
661.329	4.63
661.656	5.22
661.982	5.62
662.309	4.96
662.636	4.52
662.963	5.38
663.29	5.23
663.616	5.23
663.943	4.13
664.27	4.64
664.596	4.54
664.923	5.36
665.249	4.77
665.576	4.93
665.902	5.44
666.228	5.17
666.554	5.54
666.881	4.57
667.207	5.44
667.533	4.89
667.859	5.02
668.185	5.03
668.511	4.32
668.837	3.79
669.162	5.79
669.488	4.46
669.814	5.06
670.139	4.74
670.465	5.09
670.791	5
671.116	5.71
671.442	4.92
671.767	4.93
672.092	5.68
672.418	5.25
672.743	5.32
673.068	5.25
673.393	5.1
673.718	5.12
674.043	5.56
674.368	4.99
674.693	5.93
675.018	4.76
675.343	5.13
675.667	5.13
675.992	4.77
676.317	5.76
676.641	5.17
676.966	5.09
677.29	4.28
677.615	5.35
677.939	5.04
678.264	4.9
678.588	5.43
678.912	5.67
679.236	5.81
679.56	4.74
679.885	5.51
680.209	5.41
680.532	5.59
680.856	5.31
681.18	5.15
681.504	5.08
681.828	5.58
682.152	5.02
682.475	5.05
682.799	5.48
683.122	5.5
683.446	5.44
683.769	5.81
684.093	5.13
684.416	5.84
684.739	5.27
685.062	4.94
685.386	5.32
685.709	4.7
686.032	4.65
686.355	5.29
686.678	4.84
687.001	5.14
687.324	5.69
687.646	5.28
687.969	4.78
688.292	5.41
688.614	4.3
688.937	5.8
689.26	5.07
689.582	5.06
689.904	5.27
690.227	5.16
690.549	5.12
690.871	5.82
691.194	5.2
691.516	5.1
691.838	5.53
692.16	4.63
692.482	5.3
692.804	5.77
693.126	5.07
693.448	4.56
693.769	6.27
694.091	5.57
694.413	4.63
694.735	5.06
695.056	4.7
695.378	5.12
695.699	3.89
696.021	4.56
696.342	4.95
696.663	5.14
696.984	4.86
697.306	4
697.627	5.75
697.948	4.96
698.269	5.84
698.59	5.3
698.911	4.78
699.232	5.52
699.553	5.12
699.873	5.18
700.194	6.03
700.515	5.47
700.835	5.01
701.156	5.02
701.477	5.27
701.797	5.16
702.117	5.57
702.438	5.44
702.758	4.98
703.078	4.47
703.398	3.76
703.719	4.84
704.039	4.38
704.359	6.09
704.679	6.26
704.999	5.15
705.319	4.5
705.638	3.91
705.958	5.2
706.278	5.28
706.597	5.34
706.917	5.39
707.237	5.45
707.556	5.89
707.876	4.92
708.195	4.75
708.514	4.96
708.834	5.32
709.153	5.32
709.472	4.46
709.791	6.37
710.11	4.6
710.429	6.05
710.748	5.87
711.067	4.86
711.386	5
711.705	4.22
712.023	5.29
712.342	4.37
712.661	4.4
712.979	4.73
713.298	4.44
713.616	5.95
713.935	6.27
714.253	4.08
714.572	6.11
714.89	5.69
715.208	5.89
715.526	5.58
715.844	5.96
716.162	4.9
716.48	5.12
716.798	5.2
717.116	4.92
717.434	4.61
717.752	4.16
718.069	5.69
718.387	4.27
718.705	5.48
719.022	4.13
719.34	4.73
719.657	4.09
719.975	5.51
720.292	5.55
720.609	6.41
720.927	5.03
721.244	5.43
721.561	5.41
721.878	5.47
722.195	4.06
722.512	5.38
722.829	5.39
723.146	5.26
723.463	5.97
723.779	3.56
724.096	6.36
724.413	3.61
724.729	5.04
725.046	3.79
725.362	4.85
725.679	6.09
725.995	5.16
726.311	3.99
726.628	5.31
726.944	4.79
727.26	5.24
727.576	6.49
727.892	5.66
728.208	4.38
728.524	5.22
728.84	3.98
729.156	5.62
729.472	3.86
729.787	4.53
730.103	5.21
730.419	5.04
730.734	4.64
731.05	5.12
731.365	5.09
731.681	3.87
731.996	5.58
732.311	4.21
732.626	5.5
732.942	4.91
733.257	5.79
733.572	6.04
733.887	4.38
734.202	6.03
734.517	5.53
734.832	5.32
735.146	5.56
735.461	6.35
735.776	5.24
736.091	5.63
736.405	6.1
736.72	5.42
737.034	5.66
737.349	6.43
737.663	5.46
737.977	5.55
738.292	6.35
738.606	5.4
738.92	6.19
739.234	4.77
739.548	6.07
739.862	3.81
740.176	3.21
740.49	7.01
740.804	7.79
741.117	5.01
741.431	5.6
741.745	4.68
742.058	4.58
742.372	5.72
742.685	5.71
742.999	3.41
743.312	5.02
743.626	4.59
743.939	5.66
744.252	5.43
744.565	3.58
744.878	6.23
745.191	4.13
745.505	3.12
745.817	5.99
746.13	5.08
746.443	5.58
746.756	7.5
747.069	4.17
747.381	6.49
747.694	3.91
748.007	5.03
748.319	5.42
748.632	4.54
748.944	3.19
749.256	6.58
749.569	4.11
749.881	4.98
750.193	5.39
750.505	4.45
750.817	5.98
751.129	7.54
751.441	6.06
751.753	6.64
752.065	5.26
752.377	5.02
752.689	5.55
753	4.83
753.312	3.67
753.624	4.75
753.935	8.12
754.247	7.77
754.558	4.4
754.869	6.67
755.181	5.85
755.492	4.78
755.803	3.88
756.114	6.1
756.425	3.88
756.736	5.58
757.047	7.39
757.358	6.14
757.669	5.59
757.98	4.7
758.291	4.08
758.601	6.73
758.912	5.81
759.223	6.58
759.533	4.83
759.844	5.39
760.154	3.13
760.464	6.28
760.775	7.67
761.085	5.2
761.395	4.33
761.705	3.61
762.016	6.24
762.326	4.17
762.636	4.39
762.945	4.33
763.255	6.22
763.565	5.02
763.875	4.65
764.185	4.4
764.494	5.34
764.804	3.87
765.113	6
765.423	4.57
765.732	5.37
766.042	4.46
766.351	5.38
766.66	6.94
766.97	7.25
767.279	5.89
767.588	6.23
767.897	7.99
768.206	4.23
768.515	6.62
768.824	5.68
769.133	6.23
769.441	7.22
769.75	5.7
770.059	6.79
770.367	5.7
770.676	6.07
770.984	7.57
771.293	6.49
771.601	8.11
771.91	5.46
772.218	8.07
772.526	8.05
772.834	6.34
773.142	5.56
773.45	4.01
773.758	3.79
774.066	5.9
774.374	3.23
774.682	5.96
774.99	6.74
775.298	3.81
775.605	3.84
775.913	5.32
776.22	7.85
776.528	8.25
776.835	5.67
777.143	8.21
777.45	5.33
777.757	8.34
778.065	3.46
778.372	2.11
778.679	3.03
778.986	4.43
779.293	7.23
779.6	7.35
779.907	5.06
780.214	8.78
780.52	8.38
780.827	10.33
781.134	6.51
781.44	2.91
781.747	4.47
782.053	4.34
782.36	4.01
782.666	8.06
782.973	4.7
783.279	5.01
783.585	6.58
783.891	7.67
784.197	6.12
784.503	7.93
784.809	1.3
785.115	3.35
785.421	7.3
785.727	6.47
786.033	5.43
786.339	2.98
786.644	6.67
786.95	6.17
787.255	4.32
787.561	7.34
787.866	6.3
788.172	4.31
788.477	1.94
788.782	5.43
789.088	2.32
789.393	7.48
789.698	5.25
790.003	4.46
790.308	2.17
790.613	5.98
790.918	11.16
791.223	5.85
791.527	0.28
791.832	7.57
792.137	2.69
792.441	8.28
792.746	4.04
793.05	3.9
793.355	6.58
793.659	8.05
793.963	6.39
794.268	7.59
794.572	7.57
794.876	5
795.18	1.69
795.484	5.55
795.788	5.34
796.092	2.22
796.396	1.8
796.7	1.76
797.004	6.94
797.307	5.01
797.611	12.62
797.915	5.21
798.218	7.15
798.522	3.53
798.825	0.92
799.128	6.03
799.432	7.4
799.735	3
800.038	11.9
800.341	3.66
800.644	4.09
800.947	3.82
801.25	2.46
801.553	2.77
801.856	1.47
802.159	3.94
802.462	5.17
802.764	5.4
803.067	7
803.37	3.22
803.672	-3.3
803.975	6.65
804.277	4.69
804.579	2.37
804.882	4.66
805.184	3.86
805.486	2.3
805.788	9.49
806.09	13.56
806.392	-1.09
806.694	7.13
806.996	8.42
807.298	5.25
807.6	5.44
807.902	6.73
808.203	4.73
808.505	6.77
808.807	4.67
809.108	4.62
809.409	6.16
809.711	0.42
810.012	2.05
810.313	6.51
810.615	-0.38
810.916	6.13
811.217	2.79
811.518	9.5
811.819	8.98
812.12	7.97
812.421	2.18
812.722	6.16
813.023	9.68
813.323	6.8
813.624	2.48
813.925	14.6
814.225	2.56
814.526	10.37
814.826	8.1
815.126	1.15
815.427	-1.66
815.727	6.14
816.027	1.05
816.327	2.24
816.627	-2.96
816.927	10.09
817.227	-2.68
817.527	0.19
817.827	2.69
818.127	7.01
818.427	3
818.727	10.12
819.026	4.38
819.326	7.17
819.625	9.37
819.925	0.52
820.224	5.26
820.524	2.92
820.823	5.78
821.122	1.39
821.421	5.41
821.72	5.61
822.019	1.43
822.318	6.29
822.617	1.45
822.916	7.06
823.215	4.24
823.514	4.3
823.813	7.5
824.111	6.04
824.41	7.28
824.709	6.98
825.007	6.4
825.306	7.09
825.604	7.79
825.902	8.26
826.201	7.32
826.499	7
826.797	6.79
827.095	7.07
827.393	6.66
827.691	7.38
827.989	5.6
828.287	7.46
828.585	6.49
828.882	5
829.18	5.33
829.478	6.74
829.775	10.11
830.073	9.4
830.37	9.1
830.668	6.34
830.965	10.24
831.263	5.77
831.56	8.93
831.857	7.7
832.154	6.37
832.451	4.28
832.748	11.28
833.045	10.6
833.342	11.34
833.639	7.08
833.936	2.34
834.232	9.55
834.529	3.02
834.826	4.89
835.122	5.86
835.419	7.36
835.715	1.96
836.012	7.9
836.308	5.17
836.604	4.66
836.901	4.42
837.197	7.23
837.493	7.11
837.789	6.37
838.085	8.18
838.381	9.34
838.677	7.35
838.972	7.35
839.268	6.84
839.564	6.39
839.86	9.66
840.155	8.89
840.451	-1.98
840.746	4.91
841.042	4.3
841.337	7.26
841.632	1.01
841.928	12.25
842.223	1.72
842.518	-0.74
842.813	12.18
843.108	2.25
843.403	7.02
843.698	2.61
843.993	10.91
844.287	5.02
844.582	-4.15
844.877	13.51
845.171	14.02
845.466	-14.79
845.761	0.18
846.055	6.12
846.349	4.68
846.644	-8.21
846.938	-19.89
847.232	13.87
847.526	5.97
847.82	9.09
848.114	3.98
848.408	3.1
848.702	4.98
848.996	-31
849.29	-5.16
849.584	-8.14
849.877	-0.29
850.171	11.44
850.465	20.97
850.758	0.47
851.052	-6.63
851.345	2.5
851.638	5.97
851.932	-23.55
852.225	14.03
852.518	13.18
852.811	-16.8
853.104	-29.29
853.397	0.49
853.69	6.76
853.983	-27.1
854.276	22.13
854.569	14.73
854.861	-9.29
855.154	13.75
855.447	-3.21
855.739	18.66
856.032	1.21
856.324	18.86
856.616	4.05
856.909	-0.99
857.201	-2.02
857.493	-15.33
857.785	-31.99
858.077	15.9
858.369	12.53
858.661	21.25
858.953	-3.81
859.245	-36.01
859.537	18.46
859.829	-17.97
860.12	1.62
860.412	3.75
860.703	3.25
860.995	12.15
861.286	-1.1
861.578	7.49
861.869	-8.9
862.16	1.58
862.452	24.3
862.743	3.02
863.034	-17.27
863.325	-18.47
863.616	-9.55
863.907	-16.28
864.198	-3.16
864.488	0.86
864.779	4.6
865.07	7.39
865.36	-28.71
865.651	-5.04
865.941	-1.21
866.232	4.6
866.522	-56.63
866.813	-1.33
867.103	-12.71
867.393	0.93
867.683	-5.86
867.973	-41.08
868.263	-6.67
868.553	2.82
868.843	22.74
869.133	-53.36
869.423	-8.01
869.713	7.66
870.002	14.52
870.292	18.9
870.582	-1.02
870.871	-42.65
871.161	16.15
871.45	-16.28
871.739	-32.63
872.029	-35.21
872.318	14.28
872.607	27.22
872.896	-23.99
873.185	-17.09
873.474	-21.57
873.763	-13.03
874.052	-16.18
874.341	3.34
874.63	9.85
874.918	20.26
875.207	6.71
875.496	-11.19
875.784	-112.47
876.073	-54.18
876.361	-91.43
876.649	-18.13
876.938	-11.5
877.226	-14.39
877.514	-11.86
877.802	1.67
878.09	-8.28
878.378	11.37
878.666	-16.28
878.954	-10.68
879.242	-9.12
879.53	18.59
879.817	7.61
880.105	-8.15
880.392	26.37
880.68	11.44
880.967	-43.04
881.255	20.48
881.542	13.75
881.83	-37.35
882.117	9.42
882.404	-23.19
882.691	-22.18
882.978	1.95
883.265	-5.55
883.552	10.39
883.839	2.4
884.126	6.14
884.413	22.14
884.699	23.42
884.986	18.74
885.273	5.06
885.559	5.06
885.846	5.06
