Data from 0403_crown_Reflection__2__174.txt Node

Date: Tue Dec 12 19:49:33 CST 2023
User: ToomeyLab
Spectrometer: FLMS14357
Trigger mode: 0
Integration Time (sec): 1.000000E-2
Scans to average: 100
Electric dark correction enabled: true
Nonlinearity correction enabled: false
Boxcar width: 0
XAxis mode: Wavelengths
Number of Pixels in Spectrum: 2048
>>>>>Begin Spectral Data<<<<<
189.047	55.4
189.435	55.4
189.823	55.4
190.211	101.97
190.599	80.84
190.987	87.68
191.375	169.86
191.763	322.84
192.151	87.09
192.538	43.16
192.926	148.91
193.314	-29.19
193.702	27.29
194.089	-65.77
194.477	30.41
194.864	49.31
195.252	35.71
195.639	-322.57
196.027	337.41
196.414	125.43
196.801	-126.43
197.189	89.43
197.576	316.97
197.963	25.23
198.351	9.69
198.738	47.87
199.125	34.79
199.512	-62.48
199.899	-23.03
200.286	2.08
200.673	-25.46
201.06	-17.97
201.447	-39.34
201.833	-18.38
202.22	5.13
202.607	-218.31
202.994	11.46
203.38	10.44
203.767	-49.61
204.154	4.49
204.54	29.82
204.927	-35.33
205.313	2.89
205.699	-24.33
206.086	-22.66
206.472	27.28
206.858	10.73
207.245	-10.31
207.631	-8.24
208.017	15.16
208.403	-40.26
208.789	-8.82
209.175	-91.14
209.561	6.01
209.947	9.72
210.333	15.41
210.719	-4.73
211.105	-90.31
211.491	8.18
211.876	-23.87
212.262	-13.6
212.648	-7.35
213.034	-57.02
213.419	-31.96
213.805	-33.62
214.19	35.1
214.576	23.08
214.961	12.07
215.346	-10.91
215.732	17.36
216.117	-13.27
216.502	-24.11
216.888	-29.91
217.273	-31
217.658	-51.51
218.043	-31.08
218.428	-11.15
218.813	-9.3
219.198	-5.82
219.583	8.12
219.968	-4.38
220.353	-17.43
220.738	8.81
221.122	8.65
221.507	-29.21
221.892	-9.78
222.276	-14.78
222.661	-3.25
223.046	-9.95
223.43	2.12
223.815	-22.68
224.199	8.33
224.583	-10.88
224.968	9.27
225.352	-2.07
225.736	9.06
226.121	7.34
226.505	2.63
226.889	-8.15
227.273	-5.46
227.657	2.04
228.041	1.15
228.425	-7.33
228.809	-1.42
229.193	-1.07
229.577	1.55
229.961	0.27
230.344	2.71
230.728	3.55
231.112	3.04
231.495	2.67
231.879	3.14
232.263	1.18
232.646	-0.09
233.03	2.75
233.413	0.13
233.797	2.58
234.18	-0.68
234.563	1.95
234.946	0.3
235.33	3.73
235.713	3.14
236.096	1.63
236.479	1.75
236.862	3.2
237.245	2.47
237.628	1.24
238.011	1.75
238.394	2.38
238.777	2.39
239.16	1.68
239.543	1.4
239.925	1.96
240.308	1.8
240.691	4.07
241.073	2.56
241.456	1.49
241.838	0.78
242.221	3.02
242.603	3.45
242.986	0.94
243.368	2.02
243.75	2.48
244.133	2
244.515	2.38
244.897	2.26
245.279	2.91
245.661	1.18
246.043	0.69
246.425	2.55
246.807	1.56
247.189	2.27
247.571	1.95
247.953	2.15
248.335	2.29
248.717	2.1
249.098	2.11
249.48	1.97
249.862	1.74
250.243	2.2
250.625	2.1
251.006	2.08
251.388	2.64
251.769	1.05
252.151	0.77
252.532	2.12
252.913	2.08
253.295	2.38
253.676	1.21
254.057	1.53
254.438	2.29
254.819	1.9
255.2	1.23
255.581	2.42
255.962	0.16
256.343	1.77
256.724	3.04
257.105	3.27
257.486	0.94
257.867	1.45
258.247	1.09
258.628	1.52
259.009	0.64
259.389	1.58
259.77	1.59
260.15	1.99
260.531	2.23
260.911	2.06
261.292	1.74
261.672	1.72
262.052	1.86
262.432	1.9
262.813	1.87
263.193	1.6
263.573	1.86
263.953	3.57
264.333	2.08
264.713	1.54
265.093	1.56
265.473	2.43
265.853	1.61
266.233	0.84
266.612	1
266.992	1.63
267.372	2.39
267.752	2.67
268.131	1.43
268.511	1.58
268.89	0.69
269.27	0.84
269.649	1.84
270.029	1.45
270.408	1.59
270.787	1.54
271.167	1.67
271.546	2.32
271.925	1.85
272.304	1.88
272.683	1.04
273.062	1.73
273.441	1.87
273.82	1.2
274.199	1.68
274.578	1.43
274.957	1.5
275.336	2.19
275.715	2.09
276.093	1.23
276.472	2.02
276.851	2.05
277.229	1.09
277.608	1.89
277.986	1.14
278.365	1.65
278.743	1.49
279.122	2
279.5	0.81
279.878	0.81
280.257	1.53
280.635	1.62
281.013	1.75
281.391	2.09
281.769	1.6
282.147	1.71
282.525	1.14
282.903	1.41
283.281	1.44
283.659	1.68
284.037	1.85
284.415	1.41
284.792	2.06
285.17	1.49
285.548	1.71
285.925	1.85
286.303	1.66
286.68	1.44
287.058	1.71
287.435	1.48
287.813	1.32
288.19	1.72
288.567	1.73
288.945	2.05
289.322	1.77
289.699	1.57
290.076	1.48
290.453	2.21
290.83	1.83
291.207	2.03
291.584	1.64
291.961	1.78
292.338	1.55
292.715	1.52
293.092	1.69
293.469	1.72
293.845	1.93
294.222	1.75
294.599	1.61
294.975	1.64
295.352	2.11
295.728	1.66
296.105	1.59
296.481	2.19
296.858	1.37
297.234	2.07
297.61	1.83
297.986	2.08
298.363	1.62
298.739	1.79
299.115	1.47
299.491	1.84
299.867	1.76
300.243	1.38
300.619	1.61
300.995	2.03
301.371	1.77
301.746	1.94
302.122	2.56
302.498	1.69
302.874	1.9
303.249	1.93
303.625	1.27
304	1.92
304.376	1.66
304.751	1.7
305.127	1.59
305.502	1.76
305.878	1.86
306.253	1.91
306.628	1.6
307.003	1.15
307.378	1.86
307.754	1.55
308.129	1.61
308.504	2.57
308.879	1.18
309.254	1.9
309.629	1.39
310.003	1.33
310.378	2.04
310.753	2.08
311.128	1.91
311.502	1.25
311.877	1.57
312.252	1.23
312.626	1.84
313.001	1.26
313.375	1.6
313.75	1.83
314.124	1.84
314.498	1.95
314.873	1.75
315.247	1.66
315.621	1.53
315.995	2.01
316.369	1.66
316.743	1.69
317.117	1.13
317.491	1.57
317.865	1.68
318.239	1.57
318.613	1.82
318.987	2.1
319.361	1.43
319.734	1.9
320.108	1.46
320.482	1.79
320.855	1.2
321.229	2.08
321.602	2.47
321.976	1.84
322.349	1.81
322.723	1.63
323.096	1.79
323.469	1.15
323.843	2.49
324.216	2.59
324.589	2.14
324.962	1.73
325.335	2.14
325.708	2.17
326.081	1.76
326.454	1.53
326.827	2.43
327.2	1.75
327.573	1.65
327.945	1.8
328.318	2
328.691	1.52
329.063	2.05
329.436	1.62
329.809	1.36
330.181	1.66
330.553	1.36
330.926	2.34
331.298	1.66
331.671	1.55
332.043	1.36
332.415	2.23
332.787	1.64
333.159	1.7
333.532	1.42
333.904	1.78
334.276	2.39
334.648	1.64
335.02	0.93
335.391	1.38
335.763	1.58
336.135	1.74
336.507	2.01
336.879	1.44
337.25	1.62
337.622	1.6
337.993	2.02
338.365	1.13
338.736	1.98
339.108	1.68
339.479	2.24
339.851	1.4
340.222	0.96
340.593	1.81
340.964	1.76
341.336	1.74
341.707	1.39
342.078	0.67
342.449	1.58
342.82	2.3
343.191	2.12
343.562	1.68
343.933	2.16
344.303	1.78
344.674	2.31
345.045	1.87
345.416	1.78
345.786	1.75
346.157	1.76
346.527	2.1
346.898	1.45
347.268	1.68
347.639	2.21
348.009	1.79
348.38	1.44
348.75	1.98
349.12	1.79
349.49	1.55
349.861	1.9
350.231	1.21
350.601	1.97
350.971	1.82
351.341	1.86
351.711	2.16
352.081	1.82
352.45	1.78
352.82	1.65
353.19	2
353.56	1.33
353.929	1.52
354.299	1.64
354.669	1.84
355.038	0.84
355.408	1.89
355.777	1.75
356.147	1.61
356.516	1.88
356.885	1.44
357.254	1.79
357.624	1.56
357.993	1.76
358.362	1.75
358.731	1.9
359.1	1.54
359.469	1.97
359.838	1.78
360.207	1.79
360.576	2.14
360.945	1.31
361.314	1.83
361.682	1.58
362.051	1.86
362.42	1.92
362.788	1.77
363.157	2.12
363.525	1.86
363.894	1.55
364.262	2.02
364.631	1.7
364.999	1.89
365.367	1.91
365.735	1.76
366.104	1.81
366.472	1.71
366.84	2.03
367.208	1.97
367.576	1.66
367.944	1.91
368.312	1.62
368.68	1.69
369.048	2.05
369.416	1.93
369.783	2.06
370.151	1.8
370.519	1.7
370.886	1.85
371.254	1.6
371.621	1.92
371.989	1.4
372.356	1.68
372.724	1.65
373.091	1.67
373.458	1.84
373.826	1.85
374.193	1.75
374.56	2.09
374.927	1.99
375.294	2.28
375.661	2.05
376.028	2.13
376.395	1.86
376.762	1.97
377.129	1.88
377.496	1.66
377.863	1.93
378.229	1.78
378.596	1.52
378.963	2.25
379.329	1.65
379.696	1.86
380.062	2.31
380.429	1.87
380.795	2.08
381.161	1.91
381.528	1.68
381.894	2.29
382.26	1.77
382.626	1.53
382.993	1.99
383.359	1.63
383.725	1.82
384.091	1.91
384.457	2.12
384.823	2.12
385.188	1.94
385.554	1.89
385.92	2
386.286	2.03
386.651	1.96
387.017	2.14
387.383	1.91
387.748	1.83
388.114	2.06
388.479	1.94
388.845	1.88
389.21	1.9
389.575	1.76
389.94	1.95
390.306	2.05
390.671	1.89
391.036	2.05
391.401	1.9
391.766	1.86
392.131	2.11
392.496	1.89
392.861	1.79
393.226	1.99
393.591	1.85
393.956	1.81
394.32	1.94
394.685	2.15
395.05	2.1
395.414	1.92
395.779	1.98
396.143	2.11
396.508	1.88
396.872	1.94
397.236	1.95
397.601	1.81
397.965	1.92
398.329	1.75
398.694	1.87
399.058	2.14
399.422	1.81
399.786	1.88
400.15	1.82
400.514	2.05
400.878	1.92
401.242	2.11
401.605	1.98
401.969	1.93
402.333	2.13
402.697	1.84
403.06	1.81
403.424	2.04
403.787	1.95
404.151	2.06
404.514	1.76
404.878	1.87
405.241	2.21
405.604	1.81
405.968	2.01
406.331	2.1
406.694	2.24
407.057	1.91
407.42	2.11
407.783	1.79
408.146	1.93
408.509	2.1
408.872	1.92
409.235	1.99
409.598	2.13
409.961	1.89
410.323	2.02
410.686	2.12
411.049	2.11
411.411	2.1
411.774	1.85
412.136	2.13
412.499	1.97
412.861	1.97
413.223	2.41
413.586	1.88
413.948	1.99
414.31	2.35
414.672	2.11
415.035	1.96
415.397	1.98
415.759	1.98
416.121	2.29
416.483	2.07
416.845	1.93
417.206	2.26
417.568	2.03
417.93	2.29
418.292	1.93
418.653	1.98
419.015	1.99
419.377	2.1
419.738	2.04
420.1	1.97
420.461	2.08
420.822	2.05
421.184	2.09
421.545	2.18
421.906	2.07
422.267	2.13
422.629	2.16
422.99	2.06
423.351	2
423.712	2.04
424.073	2.09
424.434	2.04
424.795	2.16
425.155	2.02
425.516	1.86
425.877	2.06
426.238	2.02
426.598	1.96
426.959	2.08
427.32	2.05
427.68	2.04
428.041	2.17
428.401	2.03
428.761	2.02
429.122	2.14
429.482	2.29
429.842	2.07
430.202	1.88
430.563	2
430.923	2.03
431.283	1.95
431.643	2.32
432.003	2.06
432.363	2.1
432.722	1.96
433.082	2.17
433.442	2.13
433.802	2.18
434.161	2.22
434.521	2.04
434.881	2.14
435.24	2.08
435.6	2.02
435.959	2.08
436.319	2.15
436.678	2.39
437.037	2.08
437.396	2.11
437.756	1.97
438.115	2.32
438.474	1.96
438.833	2.24
439.192	2.29
439.551	2.18
439.91	1.95
440.269	2.21
440.628	2.11
440.987	1.96
441.345	2.22
441.704	2.11
442.063	2.15
442.421	2.17
442.78	2.03
443.138	2.07
443.497	2.21
443.855	2.18
444.214	2.26
444.572	2.3
444.93	2.19
445.288	2.02
445.647	2.21
446.005	2.02
446.363	2
446.721	1.99
447.079	2.1
447.437	1.9
447.795	2.18
448.153	2.16
448.51	2.09
448.868	2.13
449.226	2.28
449.584	2.2
449.941	2.02
450.299	2.2
450.656	2.1
451.014	2.24
451.371	2.14
451.729	2.21
452.086	2.03
452.443	2.35
452.801	2.05
453.158	2.06
453.515	2.18
453.872	2.22
454.229	2.19
454.586	2.02
454.943	2.1
455.3	2.26
455.657	2.2
456.014	2.26
456.371	2.29
456.727	2.14
457.084	2.25
457.441	2.22
457.797	2.18
458.154	2.13
458.51	2.13
458.867	2.3
459.223	2.26
459.58	2.2
459.936	1.86
460.292	2.09
460.648	2.15
461.005	2.15
461.361	2.1
461.717	2.15
462.073	2.12
462.429	2.24
462.785	2.22
463.141	2.24
463.496	2.1
463.852	2.4
464.208	2.14
464.564	2.22
464.919	2.48
465.275	2.22
465.631	2.48
465.986	2.08
466.342	2.1
466.697	2.22
467.052	2.44
467.408	2.34
467.763	2.27
468.118	2.29
468.473	2.32
468.829	2.17
469.184	2.11
469.539	2.24
469.894	2.39
470.249	2.29
470.603	2.28
470.958	2.28
471.313	2.39
471.668	2.39
472.023	2.17
472.377	2.14
472.732	2.32
473.086	2.2
473.441	2.35
473.795	2.16
474.15	2.22
474.504	2.14
474.859	2.25
475.213	2.21
475.567	2.25
475.921	2.37
476.275	2.17
476.63	2.21
476.984	2.33
477.338	2.24
477.692	2.3
478.045	2.34
478.399	2.22
478.753	2.19
479.107	2.28
479.461	2.3
479.814	2.37
480.168	2.17
480.521	2.05
480.875	2.36
481.228	2.31
481.582	2.16
481.935	2.29
482.289	2.35
482.642	2.25
482.995	2.3
483.348	2.17
483.701	2.43
484.055	2.2
484.408	2.2
484.761	2.21
485.114	2.14
485.466	2.1
485.819	2.09
486.172	2.11
486.525	2.19
486.878	2.25
487.23	2.19
487.583	2.16
487.936	2.25
488.288	2.13
488.641	2.25
488.993	2.17
489.345	2.19
489.698	2.22
490.05	2.2
490.402	2.25
490.754	2.21
491.107	2.2
491.459	2.23
491.811	2.28
492.163	2.19
492.515	2.25
492.866	2.22
493.218	2.19
493.57	2.23
493.922	2.18
494.274	2.22
494.625	2.34
494.977	2.37
495.328	2.33
495.68	2.26
496.031	2.41
496.383	2.3
496.734	2.41
497.086	2.27
497.437	2.3
497.788	2.25
498.139	2.32
498.49	2.45
498.842	2.33
499.193	2.33
499.544	2.38
499.894	2.24
500.245	2.36
500.596	2.35
500.947	2.33
501.298	2.43
501.648	2.4
501.999	2.42
502.35	2.26
502.7	2.31
503.051	2.32
503.401	2.31
503.752	2.5
504.102	2.18
504.452	2.29
504.803	2.4
505.153	2.34
505.503	2.4
505.853	2.45
506.203	2.36
506.553	2.32
506.903	2.34
507.253	2.29
507.603	2.33
507.953	2.26
508.303	2.44
508.652	2.33
509.002	2.28
509.352	2.38
509.701	2.45
510.051	2.41
510.4	2.3
510.75	2.27
511.099	2.24
511.449	2.4
511.798	2.24
512.147	2.37
512.496	2.5
512.846	2.38
513.195	2.24
513.544	2.52
513.893	2.32
514.242	2.2
514.591	2.35
514.939	2.42
515.288	2.29
515.637	2.26
515.986	2.3
516.334	2.35
516.683	2.37
517.032	2.36
517.38	2.34
517.729	2.45
518.077	2.27
518.426	2.47
518.774	2.43
519.122	2.41
519.47	2.39
519.819	2.34
520.167	2.29
520.515	2.2
520.863	2.28
521.211	2.34
521.559	2.37
521.907	2.4
522.255	2.45
522.602	2.4
522.95	2.5
523.298	2.41
523.645	2.46
523.993	2.48
524.341	2.36
524.688	2.43
525.036	2.33
525.383	2.28
525.73	2.36
526.078	2.44
526.425	2.32
526.772	2.34
527.119	2.33
527.466	2.33
527.814	2.26
528.161	2.38
528.508	2.35
528.854	2.32
529.201	2.34
529.548	2.35
529.895	2.24
530.242	2.22
530.588	2.24
530.935	2.27
531.282	2.31
531.628	2.34
531.975	2.28
532.321	2.3
532.667	2.29
533.014	2.32
533.36	2.36
533.706	2.28
534.052	2.3
534.399	2.35
534.745	2.28
535.091	2.26
535.437	2.37
535.783	2.26
536.129	2.37
536.474	2.34
536.82	2.42
537.166	2.5
537.512	2.51
537.857	2.48
538.203	2.33
538.549	2.37
538.894	2.42
539.239	2.36
539.585	2.46
539.93	2.45
540.276	2.49
540.621	2.4
540.966	2.31
541.311	2.37
541.656	2.42
542.001	2.34
542.346	2.27
542.691	2.28
543.036	2.28
543.381	2.21
543.726	2.32
544.071	2.36
544.415	2.34
544.76	2.35
545.105	2.39
545.449	2.4
545.794	2.39
546.138	2.32
546.483	2.37
546.827	2.43
547.171	2.45
547.516	2.46
547.86	2.42
548.204	2.34
548.548	2.46
548.892	2.39
549.236	2.4
549.58	2.5
549.924	2.45
550.268	2.39
550.612	2.38
550.956	2.59
551.3	2.44
551.643	2.65
551.987	2.5
552.33	2.39
552.674	2.55
553.017	2.42
553.361	2.61
553.704	2.37
554.048	2.5
554.391	2.39
554.734	2.55
555.077	2.44
555.42	2.35
555.764	2.45
556.107	2.49
556.45	2.36
556.793	2.44
557.135	2.37
557.478	2.44
557.821	2.45
558.164	2.72
558.507	2.58
558.849	2.46
559.192	2.51
559.534	2.48
559.877	2.26
560.219	2.72
560.562	2.6
560.904	2.54
561.246	2.45
561.589	2.51
561.931	2.47
562.273	2.29
562.615	2.53
562.957	2.56
563.299	2.57
563.641	2.79
563.983	2.49
564.325	2.57
564.667	2.4
565.008	2.39
565.35	2.47
565.692	2.46
566.033	2.53
566.375	2.54
566.716	2.62
567.058	2.52
567.399	2.45
567.741	2.55
568.082	2.42
568.423	2.35
568.764	2.49
569.105	2.47
569.447	2.49
569.788	2.44
570.129	2.43
570.47	2.43
570.811	2.48
571.151	2.56
571.492	2.48
571.833	2.52
572.174	2.43
572.514	2.61
572.855	2.45
573.195	2.54
573.536	2.23
573.876	2.4
574.217	2.62
574.557	2.5
574.898	2.43
575.238	2.58
575.578	2.53
575.918	2.41
576.258	2.55
576.598	2.36
576.938	2.54
577.278	2.53
577.618	2.51
577.958	2.35
578.298	2.78
578.638	2.52
578.977	2.37
579.317	2.51
579.657	2.52
579.996	2.75
580.336	2.62
580.675	2.45
581.014	2.47
581.354	2.33
581.693	2.47
582.032	2.33
582.372	2.73
582.711	2.52
583.05	2.66
583.389	2.49
583.728	2.52
584.067	2.58
584.406	2.67
584.745	2.63
585.083	2.39
585.422	2.76
585.761	2.85
586.1	2.65
586.438	2.65
586.777	2.63
587.115	2.59
587.454	2.53
587.792	2.36
588.13	3.02
588.469	2.59
588.807	2.32
589.145	2.61
589.483	2.53
589.821	2.77
590.159	2.56
590.497	2.58
590.835	2.53
591.173	2.48
591.511	2.55
591.849	2.4
592.187	2.59
592.524	2.4
592.862	2.33
593.2	2.41
593.537	2.06
593.875	2.56
594.212	2.53
594.55	2.58
594.887	2.89
595.224	2.42
595.561	2.8
595.899	2.56
596.236	2.51
596.573	2.74
596.91	2.67
597.247	2.67
597.584	2.66
597.921	2.45
598.258	2.56
598.594	2.67
598.931	2.6
599.268	2.46
599.604	2.53
599.941	2.66
600.277	2.5
600.614	2.75
600.95	2.61
601.287	2.57
601.623	2.69
601.959	2.67
602.296	2.73
602.632	2.55
602.968	2.82
603.304	2.22
603.64	2.44
603.976	2.64
604.312	2.62
604.648	2.57
604.984	2.5
605.319	2.49
605.655	2.51
605.991	2.59
606.326	2.44
606.662	2.6
606.998	2.62
607.333	2.62
607.668	2.5
608.004	2.79
608.339	2.9
608.674	2.79
609.01	2.47
609.345	2.75
609.68	2.66
610.015	2.39
610.35	2.73
610.685	2.67
611.02	2.8
611.355	2.65
611.689	2.49
612.024	2.47
612.359	2.65
612.694	2.54
613.028	2.74
613.363	2.69
613.697	2.73
614.032	2.76
614.366	2.99
614.7	2.59
615.035	2.56
615.369	2.52
615.703	2.72
616.037	2.56
616.371	2.88
616.705	2.54
617.039	2.61
617.373	2.54
617.707	2.33
618.041	2.82
618.375	2.67
618.709	2.47
619.042	2.05
619.376	2.45
619.71	2.52
620.043	2.33
620.377	2.69
620.71	2.33
621.043	2.52
621.377	2.4
621.71	2.55
622.043	2.83
622.376	2.84
622.709	2.99
623.043	2.27
623.376	2.6
623.709	2.42
624.041	2.79
624.374	2.89
624.707	2.56
625.04	2.52
625.373	2.83
625.705	2.6
626.038	2.28
626.37	2.68
626.703	2.68
627.035	2.5
627.368	2.68
627.7	2.47
628.032	2.38
628.365	2.78
628.697	2.61
629.029	2.54
629.361	2.64
629.693	2.58
630.025	2.39
630.357	2.95
630.689	2.49
631.021	2.83
631.353	2.81
631.684	2.66
632.016	2.61
632.348	2.64
632.679	2.45
633.011	3.04
633.342	2.82
633.674	2.66
634.005	2.6
634.336	2.63
634.668	2.63
634.999	2.88
635.33	2.84
635.661	2.68
635.992	2.82
636.323	2.51
636.654	2.83
636.985	2.75
637.316	2.77
637.647	2.7
637.977	2.92
638.308	2.87
638.639	2.66
638.969	2.6
639.3	2.46
639.63	3.1
639.961	2.53
640.291	2.18
640.622	2.69
640.952	2.79
641.282	2.5
641.612	2.91
641.943	2.6
642.273	3.07
642.603	2.79
642.933	2.96
643.263	2.22
643.592	2.62
643.922	2.91
644.252	2.84
644.582	2.23
644.911	2.68
645.241	2.26
645.571	3.12
645.9	2.53
646.23	2.8
646.559	3.01
646.888	2.64
647.218	2.84
647.547	2.21
647.876	2.62
648.205	2.82
648.534	2.66
648.863	3.14
649.192	2.94
649.521	2.96
649.85	2.49
650.179	2.58
650.508	3.15
650.837	2.51
651.165	2.53
651.494	2.53
651.822	2.89
652.151	2.66
652.479	2.61
652.808	2.78
653.136	2.27
653.465	2.82
653.793	2.58
654.121	2.56
654.449	2.87
654.777	3.13
655.105	3.01
655.433	2.62
655.761	2.52
656.089	2.26
656.417	3.06
656.745	2.88
657.073	2.31
657.4	2.91
657.728	2.26
658.056	2.81
658.383	2.66
658.711	2.56
659.038	2.91
659.365	3.06
659.693	2.47
660.02	2.11
660.347	2.79
660.674	2.96
661.001	2.8
661.329	2.71
661.656	2.63
661.982	2.73
662.309	3.14
662.636	2.95
662.963	3.09
663.29	3.18
663.616	2.35
663.943	2.82
664.27	2.96
664.596	2.88
664.923	3.07
665.249	2.2
665.576	2.61
665.902	3.09
666.228	3.1
666.554	2.67
666.881	2.31
667.207	2.5
667.533	3.44
667.859	2.64
668.185	2.87
668.511	2.96
668.837	2.37
669.162	3.35
669.488	2.36
669.814	2.73
670.139	2.76
670.465	2.18
670.791	2.68
671.116	2.84
671.442	2.94
671.767	2.9
672.092	3.17
672.418	2.75
672.743	2.75
673.068	2.38
673.393	2.99
673.718	3.56
674.043	3.21
674.368	1.85
674.693	2.98
675.018	2.22
675.343	2.57
675.667	2.75
675.992	2.63
676.317	2.94
676.641	2.55
676.966	3.03
677.29	2.58
677.615	2.54
677.939	2.53
678.264	2.68
678.588	3.01
678.912	3.51
679.236	2.52
679.56	3.02
679.885	4.06
680.209	3.16
680.532	3.06
680.856	2.7
681.18	3.17
681.504	2.76
681.828	2.49
682.152	2.45
682.475	2.81
682.799	3.02
683.122	3.04
683.446	2.9
683.769	3.84
684.093	2.69
684.416	2.5
684.739	3.39
685.062	2.91
685.386	2.8
685.709	3.43
686.032	2.03
686.355	2.35
686.678	2.91
687.001	2.74
687.324	2.22
687.646	3.38
687.969	2.26
688.292	3.12
688.614	3.11
688.937	3.32
689.26	2.78
689.582	3
689.904	2.32
690.227	2.95
690.549	3.16
690.871	3.24
691.194	3.18
691.516	2.87
691.838	3.5
692.16	2.78
692.482	2.69
692.804	2.85
693.126	2.92
693.448	3.4
693.769	2.61
694.091	3.79
694.413	3.19
694.735	2.5
695.056	2.25
695.378	2.93
695.699	3.42
696.021	1.59
696.342	3.11
696.663	2.63
696.984	2.21
697.306	2.75
697.627	2.58
697.948	2.34
698.269	2.69
698.59	3.94
698.911	2.6
699.232	2.47
699.553	2.86
699.873	4.5
700.194	3.15
700.515	3.25
700.835	2.96
701.156	2.93
701.477	3.2
701.797	2.99
702.117	2.59
702.438	3.65
702.758	2.38
703.078	3.6
703.398	3.15
703.719	2.89
704.039	2.99
704.359	3.14
704.679	3.84
704.999	3.36
705.319	2.01
705.638	3.64
705.958	2.77
706.278	3.78
706.597	3.65
706.917	2.45
707.237	3.05
707.556	2.66
707.876	3.23
708.195	3.57
708.514	2.6
708.834	3.87
709.153	2.75
709.472	3.19
709.791	3.3
710.11	3.18
710.429	2.63
710.748	2.5
711.067	3.94
711.386	2.25
711.705	3.9
712.023	3.51
712.342	3.14
712.661	3.29
712.979	3.36
713.298	2.89
713.616	3.1
713.935	3.54
714.253	2.06
714.572	2.39
714.89	3.05
715.208	3.06
715.526	3.08
715.844	3.41
716.162	2.49
716.48	3.2
716.798	2.95
717.116	3.49
717.434	3.08
717.752	3.04
718.069	3.55
718.387	3.66
718.705	3.46
719.022	4.18
719.34	2.62
719.657	4.35
719.975	3.72
720.292	3.39
720.609	3.9
720.927	2.58
721.244	2.09
721.561	3.25
721.878	2.66
722.195	2.04
722.512	2.9
722.829	3.43
723.146	1.55
723.463	3.2
723.779	3.27
724.096	4.19
724.413	1.86
724.729	2.54
725.046	2.17
725.362	2.6
725.679	2.65
725.995	4.21
726.311	3.07
726.628	2.54
726.944	2.75
727.26	1.93
727.576	1.44
727.892	3.75
728.208	2.15
728.524	2.59
728.84	2.35
729.156	4.33
729.472	5.24
729.787	2.18
730.103	3.91
730.419	1.44
730.734	2.73
731.05	3.52
731.365	3.91
731.681	4.15
731.996	2.91
732.311	3.55
732.626	4.44
732.942	2.44
733.257	3.27
733.572	3.51
733.887	3.47
734.202	2.6
734.517	1.44
734.832	3.95
735.146	4.27
735.461	3.13
735.776	2.66
736.091	1.4
736.405	3.28
736.72	1.77
737.034	2.01
737.349	2.37
737.663	3.22
737.977	3.29
738.292	2.88
738.606	1.45
738.92	2.94
739.234	3.59
739.548	3.49
739.862	3.51
740.176	1.76
740.49	2.8
740.804	3.46
741.117	2.12
741.431	2.93
741.745	4.2
742.058	3.38
742.372	4
742.685	3.96
742.999	3.52
743.312	3.1
743.626	3.59
743.939	4.39
744.252	5
744.565	2.97
744.878	2.66
745.191	2.84
745.505	4.01
745.817	4.36
746.13	3.57
746.443	1.94
746.756	3.91
747.069	2.23
747.381	1.76
747.694	1.5
748.007	2.79
748.319	3.95
748.632	4.41
748.944	2.74
749.256	5.6
749.569	3.87
749.881	4.95
750.193	3.14
750.505	2.74
750.817	3.23
751.129	2.96
751.441	5.2
751.753	5.7
752.065	1.72
752.377	4.65
752.689	4.18
753	1.27
753.312	1.92
753.624	4.2
753.935	3.39
754.247	2.82
754.558	2.17
754.869	2.31
755.181	3.81
755.492	4.09
755.803	3.17
756.114	3.04
756.425	4.38
756.736	4.26
757.047	2.38
757.358	2.19
757.669	4.31
757.98	3.21
758.291	3.54
758.601	4.38
758.912	3.73
759.223	2.52
759.533	2.16
759.844	3.19
760.154	5.28
760.464	2.39
760.775	4.53
761.085	1.9
761.395	4
761.705	2.73
762.016	5.01
762.326	3.5
762.636	4.92
762.945	2.43
763.255	3.08
763.565	3.42
763.875	4.48
764.185	3.39
764.494	3.96
764.804	1.87
765.113	5.06
765.423	4.07
765.732	2.74
766.042	4.52
766.351	3.95
766.66	3.06
766.97	3.82
767.279	2.87
767.588	2.9
767.897	4.48
768.206	4.03
768.515	5.16
768.824	4.65
769.133	3.22
769.441	4.46
769.75	1.69
770.059	3.58
770.367	0.23
770.676	3.4
770.984	2.56
771.293	3.39
771.601	4.41
771.91	2.81
772.218	6.95
772.526	-0.94
772.834	3.53
773.142	3
773.45	1.15
773.758	2.66
774.066	4.6
774.374	0.3
774.682	5.46
774.99	-1.45
775.298	2.06
775.605	2.82
775.913	7.26
776.22	4.71
776.528	3.11
776.835	2.56
777.143	6.02
777.45	1.97
777.757	0.51
778.065	0.85
778.372	4.35
778.679	0.11
778.986	1.55
779.293	4.02
779.6	3.26
779.907	2.38
780.214	5.56
780.52	2.09
780.827	3.11
781.134	1.42
781.44	5.43
781.747	1.91
782.053	5.08
782.36	0.83
782.666	3.4
782.973	1.23
783.279	2.75
783.585	-0.35
783.891	6.45
784.197	4.5
784.503	4
784.809	0.13
785.115	5.02
785.421	3.79
785.727	1.92
786.033	0.74
786.339	3.26
786.644	0.49
786.95	5.49
787.255	3.43
787.561	2.43
787.866	4.87
788.172	1.52
788.477	-0.93
788.782	2.9
789.088	3.75
789.393	4
789.698	3.08
790.003	8.46
790.308	2.87
790.613	0.55
790.918	1.85
791.223	6.32
791.527	3.97
791.832	4.43
792.137	-1.26
792.441	2.36
792.746	2.67
793.05	6.81
793.355	5.24
793.659	3.45
793.963	4.65
794.268	-0.16
794.572	0.7
794.876	-1.05
795.18	4.98
795.484	0.48
795.788	2.76
796.092	-4.81
796.396	1.1
796.7	-3.85
797.004	3.31
797.307	0.31
797.611	-0.31
797.915	2.96
798.218	0.52
798.522	-2.76
798.825	6.35
799.128	4.08
799.432	4.01
799.735	4.78
800.038	7.92
800.341	7.9
800.644	1.94
800.947	5.73
801.25	2.47
801.553	-1.27
801.856	4.7
802.159	7.61
802.462	7.9
802.764	1.66
803.067	7.48
803.37	3.26
803.672	5.4
803.975	1.17
804.277	5.93
804.579	-1.31
804.882	0.37
805.184	3.84
805.486	-0.65
805.788	0.1
806.09	6.92
806.392	2.3
806.694	4.4
806.996	-8.09
807.298	0.5
807.6	7.44
807.902	4.29
808.203	8.31
808.505	7.28
808.807	4.68
809.108	-0.58
809.409	-1.93
809.711	-5.33
810.012	-1.35
810.313	3.12
810.615	2.72
810.916	-2.8
811.217	4.75
811.518	-4
811.819	4.49
812.12	2.17
812.421	0.23
812.722	7.69
813.023	1.08
813.323	2.61
813.624	3.33
813.925	3.72
814.225	1.21
814.526	4.26
814.826	9.12
815.126	-4.62
815.427	1.46
815.727	-8.79
816.027	1.61
816.327	0.67
816.627	9.09
816.927	7.74
817.227	3.53
817.527	3.92
817.827	-0.09
818.127	4.96
818.427	-4.67
818.727	-9.38
819.026	0.9
819.326	-1.71
819.625	-3.9
819.925	5.5
820.224	-0.92
820.524	-5.65
820.823	4.72
821.122	-0.31
821.421	0.69
821.72	2.44
822.019	-4.64
822.318	-2.21
822.617	4.44
822.916	-1.78
823.215	4.98
823.514	3.92
823.813	4.92
824.111	4.54
824.41	4.98
824.709	6.6
825.007	5.09
825.306	4.51
825.604	3.88
825.902	4.57
826.201	4.1
826.499	4.32
826.797	7.09
827.095	4.02
827.393	5.44
827.691	5.09
827.989	3.35
828.287	4.21
828.585	6.33
828.882	7.05
829.18	9.37
829.478	5.78
829.775	4.96
830.073	4.84
830.37	5.91
830.668	3.89
830.965	8.38
831.263	5.75
831.56	5.41
831.857	1.5
832.154	3.21
832.451	-0.96
832.748	7.65
833.045	5.58
833.342	2.07
833.639	6.83
833.936	0.18
834.232	8.62
834.529	5.67
834.826	9.08
835.122	7.33
835.419	8.15
835.715	7.32
836.012	4.81
836.308	-1.7
836.604	6.87
836.901	3.21
837.197	7.49
837.493	5.4
837.789	4.95
838.085	7.22
838.381	3.46
838.677	2
838.972	7.81
839.268	-3.83
839.564	7.18
839.86	6.98
840.155	-3.59
840.451	0.42
840.746	10.34
841.042	-1.88
841.337	0.43
841.632	7.87
841.928	1.11
842.223	6.15
842.518	3.75
842.813	13.31
843.108	-4.54
843.403	-0.79
843.698	-0.76
843.993	1.59
844.287	-4.07
844.582	0.72
844.877	5.41
845.171	0.59
845.466	-8.94
845.761	-5.99
846.055	-5.96
846.349	9.38
846.644	0.19
846.938	-18.65
847.232	-14.73
847.526	8.62
847.82	8.69
848.114	15.19
848.408	-13.65
848.702	18.8
848.996	20.65
849.29	-18.56
849.584	-7.98
849.877	3.05
850.171	-6.94
850.465	4.79
850.758	-1.13
851.052	-19.92
851.345	5.46
851.638	1.43
851.932	0.55
852.225	-24.78
852.518	3.53
852.811	28.53
853.104	-8.23
853.397	0.47
853.69	-8.75
853.983	-1.99
854.276	4.35
854.569	9.41
854.861	-10.31
855.154	4.28
855.447	10.15
855.739	26.98
856.032	10.92
856.324	7.86
856.616	1.46
856.909	-5.14
857.201	17.83
857.493	-50.9
857.785	4.12
858.077	-23.36
858.369	4.38
858.661	15.96
858.953	8.02
859.245	-6.28
859.537	-3.37
859.829	-23.36
860.12	-6.31
860.412	-39.24
860.703	6.33
860.995	15.26
861.286	-13.4
861.578	-17.82
861.869	-10.76
862.16	-13.62
862.452	1.74
862.743	-22.51
863.034	24.39
863.325	5.37
863.616	-27.55
863.907	6.51
864.198	-12.65
864.488	14.08
864.779	13.35
865.07	-40.34
865.36	16.97
865.651	-51.15
865.941	-6.69
866.232	-5.03
866.522	15.89
866.813	-1.36
867.103	8.85
867.393	3.4
867.683	-9.03
867.973	-7.93
868.263	2.51
868.553	17.05
868.843	-31.01
869.133	-30.98
869.423	-0.61
869.713	0.62
870.002	-93.48
870.292	16.97
870.582	-6.94
870.871	8.24
871.161	14.39
871.45	15.69
871.739	2.92
872.029	-41.27
872.318	-14.92
872.607	-1.71
872.896	15.42
873.185	-25.54
873.474	-17.35
873.763	-0.33
874.052	27.52
874.341	4.64
874.63	19.46
874.918	-64.91
875.207	-14.06
875.496	10.06
875.784	-12.98
876.073	13.64
876.361	-2.35
876.649	-5.39
876.938	14.06
877.226	3.38
877.514	-35.23
877.802	7.15
878.09	-0.24
878.378	-20.17
878.666	27.93
878.954	20.67
879.242	-9.65
879.53	-2.56
879.817	-20.21
880.105	-2.78
880.392	-16.7
880.68	2.68
880.967	17.27
881.255	-16.4
881.542	-21.47
881.83	17.34
882.117	-3.74
882.404	7.61
882.691	-23.44
882.978	-54.37
883.265	0.04
883.552	13.99
883.839	3.11
884.126	3.39
884.413	1.43
884.699	10.22
884.986	-0.9
885.273	4.08
885.559	4.08
885.846	4.08
