Data from 2019-2_crown_Reflection__1__413.txt Node

Date: Thu Dec 15 20:11:11 CST 2022
User: ToomeyLab
Spectrometer: FLMS14357
Trigger mode: 0
Integration Time (sec): 1.000000E-2
Scans to average: 100
Electric dark correction enabled: true
Nonlinearity correction enabled: false
Boxcar width: 0
XAxis mode: Wavelengths
Number of Pixels in Spectrum: 2048
>>>>>Begin Spectral Data<<<<<
189.047	-46.82
189.435	-46.82
189.823	-46.82
190.211	99.79
190.599	-54.5
190.987	-104.86
191.375	4137.14
191.763	87.88
192.151	76.62
192.538	-88.63
192.926	332.7
193.314	113.99
193.702	38.03
194.089	1064.08
194.477	99.57
194.864	197.5
195.252	60.28
195.639	52.7
196.027	79.17
196.414	81.83
196.801	-488.5
197.189	37.71
197.576	-42.88
197.963	490.81
198.351	3.28
198.738	-22.78
199.125	-86.06
199.512	-0.06
199.899	-60.45
200.286	-56.69
200.673	6.6
201.06	-28.94
201.447	31.92
201.833	-54.18
202.22	-13.92
202.607	-35.64
202.994	-49.35
203.38	-0.06
203.767	-62.41
204.154	-28.93
204.54	-20.58
204.927	-5.57
205.313	20.24
205.699	20.46
206.086	-21.52
206.472	-2.41
206.858	-19.38
207.245	-39.13
207.631	-21.38
208.017	21.27
208.403	-77.51
208.789	7.72
209.175	-101.23
209.561	-204.53
209.947	-24.75
210.333	-57.86
210.719	-6.35
211.105	9.78
211.491	-30.47
211.876	-87.41
212.262	-21.42
212.648	2.94
213.034	-24.2
213.419	-26.69
213.805	-28.88
214.19	-110.37
214.576	-51.42
214.961	12.5
215.346	-45.27
215.732	-25.23
216.117	-47.83
216.502	-15.02
216.888	-21.39
217.273	-12.58
217.658	-13.01
218.043	-68.08
218.428	-62.65
218.813	-37.51
219.198	-46.97
219.583	-30.46
219.968	-46.14
220.353	-39.15
220.738	13.46
221.122	-11.64
221.507	-27.42
221.892	-57.37
222.276	-41.24
222.661	-16.86
223.046	-25.13
223.43	-3.94
223.815	-22.06
224.199	-7.16
224.583	-25.84
224.968	-8.01
225.352	-16.8
225.736	4.29
226.121	-12.92
226.505	-4.02
226.889	-7.34
227.273	-11.27
227.657	-1.07
228.041	1.11
228.425	-4.51
228.809	-4.36
229.193	-1.43
229.577	-0.08
229.961	1.48
230.344	1.87
230.728	2.53
231.112	1.69
231.495	-1.42
231.879	0.85
232.263	-0.32
232.646	-0.52
233.03	1.39
233.413	0.81
233.797	-1.99
234.18	0.67
234.563	1.28
234.946	0.16
235.33	0.06
235.713	0.13
236.096	1.59
236.479	-0.1
236.862	0.16
237.245	0.29
237.628	1.92
238.011	2.65
238.394	1.75
238.777	2.05
239.16	3.05
239.543	4.12
239.925	1.38
240.308	0.15
240.691	-0.41
241.073	1.02
241.456	2.72
241.838	2.02
242.221	1.98
242.603	2.7
242.986	1.65
243.368	2.2
243.75	1.66
244.133	2.7
244.515	2.39
244.897	2.1
245.279	1.48
245.661	2.07
246.043	2.47
246.425	2.02
246.807	1.05
247.189	2.02
247.571	1.55
247.953	1.86
248.335	2.15
248.717	2.22
249.098	2.29
249.48	1.8
249.862	2.16
250.243	2.71
250.625	2.4
251.006	2.99
251.388	0.91
251.769	1.32
252.151	1.79
252.532	1.61
252.913	1.67
253.295	1.5
253.676	2.21
254.057	1.86
254.438	1.44
254.819	1.98
255.2	2.01
255.581	2.74
255.962	2.37
256.343	2.11
256.724	0.76
257.105	0.59
257.486	0.27
257.867	1.07
258.247	2.43
258.628	1.68
259.009	1.17
259.389	0.84
259.77	0.93
260.15	2.71
260.531	1.83
260.911	1.73
261.292	2.07
261.672	1.83
262.052	1.85
262.432	1.82
262.813	1.9
263.193	1.83
263.573	1.48
263.953	0.88
264.333	1.8
264.713	1.68
265.093	1.45
265.473	2.45
265.853	1.61
266.233	2.85
266.612	2.15
266.992	1.16
267.372	2.25
267.752	2.02
268.131	1.25
268.511	1.6
268.89	2.34
269.27	1.26
269.649	1.62
270.029	1.54
270.408	1.68
270.787	2.07
271.167	2.07
271.546	2.1
271.925	1.33
272.304	1.75
272.683	1.66
273.062	1.58
273.441	1.79
273.82	2.11
274.199	1.64
274.578	1.74
274.957	1.75
275.336	1.54
275.715	1.84
276.093	1.63
276.472	1.55
276.851	1.53
277.229	1.18
277.608	0.91
277.986	1.29
278.365	2.49
278.743	1.59
279.122	1.57
279.5	1.43
279.878	1.44
280.257	1.96
280.635	1.43
281.013	0.92
281.391	1.62
281.769	1.82
282.147	1.46
282.525	0.97
282.903	0.92
283.281	1.85
283.659	2.11
284.037	1.4
284.415	1.37
284.792	1.08
285.17	1.49
285.548	1.26
285.925	1.58
286.303	1.86
286.68	1.66
287.058	1.72
287.435	1.84
287.813	1.57
288.19	1.65
288.567	1.86
288.945	1.19
289.322	1.9
289.699	1.84
290.076	1.41
290.453	1.49
290.83	1.77
291.207	1.81
291.584	1.82
291.961	1.53
292.338	1.27
292.715	1.07
293.092	1.94
293.469	1.16
293.845	1.84
294.222	2.12
294.599	1.24
294.975	1.18
295.352	1.65
295.728	1.64
296.105	1.6
296.481	2.12
296.858	1.72
297.234	1.75
297.61	1.82
297.986	2.06
298.363	1.63
298.739	1.92
299.115	1.71
299.491	2.01
299.867	1.64
300.243	1.65
300.619	1.34
300.995	1.54
301.371	1.76
301.746	1.54
302.122	1.19
302.498	1.43
302.874	1.77
303.249	1.82
303.625	0.84
304	1.84
304.376	1.92
304.751	1.66
305.127	1.18
305.502	1.6
305.878	1.72
306.253	0.91
306.628	1.55
307.003	1.54
307.378	1.43
307.754	1.4
308.129	1.08
308.504	1.71
308.879	1.46
309.254	1.89
309.629	1.54
310.003	1.36
310.378	1.8
310.753	1.61
311.128	1.27
311.502	1.46
311.877	1.53
312.252	2.02
312.626	1.87
313.001	1.67
313.375	1.61
313.75	1.89
314.124	1.98
314.498	1.85
314.873	1.24
315.247	1.44
315.621	1.81
315.995	1.41
316.369	1.18
316.743	1.46
317.117	1.31
317.491	1.65
317.865	1.52
318.239	1.91
318.613	1.3
318.987	0.98
319.361	1.64
319.734	1.43
320.108	1.67
320.482	1.39
320.855	1.6
321.229	1.86
321.602	1.98
321.976	1.22
322.349	1.8
322.723	1.41
323.096	1.58
323.469	1.15
323.843	1.3
324.216	1.27
324.589	1.7
324.962	1.8
325.335	1.59
325.708	1.35
326.081	1.61
326.454	1.87
326.827	1.39
327.2	1.79
327.573	2.08
327.945	1.03
328.318	1.6
328.691	1.32
329.063	1.35
329.436	1.21
329.809	1.61
330.181	1.9
330.553	2.02
330.926	1.79
331.298	1.45
331.671	1.49
332.043	1.66
332.415	1.97
332.787	1.64
333.159	1.09
333.532	1.63
333.904	1.94
334.276	1.53
334.648	1.51
335.02	1.66
335.391	1.19
335.763	1.63
336.135	2.41
336.507	1.61
336.879	1.49
337.25	1.39
337.622	1.62
337.993	1.61
338.365	1.6
338.736	1.64
339.108	1.92
339.479	1.79
339.851	2.21
340.222	2.25
340.593	1.49
340.964	1.55
341.336	1.32
341.707	1.54
342.078	1.26
342.449	1.87
342.82	2.17
343.191	1.57
343.562	1.95
343.933	1.77
344.303	1.84
344.674	1.44
345.045	1.68
345.416	1.78
345.786	1.74
346.157	1.92
346.527	1.27
346.898	1.87
347.268	1.56
347.639	1.42
348.009	2.05
348.38	1.6
348.75	1.8
349.12	1.85
349.49	1.74
349.861	2.47
350.231	1.9
350.601	1.86
350.971	1.6
351.341	1.91
351.711	2.13
352.081	1.93
352.45	1.33
352.82	1.36
353.19	1.61
353.56	1.43
353.929	1.54
354.299	1.93
354.669	1.77
355.038	1.72
355.408	1.54
355.777	2.05
356.147	1.65
356.516	1.41
356.885	1.83
357.254	1.6
357.624	1.38
357.993	1.83
358.362	1.76
358.731	1.98
359.1	1.85
359.469	1.89
359.838	1.9
360.207	1.55
360.576	1.59
360.945	2
361.314	1.74
361.682	1.35
362.051	2.06
362.42	1.77
362.788	1.92
363.157	1.99
363.525	1.89
363.894	1.47
364.262	1.93
364.631	2.09
364.999	2.01
365.367	1.64
365.735	1.65
366.104	1.91
366.472	1.72
366.84	1.85
367.208	2.1
367.576	1.73
367.944	1.68
368.312	1.67
368.68	2.02
369.048	1.73
369.416	1.54
369.783	1.51
370.151	2.19
370.519	1.89
370.886	2.01
371.254	1.95
371.621	1.96
371.989	2.14
372.356	1.74
372.724	1.65
373.091	1.75
373.458	1.88
373.826	2.13
374.193	1.97
374.56	1.77
374.927	1.86
375.294	2.09
375.661	2.12
376.028	1.88
376.395	2.02
376.762	1.57
377.129	1.78
377.496	1.82
377.863	1.95
378.229	2.25
378.596	1.98
378.963	1.98
379.329	1.97
379.696	1.83
380.062	1.98
380.429	1.66
380.795	2.14
381.161	1.68
381.528	1.47
381.894	1.96
382.26	2.09
382.626	2.2
382.993	2.51
383.359	1.69
383.725	1.56
384.091	1.84
384.457	1.72
384.823	2.02
385.188	1.82
385.554	2.1
385.92	1.66
386.286	1.91
386.651	1.89
387.017	2.13
387.383	1.77
387.748	1.7
388.114	1.77
388.479	1.87
388.845	1.84
389.21	2.16
389.575	2.43
389.94	2.19
390.306	2.07
390.671	1.92
391.036	2.04
391.401	2.1
391.766	2.01
392.131	1.93
392.496	2.08
392.861	2.2
393.226	2.05
393.591	2.14
393.956	2.05
394.32	2.26
394.685	2.05
395.05	1.94
395.414	2.22
395.779	2.26
396.143	1.97
396.508	2.05
396.872	2.06
397.236	2.44
397.601	2.23
397.965	2.1
398.329	2.14
398.694	2.14
399.058	2.19
399.422	2.14
399.786	1.81
400.15	1.99
400.514	2.2
400.878	2.06
401.242	2.04
401.605	2.06
401.969	1.98
402.333	1.94
402.697	2.24
403.06	1.83
403.424	1.91
403.787	2.11
404.151	1.98
404.514	2.2
404.878	1.96
405.241	2.08
405.604	2.1
405.968	2.09
406.331	2.09
406.694	2.19
407.057	1.76
407.42	2.11
407.783	2.12
408.146	1.93
408.509	2.03
408.872	2.15
409.235	2.21
409.598	2.08
409.961	2.13
410.323	1.91
410.686	2.13
411.049	2.34
411.411	2.02
411.774	1.99
412.136	2.06
412.499	2.13
412.861	1.78
413.223	1.81
413.586	2.12
413.948	2.16
414.31	2.08
414.672	1.93
415.035	2.27
415.397	2.01
415.759	1.83
416.121	2.05
416.483	1.96
416.845	2.11
417.206	2.02
417.568	1.81
417.93	2.1
418.292	1.83
418.653	1.82
419.015	2.02
419.377	2
419.738	2.26
420.1	2.12
420.461	1.87
420.822	2.13
421.184	1.98
421.545	2.12
421.906	2.21
422.267	2.03
422.629	2.1
422.99	2.1
423.351	2.1
423.712	2.09
424.073	2.2
424.434	2.22
424.795	2.01
425.155	2.02
425.516	2.06
425.877	2.16
426.238	2.07
426.598	2.12
426.959	2.11
427.32	2.13
427.68	2.08
428.041	2.04
428.401	2.09
428.761	2.25
429.122	2.15
429.482	2.15
429.842	2.2
430.202	2.24
430.563	2.06
430.923	2.18
431.283	2.35
431.643	2.24
432.003	2.02
432.363	2.16
432.722	2.07
433.082	2.14
433.442	2.15
433.802	2.01
434.161	2.02
434.521	2.22
434.881	2.14
435.24	2.08
435.6	2.32
435.959	2.13
436.319	2.14
436.678	2.33
437.037	2.16
437.396	2.02
437.756	1.96
438.115	2.08
438.474	2.13
438.833	2.26
439.192	2.1
439.551	2.04
439.91	2.18
440.269	2.14
440.628	2.1
440.987	2.19
441.345	2.18
441.704	2.15
442.063	2.14
442.421	2.16
442.78	2.18
443.138	2.16
443.497	2.12
443.855	2.12
444.214	2.03
444.572	2.34
444.93	2.1
445.288	2.22
445.647	2.02
446.005	2.13
446.363	2.2
446.721	2.08
447.079	2.02
447.437	2.2
447.795	2.22
448.153	2.17
448.51	2.23
448.868	2.18
449.226	2.18
449.584	2.22
449.941	2.24
450.299	2.09
450.656	2.15
451.014	2.28
451.371	2.21
451.729	2.13
452.086	2.16
452.443	2.2
452.801	2.15
453.158	2.3
453.515	2.06
453.872	2.14
454.229	2.02
454.586	2.12
454.943	2.18
455.3	2.13
455.657	2.1
456.014	2.1
456.371	2.22
456.727	2.23
457.084	2.4
457.441	2.15
457.797	2.29
458.154	2.23
458.51	2.12
458.867	2.22
459.223	2.14
459.58	2.34
459.936	2.2
460.292	2.19
460.648	2.02
461.005	2.11
461.361	2.21
461.717	2.17
462.073	2.23
462.429	2.18
462.785	2.33
463.141	2.13
463.496	2.4
463.852	2.34
464.208	2.2
464.564	2.17
464.919	2.23
465.275	2.23
465.631	2.31
465.986	2.26
466.342	2.12
466.697	2.12
467.052	2.35
467.408	2.28
467.763	2.1
468.118	2.19
468.473	2.13
468.829	2.17
469.184	2.26
469.539	2.12
469.894	2.36
470.249	2.15
470.603	2.22
470.958	2.38
471.313	2.33
471.668	2.17
472.023	2.26
472.377	2.16
472.732	2.39
473.086	2.13
473.441	2
473.795	2.4
474.15	2.32
474.504	2.18
474.859	2.06
475.213	2.29
475.567	2.21
475.921	2.37
476.275	2.22
476.63	2.31
476.984	2.13
477.338	2.41
477.692	2.16
478.045	2.29
478.399	2.28
478.753	2.09
479.107	2.19
479.461	2.14
479.814	2.27
480.168	2.16
480.521	2.35
480.875	2.33
481.228	2.37
481.582	2.15
481.935	2.34
482.289	2.15
482.642	2.25
482.995	2.24
483.348	2.22
483.701	2.33
484.055	2.26
484.408	2.27
484.761	2.18
485.114	2.08
485.466	2.09
485.819	2.1
486.172	2.17
486.525	2.22
486.878	2.28
487.23	2.21
487.583	2.28
487.936	2.23
488.288	2.16
488.641	2.24
488.993	2.05
489.345	2.14
489.698	2.14
490.05	2.16
490.402	2.24
490.754	2.18
491.107	2.22
491.459	2.21
491.811	2.23
492.163	2.23
492.515	2.13
492.866	2.13
493.218	2.17
493.57	2.26
493.922	2.28
494.274	2.33
494.625	2.34
494.977	2.27
495.328	2.33
495.68	2.25
496.031	2.31
496.383	2.19
496.734	2.34
497.086	2.4
497.437	2.36
497.788	2.38
498.139	2.37
498.49	2.37
498.842	2.32
499.193	2.28
499.544	2.28
499.894	2.2
500.245	2.31
500.596	2.34
500.947	2.2
501.298	2.29
501.648	2.26
501.999	2.45
502.35	2.26
502.7	2.41
503.051	2.39
503.401	2.41
503.752	2.2
504.102	2.26
504.452	2.16
504.803	2.33
505.153	2.25
505.503	2.28
505.853	2.3
506.203	2.38
506.553	2.23
506.903	2.41
507.253	2.2
507.603	2.4
507.953	2.39
508.303	2.4
508.652	2.15
509.002	2.36
509.352	2.33
509.701	2.26
510.051	2.38
510.4	2.36
510.75	2.21
511.099	2.21
511.449	2.33
511.798	2.23
512.147	2.16
512.496	2.38
512.846	2.32
513.195	2.27
513.544	2.39
513.893	2.4
514.242	2.27
514.591	2.23
514.939	2.39
515.288	2.46
515.637	2.34
515.986	2.33
516.334	2.39
516.683	2.37
517.032	2.31
517.38	2.16
517.729	2.31
518.077	2.33
518.426	2.33
518.774	2.22
519.122	2.3
519.47	2.3
519.819	2.28
520.167	2.23
520.515	2.37
520.863	2.26
521.211	2.33
521.559	2.26
521.907	2.32
522.255	2.29
522.602	2.35
522.95	2.35
523.298	2.42
523.645	2.44
523.993	2.33
524.341	2.32
524.688	2.21
525.036	2.27
525.383	2.36
525.73	2.27
526.078	2.3
526.425	2.28
526.772	2.33
527.119	2.26
527.466	2.36
527.814	2.33
528.161	2.31
528.508	2.39
528.854	2.22
529.201	2.17
529.548	2.26
529.895	2.17
530.242	2.17
530.588	2.17
530.935	2.23
531.282	2.3
531.628	2.35
531.975	2.3
532.321	2.29
532.667	2.32
533.014	2.33
533.36	2.33
533.706	2.33
534.052	2.37
534.399	2.26
534.745	2.24
535.091	2.18
535.437	2.25
535.783	2.34
536.129	2.3
536.474	2.35
536.82	2.38
537.166	2.25
537.512	2.31
537.857	2.3
538.203	2.26
538.549	2.23
538.894	2.38
539.239	2.35
539.585	2.42
539.93	2.47
540.276	2.26
540.621	2.39
540.966	2.36
541.311	2.33
541.656	2.25
542.001	2.28
542.346	2.28
542.691	2.26
543.036	2.25
543.381	2.27
543.726	2.32
544.071	2.3
544.415	2.31
544.76	2.28
545.105	2.23
545.449	2.3
545.794	2.37
546.138	2.28
546.483	2.39
546.827	2.31
547.171	2.44
547.516	2.26
547.86	2.31
548.204	2.33
548.548	2.28
548.892	2.34
549.236	2.31
549.58	2.38
549.924	2.49
550.268	2.36
550.612	2.45
550.956	2.51
551.3	2.54
551.643	2.37
551.987	2.48
552.33	2.52
552.674	2.42
553.017	2.35
553.361	2.3
553.704	2.38
554.048	2.39
554.391	2.42
554.734	2.33
555.077	2.28
555.42	2.31
555.764	2.42
556.107	2.39
556.45	2.31
556.793	2.49
557.135	2.35
557.478	2.32
557.821	2.37
558.164	2.38
558.507	2.37
558.849	2.45
559.192	2.43
559.534	2.32
559.877	2.41
560.219	2.25
560.562	2.23
560.904	2.41
561.246	2.42
561.589	2.57
561.931	2.42
562.273	2.47
562.615	2.27
562.957	2.32
563.299	2.41
563.641	2.4
563.983	2.17
564.325	2.44
564.667	2.41
565.008	2.36
565.35	2.27
565.692	2.31
566.033	2.32
566.375	2.32
566.716	2.23
567.058	2.43
567.399	2.36
567.741	2.35
568.082	2.35
568.423	2.32
568.764	2.44
569.105	2.38
569.447	2.25
569.788	2.42
570.129	2.28
570.47	2.31
570.811	2.32
571.151	2.36
571.492	2.49
571.833	2.31
572.174	2.42
572.514	2.47
572.855	2.51
573.195	2.35
573.536	2.45
573.876	2.42
574.217	2.33
574.557	2.4
574.898	2.34
575.238	2.48
575.578	2.48
575.918	2.45
576.258	2.64
576.598	2.25
576.938	2.27
577.278	2.42
577.618	2.42
577.958	2.37
578.298	2.57
578.638	2.53
578.977	2.51
579.317	2.46
579.657	2.3
579.996	2.59
580.336	2.42
580.675	2.37
581.014	2.34
581.354	2.23
581.693	2.4
582.032	2.54
582.372	2.52
582.711	2.34
583.05	2.31
583.389	2.51
583.728	2.55
584.067	2.33
584.406	2.46
584.745	2.28
585.083	2.28
585.422	2.6
585.761	2.6
586.1	2.43
586.438	2.44
586.777	2.43
587.115	2.35
587.454	2.23
587.792	2.28
588.13	2.57
588.469	2.31
588.807	2.49
589.145	2.53
589.483	2.23
589.821	2.29
590.159	2.44
590.497	2.46
590.835	2.57
591.173	2.49
591.511	2.54
591.849	2.44
592.187	2.34
592.524	2.61
592.862	2.24
593.2	2.27
593.537	2.47
593.875	2.35
594.212	2.38
594.55	2.59
594.887	2.41
595.224	2.74
595.561	2.14
595.899	2.43
596.236	2.33
596.573	2.22
596.91	2.47
597.247	2.44
597.584	2.4
597.921	2.41
598.258	2.6
598.594	2.35
598.931	2.3
599.268	2.28
599.604	2.41
599.941	2.47
600.277	2.59
600.614	2.38
600.95	2.24
601.287	2.12
601.623	1.95
601.959	2.48
602.296	2.4
602.632	2.42
602.968	2.59
603.304	2.32
603.64	2.37
603.976	2.39
604.312	2.14
604.648	2.42
604.984	2.29
605.319	2.53
605.655	2.44
605.991	2.4
606.326	2.35
606.662	2.18
606.998	2.51
607.333	2.49
607.668	2.33
608.004	2.36
608.339	2.27
608.674	2.58
609.01	2.58
609.345	2.4
609.68	2.16
610.015	2.31
610.35	2.44
610.685	2.13
611.02	2.28
611.355	2.48
611.689	2.33
612.024	2.46
612.359	2.45
612.694	2.52
613.028	2.18
613.363	2.34
613.697	2.5
614.032	2.27
614.366	2.09
614.7	2.47
615.035	2.35
615.369	2.7
615.703	2.66
616.037	2.61
616.371	2.18
616.705	2.32
617.039	2.43
617.373	2.58
617.707	2.49
618.041	2.17
618.375	1.66
618.709	2.77
619.042	2.45
619.376	2.22
619.71	2.29
620.043	2.52
620.377	2.39
620.71	2.27
621.043	2.49
621.377	2.78
621.71	2.62
622.043	2.34
622.376	2.77
622.709	3.01
623.043	2.47
623.376	2.38
623.709	2.46
624.041	2.42
624.374	2.53
624.707	2.37
625.04	2.07
625.373	2.34
625.705	2.36
626.038	2.56
626.37	2.19
626.703	2.36
627.035	2.39
627.368	2.67
627.7	2.56
628.032	2.65
628.365	2.47
628.697	2.6
629.029	2.51
629.361	2.55
629.693	2.59
630.025	2.77
630.357	2.43
630.689	2.34
631.021	2.5
631.353	2.6
631.684	2.3
632.016	2.22
632.348	2.24
632.679	3.03
633.011	2.58
633.342	2.49
633.674	2.13
634.005	2.23
634.336	2.45
634.668	2.15
634.999	2.22
635.33	2.66
635.661	2.27
635.992	2.44
636.323	2.37
636.654	2.39
636.985	2.44
637.316	2.27
637.647	2.74
637.977	2.44
638.308	2.69
638.639	2.38
638.969	2.38
639.3	2.55
639.63	2.61
639.961	2.49
640.291	2.45
640.622	2.44
640.952	2.82
641.282	2.16
641.612	2.21
641.943	2.39
642.273	2.18
642.603	2.31
642.933	2.53
643.263	2.59
643.592	2.85
643.922	2.85
644.252	2.24
644.582	2.68
644.911	2.35
645.241	2.54
645.571	2.39
645.9	3.07
646.23	2.95
646.559	2.24
646.888	2.92
647.218	2.51
647.547	2.4
647.876	2.11
648.205	1.99
648.534	2.56
648.863	2.72
649.192	2.79
649.521	2.33
649.85	2.54
650.179	2.94
650.508	1.99
650.837	2.61
651.165	2.93
651.494	2.62
651.822	2.29
652.151	2.5
652.479	2.34
652.808	2.13
653.136	2.15
653.465	2.1
653.793	2.77
654.121	2.57
654.449	2.03
654.777	2.21
655.105	2.22
655.433	2.44
655.761	2.5
656.089	2.4
656.417	3.01
656.745	2.58
657.073	2.22
657.4	2.37
657.728	1.94
658.056	3.03
658.383	2.33
658.711	2.57
659.038	2.85
659.365	2.47
659.693	2.51
660.02	2.31
660.347	2.3
660.674	2.18
661.001	2.5
661.329	2.1
661.656	2.19
661.982	2.53
662.309	2.24
662.636	2.24
662.963	2.27
663.29	2.79
663.616	2.48
663.943	2.41
664.27	2.79
664.596	2.17
664.923	2.69
665.249	2.77
665.576	2.19
665.902	2.32
666.228	2.99
666.554	2.8
666.881	2.11
667.207	2.42
667.533	2.34
667.859	2
668.185	2.81
668.511	2.95
668.837	2.15
669.162	2.28
669.488	2.11
669.814	2.15
670.139	2.05
670.465	3.02
670.791	2.09
671.116	2.47
671.442	1.79
671.767	2.5
672.092	2.45
672.418	2.89
672.743	2.21
673.068	1.88
673.393	2.36
673.718	1.94
674.043	1.91
674.368	2.56
674.693	2.82
675.018	2.37
675.343	2.58
675.667	2.61
675.992	2.3
676.317	1.82
676.641	2.63
676.966	2.34
677.29	2.01
677.615	2.21
677.939	2.48
678.264	2.51
678.588	2.5
678.912	2.19
679.236	2.11
679.56	2.25
679.885	1.91
680.209	2.75
680.532	2.85
680.856	2.64
681.18	3.16
681.504	2.66
681.828	2.32
682.152	2.46
682.475	2.67
682.799	2.17
683.122	2.39
683.446	2.21
683.769	2.98
684.093	2.75
684.416	2.06
684.739	2.3
685.062	2.08
685.386	2.53
685.709	2.76
686.032	2.27
686.355	2.12
686.678	2.86
687.001	2.51
687.324	2.18
687.646	2.84
687.969	2.24
688.292	2.5
688.614	2.58
688.937	2.89
689.26	3
689.582	2.76
689.904	2.66
690.227	1.89
690.549	2.38
690.871	1.93
691.194	2.32
691.516	2.31
691.838	2.65
692.16	1.96
692.482	2.09
692.804	2.54
693.126	1.69
693.448	2.68
693.769	2.15
694.091	2.36
694.413	2.26
694.735	2.25
695.056	2.04
695.378	2.01
695.699	2.35
696.021	2.39
696.342	2.21
696.663	2.99
696.984	1.52
697.306	2.38
697.627	2.45
697.948	2.77
698.269	2.34
698.59	2.1
698.911	2.21
699.232	2.77
699.553	3.29
699.873	2.36
700.194	2.9
700.515	2.31
700.835	2.67
701.156	2.78
701.477	2.3
701.797	2.51
702.117	2.08
702.438	2.78
702.758	1.97
703.078	2.77
703.398	1.92
703.719	2.75
704.039	2.88
704.359	3.13
704.679	2.33
704.999	2.58
705.319	1.14
705.638	1.74
705.958	1.95
706.278	2.63
706.597	2.2
706.917	3.09
707.237	1.24
707.556	2.39
707.876	2.31
708.195	2.37
708.514	1.71
708.834	2.27
709.153	2.78
709.472	2.97
709.791	1.61
710.11	1.79
710.429	1.75
710.748	2.53
711.067	2.82
711.386	2.47
711.705	1.95
712.023	3.14
712.342	1.23
712.661	2.55
712.979	2.87
713.298	2.86
713.616	2.41
713.935	2.26
714.253	2.73
714.572	2.17
714.89	2.33
715.208	2.24
715.526	2.19
715.844	2.53
716.162	3.75
716.48	1.86
716.798	1.96
717.116	1.98
717.434	2.63
717.752	2.63
718.069	2.21
718.387	2.81
718.705	2.63
719.022	2.8
719.34	0.98
719.657	2.43
719.975	1.7
720.292	1.83
720.609	1.41
720.927	2.41
721.244	2.96
721.561	1.22
721.878	2.71
722.195	2.15
722.512	2.91
722.829	2.22
723.146	2.52
723.463	1.93
723.779	0.39
724.096	1.53
724.413	2.48
724.729	2.98
725.046	1.84
725.362	3.46
725.679	2.44
725.995	-0.18
726.311	2.83
726.628	1.36
726.944	3.11
727.26	3.45
727.576	2.13
727.892	1.59
728.208	2.28
728.524	0.57
728.84	2.37
729.156	1.17
729.472	0.81
729.787	1.88
730.103	2.23
730.419	1.47
730.734	2.72
731.05	1.97
731.365	2.93
731.681	2.88
731.996	2.61
732.311	0.62
732.626	1.74
732.942	2.02
733.257	2.45
733.572	2.08
733.887	3.6
734.202	2.76
734.517	3.07
734.832	1.28
735.146	3.74
735.461	1.77
735.776	2.34
736.091	3.79
736.405	1.63
736.72	2.09
737.034	2.63
737.349	1.38
737.663	4.02
737.977	3.14
738.292	1.38
738.606	1.86
738.92	2.53
739.234	3.22
739.548	2.05
739.862	2.95
740.176	2.08
740.49	3.19
740.804	1.55
741.117	2.14
741.431	2.43
741.745	1.7
742.058	1.32
742.372	-0.02
742.685	2.51
742.999	1.47
743.312	3.06
743.626	2.35
743.939	1.36
744.252	3.15
744.565	1.49
744.878	1.26
745.191	0.97
745.505	2.67
745.817	3.5
746.13	3.58
746.443	0.09
746.756	1.71
747.069	3.18
747.381	0.13
747.694	1.05
748.007	1.14
748.319	2.4
748.632	2.2
748.944	1.58
749.256	1.73
749.569	1.23
749.881	0.77
750.193	2.5
750.505	0.5
750.817	1.66
751.129	1.57
751.441	2.11
751.753	3.23
752.065	2.93
752.377	3.24
752.689	0.78
753	2.52
753.312	2.63
753.624	0.94
753.935	0.28
754.247	1.61
754.558	2.47
754.869	2.8
755.181	1.76
755.492	1.63
755.803	4.6
756.114	0.92
756.425	1.14
756.736	2.36
757.047	2.65
757.358	2.48
757.669	2.81
757.98	0.09
758.291	1.75
758.601	1.52
758.912	2.23
759.223	0.09
759.533	2.44
759.844	0.59
760.154	1.75
760.464	2.42
760.775	4.27
761.085	2.2
761.395	1.28
761.705	1.77
762.016	1.58
762.326	3.07
762.636	3.47
762.945	2.79
763.255	1.84
763.565	3.27
763.875	1.16
764.185	3.67
764.494	1.97
764.804	1.51
765.113	2.98
765.423	2.92
765.732	2.72
766.042	3.07
766.351	2.36
766.66	2.83
766.97	2.7
767.279	2.48
767.588	1.26
767.897	1.79
768.206	2.54
768.515	2.3
768.824	4.77
769.133	0.45
769.441	1.33
769.75	1.76
770.059	2.64
770.367	4.42
770.676	1.49
770.984	0.23
771.293	0.58
771.601	-1.72
771.91	-0.44
772.218	0.36
772.526	-0.87
772.834	-1.41
773.142	2.1
773.45	2.72
773.758	1.63
774.066	0.99
774.374	3.73
774.682	-0.29
774.99	-1.73
775.298	-0.65
775.605	-1.65
775.913	-0.63
776.22	-1.73
776.528	2.76
776.835	5.17
777.143	1.68
777.45	-1.66
777.757	3.03
778.065	1.18
778.372	0.58
778.679	2.78
778.986	0.33
779.293	0.33
779.6	0.83
779.907	2.94
780.214	1.94
780.52	2.61
780.827	1.04
781.134	5.1
781.44	6.43
781.747	3.01
782.053	0.79
782.36	-0.31
782.666	0.85
782.973	-3.84
783.279	4.15
783.585	3.72
783.891	1.7
784.197	-1.43
784.503	-0.07
784.809	2.99
785.115	2.69
785.421	2.63
785.727	1.85
786.033	1.37
786.339	3.71
786.644	-0.5
786.95	-1.53
787.255	-3.57
787.561	-1.73
787.866	-0.57
788.172	0.83
788.477	1.11
788.782	-0.93
789.088	-2.05
789.393	0.42
789.698	-1.24
790.003	-0.09
790.308	2.1
790.613	1.63
790.918	1.06
791.223	2.39
791.527	5.21
791.832	3.71
792.137	4.72
792.441	0.69
792.746	2.02
793.05	1.47
793.355	-1.68
793.659	2.8
793.963	-1.77
794.268	-0.73
794.572	1.61
794.876	0.31
795.18	5.38
795.484	2.13
795.788	7.25
796.092	-2.7
796.396	-8.15
796.7	-5.22
797.004	0.73
797.307	-3.26
797.611	1.05
797.915	-1.14
798.218	1.25
798.522	-3.49
798.825	4.93
799.128	-0.64
799.432	-2.74
799.735	-0.94
800.038	0.1
800.341	4.78
800.644	-5.37
800.947	-2.04
801.25	-2.5
801.553	6.07
801.856	3.53
802.159	-0.29
802.462	-5.05
802.764	0.92
803.067	2.06
803.37	3.36
803.672	-4.41
803.975	-4
804.277	-3.88
804.579	-3.23
804.882	3.39
805.184	-0.11
805.486	7.53
805.788	2.84
806.09	-5.57
806.392	-0.96
806.694	2.66
806.996	4
807.298	-0.72
807.6	7.04
807.902	3.42
808.203	-2.51
808.505	-3.28
808.807	3.35
809.108	3.94
809.409	0.9
809.711	-3.5
810.012	0.3
810.313	1.1
810.615	0.76
810.916	0.71
811.217	-2.05
811.518	-0.85
811.819	1.09
812.12	-1
812.421	-2.9
812.722	2.21
813.023	8.23
813.323	2.24
813.624	0.64
813.925	1.36
814.225	2.28
814.526	-6.58
814.826	-3.48
815.126	-2.21
815.427	-3.51
815.727	-8.26
816.027	1.24
816.327	5.36
816.627	-0.33
816.927	-2.12
817.227	0.15
817.527	0.65
817.827	-4.99
818.127	-0.74
818.427	-6.7
818.727	-4.68
819.026	-3.18
819.326	5.1
819.625	4.01
819.925	-0.47
820.224	4.39
820.524	4.76
820.823	6.6
821.122	-5.95
821.421	-5.62
821.72	-4.71
822.019	-5.4
822.318	2.35
822.617	3.5
822.916	-2.06
823.215	0.82
823.514	2.69
823.813	1.71
824.111	2.34
824.41	3.71
824.709	3.74
825.007	3.51
825.306	3.83
825.604	3.56
825.902	4.26
826.201	3.12
826.499	3.42
826.797	2.42
827.095	5.43
827.393	4.42
827.691	4.08
827.989	3.52
828.287	5.03
828.585	2.15
828.882	1.42
829.18	1.55
829.478	4.69
829.775	3.63
830.073	3.25
830.37	2.33
830.668	3.55
830.965	3.41
831.263	4.29
831.56	4.83
831.857	1.33
832.154	4.4
832.451	9.08
832.748	1.28
833.045	2.4
833.342	-1.62
833.639	3.06
833.936	-2.97
834.232	-1.97
834.529	-0.91
834.826	6.04
835.122	-0.5
835.419	3.51
835.715	-3.53
836.012	1.8
836.308	6.05
836.604	-1.12
836.901	0.57
837.197	6.31
837.493	3.41
837.789	4.25
838.085	-1.3
838.381	1.93
838.677	-1.06
838.972	-1.2
839.268	-0.45
839.564	6.95
839.86	-2.15
840.155	2.73
840.451	1.76
840.746	-1.9
841.042	-3.96
841.337	-8
841.632	-7.49
841.928	4.83
842.223	-5.86
842.518	-2.04
842.813	-7.9
843.108	-5.98
843.403	-7.25
843.698	-0.18
843.993	13.27
844.287	-7.86
844.582	0.37
844.877	4.41
845.171	10.06
845.466	-5.2
845.761	2.89
846.055	-1.5
846.349	-6.67
846.644	-9.54
846.938	-2.39
847.232	-1.07
847.526	-15.43
847.82	-10.37
848.114	0.12
848.408	-11.2
848.702	5.88
848.996	-6.65
849.29	-3.19
849.584	-14.29
849.877	-2.49
850.171	-1.95
850.465	-12.97
850.758	-43.26
851.052	-5.09
851.345	-3.05
851.638	0.32
851.932	-13.8
852.225	-5.36
852.518	2.26
852.811	-4
853.104	-26.28
853.397	-3.99
853.69	-2.05
853.983	1.68
854.276	12.23
854.569	-1.61
854.861	-19.83
855.154	17.72
855.447	-18.76
855.739	-27.14
856.032	1.34
856.324	-23.77
856.616	2.16
856.909	-20.7
857.201	-60.08
857.493	-12.37
857.785	-4.32
858.077	-0.24
858.369	-4.09
858.661	-0.23
858.953	-5.16
859.245	-15.65
859.537	-50.23
859.829	-14.87
860.12	-13.77
860.412	-7.33
860.703	-1.83
860.995	26.38
861.286	-46.32
861.578	-1.08
861.869	-0.36
862.16	-9.88
862.452	-25.55
862.743	-22.34
863.034	-22.95
863.325	-0.79
863.616	-13.38
863.907	-10.97
864.198	-21.74
864.488	-27.52
864.779	-12.72
865.07	-17.81
865.36	-2.18
865.651	26.82
865.941	4.74
866.232	15.57
866.522	-6.73
866.813	-11.1
867.103	-63.02
867.393	-11.79
867.683	-7.71
867.973	-18.8
868.263	-39.4
868.553	-8.28
868.843	-36.81
869.133	-3.52
869.423	-30.04
869.713	-49.67
870.002	7.92
870.292	-30.3
870.582	-46.14
870.871	-3.1
871.161	-35.92
871.45	-27.89
871.739	8.54
872.029	-31.52
872.318	-5.45
872.607	30.51
872.896	3.85
873.185	-17.75
873.474	-25.71
873.763	-9.44
874.052	-22.91
874.341	-18
874.63	8.91
874.918	1.45
875.207	-36.49
875.496	4.52
875.784	-8.61
876.073	-30.86
876.361	6.04
876.649	-45.21
876.938	-43.48
877.226	-3.77
877.514	8.48
877.802	-67.55
878.09	10.4
878.378	-9.16
878.666	-11.66
878.954	-3.67
879.242	-3.95
879.53	-35.35
879.817	-79.49
880.105	-16.15
880.392	-44.23
880.68	-19.58
880.967	-37.15
881.255	5.74
881.542	-25
881.83	-2.64
882.117	-3.71
882.404	-33.78
882.691	-33.93
882.978	-6.03
883.265	3.3
883.552	11.76
883.839	-9.46
884.126	-5.36
884.413	4.73
884.699	5.18
884.986	1.43
885.273	4.88
885.559	4.88
885.846	4.88
