Data from 0013_chest_Reflection__4__09.txt Node

Date: Mon Oct 17 14:28:50 CDT 2022
User: ToomeyLab
Spectrometer: FLMS14357
Trigger mode: 0
Integration Time (sec): 1.000000E-2
Scans to average: 100
Electric dark correction enabled: true
Nonlinearity correction enabled: false
Boxcar width: 0
XAxis mode: Wavelengths
Number of Pixels in Spectrum: 2048
>>>>>Begin Spectral Data<<<<<
189.047	4860.27
189.435	4860.27
189.823	4860.27
190.211	91.67
190.599	570.14
190.987	-240.93
191.375	53.48
191.763	1104.3
192.151	37.71
192.538	100.42
192.926	-327.34
193.314	28.52
193.702	-299.2
194.089	4.75
194.477	72.15
194.864	359.95
195.252	-362.93
195.639	224.69
196.027	153.67
196.414	28.69
196.801	307.26
197.189	162.08
197.576	154.72
197.963	-197.02
198.351	-159.05
198.738	16.46
199.125	-1.57
199.512	-89.35
199.899	40.46
200.286	3.05
200.673	12.65
201.06	-24.02
201.447	35.85
201.833	24.53
202.22	-18.78
202.607	-30.94
202.994	-20.23
203.38	-10.96
203.767	11.95
204.154	26.11
204.54	9.15
204.927	7.35
205.313	-17.9
205.699	59.96
206.086	-25.12
206.472	10.95
206.858	6.19
207.245	33.53
207.631	30.78
208.017	20.34
208.403	39.42
208.789	20.17
209.175	-42.82
209.561	-11.3
209.947	-31.98
210.333	46.65
210.719	7.67
211.105	4.07
211.491	11.92
211.876	3.69
212.262	15.32
212.648	20.34
213.034	-3.06
213.419	18.71
213.805	2.35
214.19	23.03
214.576	24.33
214.961	3.59
215.346	-18.32
215.732	17.53
216.117	19.09
216.502	9.58
216.888	15.91
217.273	24.9
217.658	14.38
218.043	6.29
218.428	-8.12
218.813	16.86
219.198	7.03
219.583	-9.73
219.968	8.5
220.353	-9.5
220.738	-11.31
221.122	3.79
221.507	2.37
221.892	7.84
222.276	4.97
222.661	3.03
223.046	6.19
223.43	1.82
223.815	8.26
224.199	14.17
224.583	0.21
224.968	-2.05
225.352	-3.85
225.736	8.45
226.121	2.04
226.505	2.36
226.889	8.35
227.273	7.62
227.657	5.13
228.041	8.49
228.425	4.47
228.809	5.39
229.193	3.57
229.577	5.13
229.961	5.62
230.344	4.5
230.728	4.31
231.112	3.98
231.495	4.35
231.879	3.48
232.263	4.18
232.646	4.28
233.03	3.99
233.413	2.55
233.797	5.93
234.18	6.6
234.563	3.45
234.946	4.85
235.33	3.57
235.713	3.27
236.096	5.23
236.479	3.76
236.862	5.17
237.245	4.02
237.628	5.75
238.011	5.04
238.394	3.52
238.777	4.18
239.16	3.34
239.543	4.27
239.925	5.46
240.308	4.91
240.691	4.11
241.073	5.76
241.456	3.31
241.838	3.85
242.221	3.69
242.603	4.23
242.986	4.26
243.368	4.74
243.75	4.34
244.133	4.41
244.515	4.3
244.897	4.51
245.279	4.33
245.661	4.61
246.043	4.23
246.425	3.65
246.807	4.28
247.189	4.77
247.571	4.44
247.953	4.21
248.335	4.29
248.717	4.26
249.098	4.33
249.48	4.01
249.862	4.3
250.243	3.94
250.625	4.25
251.006	3.92
251.388	4.82
251.769	4.2
252.151	4.17
252.532	3.25
252.913	4.51
253.295	3.5
253.676	4.51
254.057	4.31
254.438	4.23
254.819	5.28
255.2	5.08
255.581	4.63
255.962	3.43
256.343	3.85
256.724	3.29
257.105	4.11
257.486	3.24
257.867	3.7
258.247	4.05
258.628	4.32
259.009	4.64
259.389	3.74
259.77	4.59
260.15	4.39
260.531	4.23
260.911	3.92
261.292	4.22
261.672	3.85
262.052	4.02
262.432	3.82
262.813	4.03
263.193	3.68
263.573	4.18
263.953	3.34
264.333	3.74
264.713	3.65
265.093	3.88
265.473	4.38
265.853	4.97
266.233	5.12
266.612	3.4
266.992	4.4
267.372	4.76
267.752	4.42
268.131	3.66
268.511	4.01
268.89	4.26
269.27	3.9
269.649	3.82
270.029	3.92
270.408	4.16
270.787	3.41
271.167	3.96
271.546	3.93
271.925	3.64
272.304	3.77
272.683	3.8
273.062	4.01
273.441	4.07
273.82	3.72
274.199	4.06
274.578	3.74
274.957	3.87
275.336	3.92
275.715	4.15
276.093	3.56
276.472	3.65
276.851	4.19
277.229	3.33
277.608	3.92
277.986	3.97
278.365	4.16
278.743	4.14
279.122	3.95
279.5	4.07
279.878	3.53
280.257	3.78
280.635	4.01
281.013	3.93
281.391	3.92
281.769	4.09
282.147	4.2
282.525	3.5
282.903	3.19
283.281	3.82
283.659	3.67
284.037	3.51
284.415	4.13
284.792	3.53
285.17	3.58
285.548	3.41
285.925	4.43
286.303	3.76
286.68	4.04
287.058	3.96
287.435	4
287.813	3.83
288.19	3.69
288.567	3.99
288.945	3.92
289.322	4.27
289.699	4.26
290.076	3.53
290.453	3.63
290.83	4.16
291.207	3.64
291.584	3.74
291.961	3.85
292.338	3.88
292.715	3.82
293.092	4.3
293.469	3.78
293.845	4
294.222	4.16
294.599	4.15
294.975	3.46
295.352	3.39
295.728	3.84
296.105	3.96
296.481	3.82
296.858	4.21
297.234	3.41
297.61	3.61
297.986	3.82
298.363	4.14
298.739	4.12
299.115	3.58
299.491	4.06
299.867	3.91
300.243	3.82
300.619	3.91
300.995	3.69
301.371	3.65
301.746	4.18
302.122	3.67
302.498	4.36
302.874	4.5
303.249	4.01
303.625	4.4
304	4.19
304.376	4.1
304.751	4.32
305.127	4.46
305.502	3.64
305.878	4.16
306.253	3.96
306.628	4.06
307.003	3.8
307.378	3.87
307.754	3.79
308.129	4.09
308.504	3.95
308.879	3.96
309.254	4.13
309.629	3.25
310.003	4.23
310.378	4.02
310.753	3.24
311.128	3.84
311.502	4.07
311.877	4.11
312.252	4.25
312.626	3.86
313.001	4.1
313.375	3.84
313.75	3.88
314.124	4.24
314.498	4.18
314.873	3.9
315.247	3.52
315.621	4.58
315.995	3.93
316.369	3.67
316.743	3.69
317.117	4.17
317.491	3.91
317.865	4.44
318.239	4.27
318.613	4.14
318.987	3.97
319.361	3.71
319.734	4.17
320.108	4.18
320.482	4.39
320.855	3.92
321.229	3.51
321.602	4.17
321.976	3.6
322.349	3.88
322.723	4.15
323.096	3.76
323.469	3.76
323.843	3.49
324.216	4.03
324.589	3.67
324.962	4.12
325.335	4.26
325.708	4.35
326.081	3.89
326.454	4.11
326.827	4.35
327.2	3.75
327.573	3.72
327.945	3.98
328.318	3.92
328.691	3.37
329.063	3.88
329.436	3.97
329.809	3.88
330.181	4.41
330.553	3.86
330.926	4.26
331.298	4.15
331.671	4.49
332.043	4.08
332.415	3.95
332.787	3.9
333.159	4.1
333.532	4.09
333.904	3.7
334.276	3.95
334.648	3.97
335.02	3.67
335.391	3.84
335.763	3.73
336.135	4.03
336.507	4.14
336.879	4.18
337.25	4.53
337.622	3.74
337.993	4.13
338.365	4.11
338.736	4.1
339.108	4.02
339.479	3.56
339.851	4.55
340.222	4.02
340.593	4.17
340.964	4.19
341.336	3.99
341.707	4.28
342.078	4.39
342.449	4.12
342.82	4.48
343.191	4.13
343.562	3.9
343.933	4.09
344.303	4.09
344.674	4.07
345.045	3.95
345.416	4.37
345.786	4.17
346.157	3.76
346.527	4.37
346.898	4.24
347.268	4.44
347.639	3.89
348.009	4.29
348.38	4.32
348.75	4.02
349.12	4.15
349.49	3.96
349.861	4.13
350.231	4.09
350.601	4.01
350.971	3.51
351.341	3.74
351.711	3.98
352.081	4.16
352.45	4.52
352.82	4.46
353.19	4.04
353.56	4.05
353.929	4.23
354.299	4.36
354.669	4.31
355.038	4.48
355.408	4.29
355.777	3.92
356.147	3.82
356.516	3.94
356.885	4.39
357.254	4.15
357.624	4.5
357.993	4.08
358.362	4.2
358.731	4.05
359.1	3.98
359.469	4.11
359.838	4.32
360.207	4.17
360.576	3.86
360.945	4.17
361.314	4.19
361.682	4.01
362.051	4.45
362.42	3.98
362.788	4.41
363.157	4.21
363.525	4.13
363.894	4.3
364.262	4.36
364.631	4.22
364.999	4.34
365.367	3.85
365.735	4.11
366.104	4.25
366.472	3.85
366.84	4.41
367.208	4.34
367.576	3.99
367.944	4.07
368.312	4.24
368.68	4.27
369.048	4.39
369.416	4.18
369.783	4.05
370.151	4.22
370.519	4.41
370.886	4.42
371.254	4.23
371.621	4.28
371.989	4.43
372.356	4.27
372.724	4.22
373.091	4.23
373.458	4.16
373.826	4.4
374.193	4.58
374.56	4.28
374.927	4.2
375.294	4.4
375.661	4.33
376.028	4.12
376.395	4.35
376.762	4.28
377.129	4.24
377.496	4.36
377.863	4.19
378.229	4.29
378.596	4.26
378.963	4.16
379.329	4.14
379.696	4.22
380.062	4.48
380.429	4.12
380.795	4.57
381.161	4.65
381.528	4.17
381.894	4.19
382.26	4.34
382.626	4.29
382.993	4.64
383.359	4.24
383.725	4.2
384.091	4.43
384.457	4.34
384.823	4.01
385.188	4.11
385.554	4.15
385.92	4.18
386.286	4.58
386.651	4.5
387.017	4.02
387.383	4.35
387.748	4.17
388.114	4.34
388.479	4.31
388.845	4.59
389.21	4.34
389.575	4.36
389.94	4.53
390.306	4.55
390.671	4.69
391.036	4.52
391.401	4.35
391.766	4.35
392.131	4.49
392.496	4.5
392.861	4.15
393.226	4.32
393.591	4.3
393.956	4.23
394.32	4.29
394.685	4.34
395.05	4.28
395.414	4.62
395.779	4.37
396.143	4.29
396.508	4.51
396.872	4.41
397.236	4.37
397.601	4.29
397.965	4.42
398.329	4.56
398.694	4.5
399.058	4.41
399.422	4.48
399.786	4.51
400.15	4.53
400.514	4.27
400.878	4.37
401.242	4.34
401.605	4.72
401.969	4.45
402.333	4.49
402.697	4.42
403.06	4.55
403.424	4.52
403.787	4.34
404.151	4.5
404.514	4.58
404.878	4.27
405.241	4.56
405.604	4.46
405.968	4.38
406.331	4.33
406.694	4.35
407.057	4.4
407.42	4.3
407.783	4.5
408.146	4.7
408.509	4.73
408.872	4.51
409.235	4.33
409.598	4.4
409.961	4.41
410.323	4.38
410.686	4.43
411.049	4.5
411.411	4.7
411.774	4.5
412.136	4.63
412.499	4.7
412.861	4.6
413.223	4.5
413.586	4.46
413.948	4.57
414.31	4.59
414.672	4.54
415.035	4.55
415.397	4.77
415.759	4.54
416.121	4.54
416.483	4.62
416.845	4.84
417.206	4.61
417.568	4.58
417.93	4.54
418.292	4.76
418.653	4.56
419.015	4.67
419.377	4.56
419.738	4.4
420.1	4.69
420.461	4.55
420.822	4.54
421.184	4.49
421.545	4.53
421.906	4.5
422.267	4.52
422.629	4.34
422.99	4.47
423.351	4.52
423.712	4.47
424.073	4.48
424.434	4.57
424.795	4.59
425.155	4.71
425.516	4.38
425.877	4.38
426.238	4.42
426.598	4.49
426.959	4.46
427.32	4.55
427.68	4.55
428.041	4.58
428.401	4.81
428.761	4.68
429.122	4.79
429.482	4.69
429.842	4.74
430.202	4.79
430.563	4.86
430.923	4.88
431.283	4.7
431.643	4.74
432.003	4.69
432.363	4.74
432.722	4.84
433.082	4.75
433.442	4.78
433.802	4.64
434.161	4.6
434.521	4.67
434.881	4.73
435.24	4.51
435.6	4.63
435.959	4.69
436.319	4.81
436.678	4.66
437.037	4.81
437.396	4.63
437.756	4.93
438.115	4.64
438.474	4.59
438.833	4.71
439.192	4.81
439.551	4.63
439.91	4.74
440.269	4.74
440.628	4.63
440.987	4.64
441.345	4.64
441.704	4.65
442.063	4.56
442.421	4.71
442.78	4.67
443.138	4.71
443.497	4.8
443.855	4.78
444.214	4.69
444.572	4.71
444.93	4.86
445.288	4.74
445.647	4.82
446.005	4.83
446.363	4.88
446.721	4.74
447.079	4.65
447.437	4.67
447.795	4.67
448.153	4.74
448.51	4.59
448.868	4.77
449.226	4.67
449.584	4.83
449.941	4.74
450.299	4.83
450.656	4.74
451.014	4.86
451.371	4.97
451.729	4.96
452.086	4.84
452.443	4.95
452.801	4.89
453.158	5.09
453.515	4.88
453.872	4.93
454.229	4.8
454.586	4.92
454.943	4.82
455.3	4.94
455.657	4.84
456.014	4.87
456.371	4.76
456.727	4.94
457.084	4.8
457.441	4.85
457.797	4.91
458.154	4.92
458.51	4.85
458.867	4.76
459.223	4.96
459.58	4.79
459.936	4.83
460.292	4.99
460.648	4.94
461.005	4.86
461.361	4.87
461.717	4.84
462.073	4.79
462.429	4.87
462.785	4.87
463.141	4.99
463.496	4.97
463.852	4.96
464.208	5.13
464.564	5.04
464.919	4.97
465.275	4.92
465.631	5.25
465.986	4.9
466.342	5.16
466.697	5
467.052	4.88
467.408	5
467.763	4.96
468.118	5.11
468.473	5.16
468.829	4.9
469.184	5.05
469.539	4.95
469.894	4.92
470.249	5
470.603	5.06
470.958	5.18
471.313	4.94
471.668	5.06
472.023	5.1
472.377	5.19
472.732	5.02
473.086	5.06
473.441	5.08
473.795	5.1
474.15	5.12
474.504	5.16
474.859	4.96
475.213	5.16
475.567	5.27
475.921	4.95
476.275	5.19
476.63	5.1
476.984	5.29
477.338	5.1
477.692	5.19
478.045	5.29
478.399	5.13
478.753	5.2
479.107	5.14
479.461	5.08
479.814	5.12
480.168	5.02
480.521	5.07
480.875	5.09
481.228	5.21
481.582	5.16
481.935	5.17
482.289	4.94
482.642	5.17
482.995	5.12
483.348	5.16
483.701	5.07
484.055	5.05
484.408	5.21
484.761	5.06
485.114	4.89
485.466	4.83
485.819	4.78
486.172	4.81
486.525	4.89
486.878	4.94
487.23	4.98
487.583	5.06
487.936	5.12
488.288	5.04
488.641	4.94
488.993	4.93
489.345	4.9
489.698	4.97
490.05	4.95
490.402	4.97
490.754	4.99
491.107	5.09
491.459	5.16
491.811	5.24
492.163	5.1
492.515	5.2
492.866	5.12
493.218	5.07
493.57	5.04
493.922	5.06
494.274	5.14
494.625	5.12
494.977	5.21
495.328	5.2
495.68	5.35
496.031	5.37
496.383	5.4
496.734	5.34
497.086	5.27
497.437	5.29
497.788	5.41
498.139	5.35
498.49	5.28
498.842	5.36
499.193	5.26
499.544	5.22
499.894	5.34
500.245	5.27
500.596	5.22
500.947	5.44
501.298	5.41
501.648	5.36
501.999	5.41
502.35	5.41
502.7	5.51
503.051	5.52
503.401	5.51
503.752	5.55
504.102	5.39
504.452	5.48
504.803	5.52
505.153	5.46
505.503	5.41
505.853	5.5
506.203	5.43
506.553	5.52
506.903	5.5
507.253	5.55
507.603	5.54
507.953	5.54
508.303	5.56
508.652	5.55
509.002	5.64
509.352	5.64
509.701	5.42
510.051	5.55
510.4	5.36
510.75	5.48
511.099	5.49
511.449	5.49
511.798	5.52
512.147	5.47
512.496	5.59
512.846	5.55
513.195	5.57
513.544	5.66
513.893	5.56
514.242	5.64
514.591	5.58
514.939	5.54
515.288	5.55
515.637	5.59
515.986	5.66
516.334	5.78
516.683	5.74
517.032	5.67
517.38	5.56
517.729	5.7
518.077	5.69
518.426	5.68
518.774	5.7
519.122	5.66
519.47	5.68
519.819	5.7
520.167	5.59
520.515	5.68
520.863	5.7
521.211	5.6
521.559	5.67
521.907	5.81
522.255	5.67
522.602	5.74
522.95	5.84
523.298	5.81
523.645	5.88
523.993	5.87
524.341	6.02
524.688	5.88
525.036	6.08
525.383	5.83
525.73	5.89
526.078	5.81
526.425	5.91
526.772	5.84
527.119	5.88
527.466	5.78
527.814	5.78
528.161	5.87
528.508	5.95
528.854	5.86
529.201	5.86
529.548	5.89
529.895	5.82
530.242	5.68
530.588	5.66
530.935	5.76
531.282	5.72
531.628	5.74
531.975	5.83
532.321	5.75
532.667	6.01
533.014	5.98
533.36	6.14
533.706	6.02
534.052	6.08
534.399	5.99
534.745	5.91
535.091	5.86
535.437	5.95
535.783	6
536.129	6.02
536.474	6.15
536.82	6.16
537.166	6.21
537.512	6.33
537.857	6.22
538.203	6.2
538.549	6.08
538.894	6.1
539.239	6.18
539.585	6.13
539.93	6.3
540.276	6.22
540.621	6.42
540.966	6.43
541.311	6.38
541.656	6.35
542.001	6.39
542.346	6.33
542.691	6.34
543.036	6.09
543.381	6.13
543.726	6.18
544.071	6.11
544.415	6.24
544.76	6.26
545.105	6.27
545.449	6.34
545.794	6.45
546.138	6.43
546.483	6.55
546.827	6.54
547.171	6.46
547.516	6.59
547.86	6.55
548.204	6.47
548.548	6.48
548.892	6.6
549.236	6.58
549.58	6.66
549.924	6.54
550.268	6.72
550.612	6.69
550.956	6.98
551.3	6.71
551.643	6.87
551.987	6.85
552.33	6.89
552.674	6.79
553.017	6.87
553.361	6.83
553.704	6.77
554.048	6.68
554.391	6.95
554.734	6.84
555.077	6.84
555.42	6.82
555.764	6.86
556.107	7.04
556.45	6.98
556.793	6.97
557.135	6.98
557.478	7.02
557.821	7.12
558.164	7.14
558.507	6.94
558.849	6.95
559.192	7.14
559.534	7.15
559.877	6.9
560.219	6.99
560.562	7.08
560.904	7.03
561.246	7.2
561.589	7.21
561.931	7.21
562.273	7.37
562.615	7.31
562.957	7.3
563.299	7.16
563.641	7.26
563.983	7.28
564.325	7.5
564.667	7.6
565.008	7.38
565.35	7.43
565.692	7.66
566.033	7.38
566.375	7.29
566.716	7.44
567.058	7.41
567.399	7.33
567.741	7.46
568.082	7.61
568.423	7.43
568.764	7.52
569.105	7.5
569.447	7.43
569.788	7.46
570.129	7.64
570.47	7.75
570.811	7.77
571.151	7.72
571.492	7.7
571.833	7.61
572.174	7.79
572.514	7.79
572.855	7.81
573.195	7.71
573.536	7.69
573.876	7.65
574.217	7.7
574.557	7.73
574.898	7.81
575.238	7.77
575.578	7.94
575.918	7.9
576.258	7.92
576.598	7.97
576.938	8.04
577.278	7.95
577.618	8
577.958	7.98
578.298	8.05
578.638	8.08
578.977	8.2
579.317	7.84
579.657	7.97
579.996	7.98
580.336	8.16
580.675	8.23
581.014	7.97
581.354	8.08
581.693	8.2
582.032	8.11
582.372	8.34
582.711	8.25
583.05	8.37
583.389	8.21
583.728	8.4
584.067	8.32
584.406	8.28
584.745	8.42
585.083	8.4
585.422	8.56
585.761	8.57
586.1	8.46
586.438	8.57
586.777	8.65
587.115	8.77
587.454	8.56
587.792	8.54
588.13	8.65
588.469	8.84
588.807	8.51
589.145	8.51
589.483	8.66
589.821	8.68
590.159	8.91
590.497	8.9
590.835	8.97
591.173	8.91
591.511	8.68
591.849	8.75
592.187	8.96
592.524	8.89
592.862	8.97
593.2	8.9
593.537	9.15
593.875	8.97
594.212	9.17
594.55	9.09
594.887	9.09
595.224	9.15
595.561	9.01
595.899	9.37
596.236	9.28
596.573	9.09
596.91	9.29
597.247	9.38
597.584	9.08
597.921	9.29
598.258	9.32
598.594	9.2
598.931	9.22
599.268	9.28
599.604	9.31
599.941	9.25
600.277	9.34
600.614	9.42
600.95	9.24
601.287	9.33
601.623	9.46
601.959	9.47
602.296	9.64
602.632	9.56
602.968	9.5
603.304	9.43
603.64	9.58
603.976	9.46
604.312	9.63
604.648	9.78
604.984	9.52
605.319	9.59
605.655	9.77
605.991	9.62
606.326	9.55
606.662	9.64
606.998	9.74
607.333	9.59
607.668	9.49
608.004	9.78
608.339	9.83
608.674	10.1
609.01	9.95
609.345	10.1
609.68	10.06
610.015	10.4
610.35	9.87
610.685	9.85
611.02	9.9
611.355	10.04
611.689	10.06
612.024	10.02
612.359	10.05
612.694	10
613.028	10
613.363	10.1
613.697	10.16
614.032	10.43
614.366	10.46
614.7	10.45
615.035	10.42
615.369	10.63
615.703	10.47
616.037	10.44
616.371	10.42
616.705	10.42
617.039	10.55
617.373	10.61
617.707	10.68
618.041	10.6
618.375	10.37
618.709	10.85
619.042	10.55
619.376	10.71
619.71	10.61
620.043	10.58
620.377	10.97
620.71	10.72
621.043	11.2
621.377	10.98
621.71	10.94
622.043	10.66
622.376	10.82
622.709	10.91
623.043	10.69
623.376	11.03
623.709	10.81
624.041	10.53
624.374	10.85
624.707	10.99
625.04	10.89
625.373	11.23
625.705	10.68
626.038	10.98
626.37	11.08
626.703	11.39
627.035	11.16
627.368	11.23
627.7	11.29
628.032	11.06
628.365	10.78
628.697	11.38
629.029	11.14
629.361	11.17
629.693	11.36
630.025	11.03
630.357	11.38
630.689	11.08
631.021	11.52
631.353	11.09
631.684	11.44
632.016	11.23
632.348	11.7
632.679	11.53
633.011	11.35
633.342	11.44
633.674	11.66
634.005	11.32
634.336	11.52
634.668	11.56
634.999	11.42
635.33	11.88
635.661	11.77
635.992	11.56
636.323	11.49
636.654	11.76
636.985	11.82
637.316	11.62
637.647	11.8
637.977	11.8
638.308	11.83
638.639	11.82
638.969	11.95
639.3	11.57
639.63	11.97
639.961	11.95
640.291	11.76
640.622	11.85
640.952	12.31
641.282	12.31
641.612	12.1
641.943	12.04
642.273	12.11
642.603	12.09
642.933	12.53
643.263	12.25
643.592	11.98
643.922	11.89
644.252	12.26
644.582	12.31
644.911	12.77
645.241	12.25
645.571	12.28
645.9	12.45
646.23	12.23
646.559	12.34
646.888	11.93
647.218	11.89
647.547	12.4
647.876	12.54
648.205	12.6
648.534	12.5
648.863	12.1
649.192	12.68
649.521	12.73
649.85	12.5
650.179	12.7
650.508	12.53
650.837	12.31
651.165	12.76
651.494	13.02
651.822	12.54
652.151	12.76
652.479	12.99
652.808	12.35
653.136	12.82
653.465	12.67
653.793	12.53
654.121	12.93
654.449	13.1
654.777	12.82
655.105	12.68
655.433	13.12
655.761	13.06
656.089	13
656.417	12.96
656.745	13.2
657.073	13.23
657.4	12.68
657.728	13.19
658.056	12.61
658.383	13.45
658.711	13.27
659.038	13.18
659.365	13.29
659.693	13.19
660.02	13.25
660.347	13.63
660.674	12.99
661.001	13.35
661.329	13.37
661.656	13.41
661.982	13.52
662.309	13.56
662.636	13.75
662.963	13.4
663.29	13.46
663.616	13.69
663.943	13.28
664.27	13.82
664.596	13.27
664.923	13.31
665.249	13
665.576	13.77
665.902	13.86
666.228	13.42
666.554	13.69
666.881	14.05
667.207	14.24
667.533	13.96
667.859	13.79
668.185	14.16
668.511	13.95
668.837	13.91
669.162	13.98
669.488	13.95
669.814	14.5
670.139	13.99
670.465	14.13
670.791	14.52
671.116	14.24
671.442	13.6
671.767	13.91
672.092	13.59
672.418	14.29
672.743	14.14
673.068	14.34
673.393	14.37
673.718	14.62
674.043	14.36
674.368	13.91
674.693	14.11
675.018	14.39
675.343	14.36
675.667	14.29
675.992	14.11
676.317	14.49
676.641	14.63
676.966	14.06
677.29	14.68
677.615	14.33
677.939	14.81
678.264	14.2
678.588	14.55
678.912	14.56
679.236	14.76
679.56	14.21
679.885	14.59
680.209	15.34
680.532	14.71
680.856	14.82
681.18	14.64
681.504	15.24
681.828	15.05
682.152	14.94
682.475	15.02
682.799	14.89
683.122	14.49
683.446	15.19
683.769	14.79
684.093	13.86
684.416	15.15
684.739	14.37
685.062	14.81
685.386	15.33
685.709	14.5
686.032	15.03
686.355	14.46
686.678	14.49
687.001	15.02
687.324	14.99
687.646	13.88
687.969	15.27
688.292	15.51
688.614	14.88
688.937	15.46
689.26	15.21
689.582	14.95
689.904	15.97
690.227	15.71
690.549	15.39
690.871	15.45
691.194	15.34
691.516	15.48
691.838	15.54
692.16	15.74
692.482	15.94
692.804	15.58
693.126	16.1
693.448	15.75
693.769	15.62
694.091	15.12
694.413	15.6
694.735	15.14
695.056	15.94
695.378	15.37
695.699	15.65
696.021	16.1
696.342	16.32
696.663	15.97
696.984	16.06
697.306	16.24
697.627	14.83
697.948	15.31
698.269	15.31
698.59	16.09
698.911	15.83
699.232	16.07
699.553	15.47
699.873	16.17
700.194	15.88
700.515	16.1
700.835	15.87
701.156	15.7
701.477	16.17
701.797	16
702.117	15.92
702.438	15.94
702.758	16.2
703.078	16.15
703.398	17.24
703.719	16.57
704.039	16.15
704.359	16.49
704.679	15.93
704.999	16.42
705.319	15.73
705.638	17.08
705.958	16.8
706.278	16.05
706.597	15.54
706.917	16.25
707.237	16.5
707.556	16.16
707.876	16.03
708.195	16.56
708.514	16.59
708.834	16.43
709.153	16.48
709.472	16.63
709.791	17.67
710.11	15.54
710.429	15.79
710.748	17.07
711.067	16.79
711.386	15.98
711.705	16.61
712.023	17.45
712.342	17.1
712.661	17.05
712.979	16.37
713.298	16.51
713.616	16.45
713.935	16.87
714.253	17.11
714.572	17.23
714.89	16.72
715.208	16.66
715.526	16.41
715.844	16.05
716.162	17.37
716.48	16.72
716.798	17.13
717.116	17.22
717.434	15.92
717.752	17.18
718.069	18.09
718.387	16.9
718.705	16.93
719.022	17.22
719.34	17.66
719.657	18.19
719.975	17.11
720.292	17.04
720.609	17.04
720.927	17.41
721.244	17.27
721.561	17.93
721.878	18.78
722.195	17.79
722.512	17.18
722.829	17.75
723.146	18.15
723.463	18.19
723.779	17.96
724.096	18.47
724.413	17.52
724.729	17.71
725.046	17
725.362	17.87
725.679	17.33
725.995	17.32
726.311	17.35
726.628	17.11
726.944	16.51
727.26	19.32
727.576	17.77
727.892	18.28
728.208	18.01
728.524	17.27
728.84	18.31
729.156	17.75
729.472	17.32
729.787	18.21
730.103	17.71
730.419	18.69
730.734	19
731.05	18.12
731.365	17.76
731.681	18.96
731.996	18.33
732.311	17.41
732.626	17.91
732.942	18.55
733.257	18.15
733.572	19.13
733.887	17.43
734.202	18.61
734.517	18.12
734.832	19.19
735.146	18.35
735.461	17.83
735.776	18.92
736.091	18.24
736.405	18.11
736.72	18.68
737.034	19.11
737.349	18.51
737.663	18.33
737.977	18.8
738.292	19.24
738.606	17.79
738.92	20
739.234	17.27
739.548	17.57
739.862	18
740.176	18.19
740.49	18.44
740.804	18.44
741.117	18.11
741.431	18.53
741.745	20.07
742.058	18.06
742.372	18.59
742.685	18.67
742.999	18.45
743.312	17.54
743.626	18.96
743.939	18.32
744.252	20.63
744.565	17.91
744.878	18.19
745.191	18.61
745.505	19.87
745.817	20.75
746.13	19.33
746.443	17.91
746.756	18.56
747.069	21.58
747.381	19.14
747.694	18.98
748.007	21.99
748.319	19.12
748.632	17.67
748.944	17.69
749.256	19.38
749.569	18.18
749.881	18.93
750.193	20.78
750.505	18.38
750.817	17.03
751.129	19.16
751.441	20.92
751.753	20.78
752.065	19.68
752.377	19.86
752.689	21.03
753	18
753.312	20.19
753.624	19.34
753.935	19.16
754.247	20.41
754.558	21.29
754.869	19.61
755.181	19.98
755.492	19.94
755.803	20.11
756.114	20.3
756.425	18.61
756.736	19.9
757.047	20.15
757.358	19.28
757.669	18.97
757.98	18.83
758.291	20.03
758.601	20.21
758.912	21.26
759.223	19.33
759.533	20.13
759.844	21.45
760.154	20.36
760.464	20.93
760.775	18.71
761.085	19
761.395	20.39
761.705	20.14
762.016	20.18
762.326	19.9
762.636	21.68
762.945	19.96
763.255	18.5
763.565	21.13
763.875	19.24
764.185	20.27
764.494	21.05
764.804	20.03
765.113	20.93
765.423	20.07
765.732	19.8
766.042	20.48
766.351	20.27
766.66	19.66
766.97	20.42
767.279	21.62
767.588	20.59
767.897	20.19
768.206	20.24
768.515	22.61
768.824	21.94
769.133	19.81
769.441	19.96
769.75	19.36
770.059	21.25
770.367	20.74
770.676	20.87
770.984	17.95
771.293	20.67
771.601	20.29
771.91	20.76
772.218	21.14
772.526	22.66
772.834	19.86
773.142	21.03
773.45	24.05
773.758	21.02
774.066	21.35
774.374	21.06
774.682	23.52
774.99	20.93
775.298	21.45
775.605	19.43
775.913	20.75
776.22	22.77
776.528	23.04
776.835	21.04
777.143	20.22
777.45	22.39
777.757	19.1
778.065	25.27
778.372	18.38
778.679	20.36
778.986	22.55
779.293	22.69
779.6	20.24
779.907	19.6
780.214	22.28
780.52	17.94
780.827	20.62
781.134	21.19
781.44	19.19
781.747	23.29
782.053	20.48
782.36	19.86
782.666	25.68
782.973	21.01
783.279	18.09
783.585	21.5
783.891	19.23
784.197	23.76
784.503	22.76
784.809	19.18
785.115	21.11
785.421	20.75
785.727	22.68
786.033	20.5
786.339	20.38
786.644	24.6
786.95	21.39
787.255	20.69
787.561	22.58
787.866	22.69
788.172	20.76
788.477	20.78
788.782	23
789.088	23.8
789.393	23.06
789.698	21.5
790.003	21.61
790.308	18.24
790.613	22.07
790.918	22.23
791.223	21.81
791.527	18.81
791.832	24.3
792.137	22.61
792.441	24.95
792.746	20.58
793.05	23.06
793.355	21.32
793.659	22.32
793.963	20.73
794.268	24.73
794.572	24.67
794.876	18.23
795.18	25.26
795.484	24.26
795.788	19.55
796.092	20.99
796.396	21.9
796.7	19.94
797.004	23.77
797.307	21.23
797.611	19.9
797.915	20.85
798.218	22.94
798.522	25.33
798.825	21.83
799.128	22.93
799.432	21.14
799.735	25.46
800.038	19.61
800.341	18.7
800.644	24.1
800.947	29.26
801.25	22.95
801.553	20.21
801.856	23.39
802.159	22.14
802.462	21.84
802.764	23.54
803.067	18.69
803.37	23.08
803.672	25.45
803.975	23.36
804.277	19.68
804.579	28.52
804.882	23.53
805.184	23.74
805.486	22.44
805.788	21.29
806.09	23.51
806.392	24.95
806.694	21.17
806.996	25.83
807.298	20.73
807.6	23.85
807.902	23.33
808.203	25.07
808.505	19.96
808.807	18.46
809.108	25.59
809.409	23.83
809.711	23.32
810.012	26.45
810.313	26.37
810.615	29.4
810.916	22.86
811.217	23.47
811.518	23.26
811.819	27.98
812.12	28.15
812.421	21.46
812.722	23.42
813.023	24.68
813.323	24.01
813.624	22.96
813.925	20.08
814.225	22.39
814.526	29.91
814.826	24.17
815.126	16.97
815.427	20.61
815.727	20.66
816.027	25.14
816.327	24.22
816.627	23.48
816.927	28.18
817.227	22.01
817.527	22.57
817.827	25.71
818.127	29.94
818.427	24.2
818.727	23.54
819.026	24.57
819.326	24.54
819.625	28.47
819.925	27.97
820.224	22.83
820.524	19.01
820.823	22.5
821.122	29.81
821.421	28.62
821.72	27.12
822.019	27.07
822.318	24.54
822.617	20.77
822.916	25.68
823.215	24.62
823.514	24.8
823.813	25.73
824.111	22.01
824.41	25.32
824.709	24.51
825.007	24.96
825.306	23.77
825.604	23.9
825.902	24.24
826.201	24.85
826.499	25.41
826.797	24.02
827.095	25.79
827.393	24.86
827.691	23.08
827.989	24.23
828.287	23.32
828.585	24.42
828.882	23.99
829.18	23.97
829.478	25.8
829.775	24.48
830.073	26.24
830.37	25.2
830.668	25.57
830.965	24.22
831.263	25.81
831.56	27.03
831.857	26.59
832.154	24.85
832.451	26.48
832.748	24.63
833.045	26.39
833.342	23.62
833.639	22
833.936	31.64
834.232	26.11
834.529	25.25
834.826	24.89
835.122	27.07
835.419	24.99
835.715	25.1
836.012	25.19
836.308	25.76
836.604	26.79
836.901	26.7
837.197	27.33
837.493	24.6
837.789	25.03
838.085	27.23
838.381	28.48
838.677	27.23
838.972	25.43
839.268	27.04
839.564	23.06
839.86	24.86
840.155	30.55
840.451	27.68
840.746	25.18
841.042	30.33
841.337	28.71
841.632	24.25
841.928	23.65
842.223	21.78
842.518	27.26
842.813	29.36
843.108	24.96
843.403	22.65
843.698	25.28
843.993	25.79
844.287	28.35
844.582	25.92
844.877	16.25
845.171	23.85
845.466	18.32
845.761	25.09
846.055	25.16
846.349	18.19
846.644	26.65
846.938	23.8
847.232	28.29
847.526	25.29
847.82	20.46
848.114	18.45
848.408	16.17
848.702	7.14
848.996	-3.17
849.29	22.2
849.584	40.92
849.877	20.21
850.171	22.75
850.465	21.28
850.758	23.83
851.052	22.05
851.345	35.18
851.638	25.98
851.932	16.8
852.225	44.53
852.518	23.72
852.811	21.12
853.104	13.62
853.397	28.9
853.69	31.47
853.983	10.81
854.276	27.05
854.569	38.83
854.861	22.45
855.154	18.4
855.447	35.54
855.739	22.32
856.032	31.74
856.324	8.41
856.616	24.2
856.909	27.88
857.201	21.52
857.493	35.62
857.785	15.28
858.077	18.14
858.369	35.48
858.661	15.43
858.953	36.89
859.245	29.19
859.537	27.64
859.829	25.01
860.12	28.05
860.412	23.36
860.703	30.53
860.995	37.66
861.286	42.34
861.578	20.73
861.869	22.57
862.16	17.43
862.452	25.72
862.743	27.66
863.034	32.76
863.325	8.79
863.616	16.25
863.907	20.98
864.198	8
864.488	18.94
864.779	29.09
865.07	36.18
865.36	27.66
865.651	22.24
865.941	40.12
866.232	53.03
866.522	27.34
866.813	18.42
867.103	24.58
867.393	24.6
867.683	29.71
867.973	20.73
868.263	28.56
868.553	29.79
868.843	16.05
869.133	7.49
869.423	36.87
869.713	34.53
870.002	21.24
870.292	11.17
870.582	27.47
870.871	26.52
871.161	13.99
871.45	21.29
871.739	22.08
872.029	31.58
872.318	17.79
872.607	38.42
872.896	4.71
873.185	16.39
873.474	15.86
873.763	8.31
874.052	8.2
874.341	35.58
874.63	16.72
874.918	42.4
875.207	24.99
875.496	28.25
875.784	56.76
876.073	33.89
876.361	38.15
876.649	18.15
876.938	40.55
877.226	43.72
877.514	29.42
877.802	9.73
878.09	34.46
878.378	28.73
878.666	18.54
878.954	27.99
879.242	21.14
879.53	9.84
879.817	1.93
880.105	44.99
880.392	27.41
880.68	19.51
880.967	24.5
881.255	34.08
881.542	35.38
881.83	32.75
882.117	51.44
882.404	31.68
882.691	25.13
882.978	25.7
883.265	15.29
883.552	34.02
883.839	38.48
884.126	26.63
884.413	33.35
884.699	29.76
884.986	26.92
885.273	25.55
885.559	25.55
885.846	25.55
