Data from 0013_forehead_Reflection__4__19.txt Node

Date: Mon Oct 17 14:32:06 CDT 2022
User: ToomeyLab
Spectrometer: FLMS14357
Trigger mode: 0
Integration Time (sec): 1.000000E-2
Scans to average: 100
Electric dark correction enabled: true
Nonlinearity correction enabled: false
Boxcar width: 0
XAxis mode: Wavelengths
Number of Pixels in Spectrum: 2048
>>>>>Begin Spectral Data<<<<<
189.047	2926.03
189.435	2926.03
189.823	2926.03
190.211	34.72
190.599	167.72
190.987	-36.77
191.375	-10.23
191.763	423.18
192.151	89.74
192.538	169.42
192.926	-449.26
193.314	62.99
193.702	-105.38
194.089	197.99
194.477	-4.63
194.864	89.54
195.252	-15.57
195.639	-7.41
196.027	200.68
196.414	-98.16
196.801	38.33
197.189	168.72
197.576	209.74
197.963	-158.56
198.351	-194.34
198.738	66.47
199.125	-12.36
199.512	-103.72
199.899	-0.18
200.286	37
200.673	5.15
201.06	-35.84
201.447	5.52
201.833	27.01
202.22	25.13
202.607	-14.04
202.994	8.97
203.38	-7.58
203.767	-10.72
204.154	41.6
204.54	9.41
204.927	13.81
205.313	4.02
205.699	33.02
206.086	-19.25
206.472	34.05
206.858	24.3
207.245	24.47
207.631	-7.18
208.017	29.11
208.403	42.82
208.789	28.15
209.175	-8.4
209.561	4.41
209.947	-12.97
210.333	45.92
210.719	20.86
211.105	13.97
211.491	0.14
211.876	-0.4
212.262	21.99
212.648	10.3
213.034	12.84
213.419	30.15
213.805	-15.19
214.19	2.52
214.576	26.37
214.961	-15.33
215.346	27.37
215.732	4.52
216.117	36.44
216.502	5.77
216.888	2.92
217.273	33.12
217.658	14.67
218.043	3.86
218.428	0.77
218.813	30.49
219.198	9.75
219.583	-2.7
219.968	11.55
220.353	0.37
220.738	1.4
221.122	9.28
221.507	-3.23
221.892	18.82
222.276	1.66
222.661	4.89
223.046	8.34
223.43	5.81
223.815	-2.8
224.199	11.85
224.583	-4.34
224.968	1.9
225.352	-5.44
225.736	7.75
226.121	-0.41
226.505	3.92
226.889	7.24
227.273	6.28
227.657	6.75
228.041	3.96
228.425	0.03
228.809	4.22
229.193	1.45
229.577	4.46
229.961	4.91
230.344	2.42
230.728	2.9
231.112	2.83
231.495	2.42
231.879	3.48
232.263	3.52
232.646	3.8
233.03	1.74
233.413	1.72
233.797	3.87
234.18	4.26
234.563	2.27
234.946	3.2
235.33	3.29
235.713	2.52
236.096	3.53
236.479	2.89
236.862	2.67
237.245	3.44
237.628	3.22
238.011	2.78
238.394	2.75
238.777	2.95
239.16	4.9
239.543	2.97
239.925	4.21
240.308	2.95
240.691	2.71
241.073	3.6
241.456	3.25
241.838	3.47
242.221	2.95
242.603	3.18
242.986	2.67
243.368	3.76
243.75	2.86
244.133	3.31
244.515	3.37
244.897	3.54
245.279	3.52
245.661	3.76
246.043	3.99
246.425	2.81
246.807	2.69
247.189	3.38
247.571	3.63
247.953	3.24
248.335	3.23
248.717	3.14
249.098	3.24
249.48	3.33
249.862	3.12
250.243	2.88
250.625	3.81
251.006	3.42
251.388	3.78
251.769	3.9
252.151	3.27
252.532	3.11
252.913	3.36
253.295	2.84
253.676	3.77
254.057	3.54
254.438	3.42
254.819	4.25
255.2	4.55
255.581	4.34
255.962	2.71
256.343	2.54
256.724	3.33
257.105	3.94
257.486	3.13
257.867	2.84
258.247	3.82
258.628	3.83
259.009	3.59
259.389	3.51
259.77	3.6
260.15	3.45
260.531	2.6
260.911	2.99
261.292	3.3
261.672	3.08
262.052	3.11
262.432	3.3
262.813	3.01
263.193	3.44
263.573	3.45
263.953	3.07
264.333	3.24
264.713	2.81
265.093	3.37
265.473	2.98
265.853	2.78
266.233	4.71
266.612	3.52
266.992	4.4
267.372	3.42
267.752	3.68
268.131	3.51
268.511	3.05
268.89	3.89
269.27	3.14
269.649	3.31
270.029	3.24
270.408	3.5
270.787	3.24
271.167	3.32
271.546	3.55
271.925	3.12
272.304	2.76
272.683	3.3
273.062	3.09
273.441	2.84
273.82	3.26
274.199	3.52
274.578	3.29
274.957	2.9
275.336	3.18
275.715	3.2
276.093	3.14
276.472	3.25
276.851	3.25
277.229	2.41
277.608	3.02
277.986	3.37
278.365	3.07
278.743	3.2
279.122	2.95
279.5	3.24
279.878	3.17
280.257	2.78
280.635	3.16
281.013	4.07
281.391	2.93
281.769	2.98
282.147	3.01
282.525	3.17
282.903	2.87
283.281	2.82
283.659	2.85
284.037	3.12
284.415	3.06
284.792	3.24
285.17	2.59
285.548	2.62
285.925	3.68
286.303	3.11
286.68	3.27
287.058	3.25
287.435	2.88
287.813	3.05
288.19	3.2
288.567	2.94
288.945	3.31
289.322	3.21
289.699	3.3
290.076	3.72
290.453	3.89
290.83	3.24
291.207	3.37
291.584	3.29
291.961	3.36
292.338	3.28
292.715	3.2
293.092	3.51
293.469	3.41
293.845	3.74
294.222	4.14
294.599	3.73
294.975	3.31
295.352	3.45
295.728	3.76
296.105	3.26
296.481	3.62
296.858	3.79
297.234	3.92
297.61	3.22
297.986	3.79
298.363	3.78
298.739	4.11
299.115	3.76
299.491	3.57
299.867	3.7
300.243	3.75
300.619	3.92
300.995	4.06
301.371	3.99
301.746	3.69
302.122	3.79
302.498	4.21
302.874	4.25
303.249	4.18
303.625	4.13
304	4.42
304.376	4.09
304.751	4.63
305.127	4.54
305.502	4.38
305.878	4.1
306.253	3.91
306.628	4.31
307.003	4.36
307.378	4.33
307.754	4.45
308.129	4.15
308.504	4.57
308.879	4.61
309.254	4.63
309.629	4.08
310.003	4.83
310.378	4.38
310.753	4.28
311.128	4.42
311.502	4.66
311.877	4.77
312.252	4.44
312.626	4.95
313.001	4.47
313.375	4.69
313.75	4.74
314.124	4.73
314.498	4.65
314.873	4.49
315.247	4.56
315.621	4.97
315.995	4.71
316.369	4.61
316.743	5.11
317.117	5.34
317.491	4.65
317.865	5.34
318.239	5.49
318.613	5.17
318.987	4.95
319.361	5.26
319.734	5.6
320.108	5.24
320.482	5.14
320.855	5.15
321.229	4.74
321.602	5.2
321.976	4.99
322.349	5.28
322.723	4.69
323.096	5.28
323.469	5.54
323.843	4.97
324.216	5.62
324.589	5.99
324.962	5.3
325.335	5.42
325.708	6.28
326.081	5.62
326.454	6.01
326.827	5.59
327.2	5.35
327.573	5.78
327.945	5.73
328.318	5.57
328.691	5.29
329.063	5.46
329.436	5.88
329.809	5.36
330.181	6.02
330.553	5.75
330.926	6.04
331.298	5.81
331.671	6.23
332.043	6.15
332.415	6.39
332.787	5.93
333.159	6.53
333.532	6.03
333.904	5.63
334.276	5.87
334.648	6.16
335.02	6.18
335.391	6.23
335.763	6.69
336.135	6.13
336.507	6.42
336.879	6.42
337.25	6.51
337.622	6.57
337.993	6.46
338.365	6.28
338.736	6.47
339.108	6.27
339.479	6.39
339.851	6.45
340.222	6.28
340.593	6.49
340.964	6.67
341.336	6.1
341.707	6.63
342.078	7.14
342.449	6.56
342.82	6.64
343.191	6.87
343.562	6.9
343.933	6.85
344.303	6.28
344.674	6.97
345.045	6.94
345.416	6.69
345.786	7.08
346.157	6.89
346.527	6.8
346.898	6.94
347.268	7.14
347.639	6.84
348.009	6.87
348.38	6.82
348.75	6.78
349.12	7.2
349.49	7.04
349.861	7.57
350.231	7.17
350.601	6.91
350.971	6.91
351.341	7.05
351.711	6.84
352.081	7.16
352.45	7.47
352.82	7.42
353.19	7.07
353.56	7.01
353.929	7.55
354.299	7.64
354.669	7.5
355.038	7.56
355.408	7.54
355.777	7.47
356.147	7.16
356.516	7.27
356.885	7.74
357.254	7.64
357.624	8.02
357.993	7.9
358.362	7.38
358.731	7.58
359.1	7.63
359.469	7.57
359.838	7.61
360.207	8.18
360.576	7.62
360.945	8.25
361.314	8.34
361.682	7.88
362.051	7.59
362.42	7.83
362.788	7.95
363.157	8.07
363.525	7.76
363.894	8.07
364.262	8.03
364.631	8.33
364.999	8.08
365.367	7.95
365.735	8.12
366.104	8.08
366.472	7.87
366.84	8.45
367.208	8.3
367.576	8.05
367.944	8.34
368.312	8.38
368.68	8.53
369.048	8.29
369.416	8.34
369.783	8.59
370.151	8.92
370.519	8.52
370.886	8.72
371.254	8.74
371.621	8.57
371.989	8.76
372.356	8.94
372.724	8.67
373.091	8.79
373.458	8.72
373.826	9.25
374.193	9.13
374.56	8.7
374.927	9.2
375.294	9.02
375.661	8.9
376.028	9.03
376.395	8.99
376.762	9.01
377.129	9.17
377.496	9.07
377.863	8.78
378.229	8.84
378.596	9.24
378.963	8.99
379.329	8.97
379.696	9.15
380.062	9.44
380.429	9.19
380.795	9.62
381.161	9.52
381.528	9.63
381.894	9.4
382.26	9.17
382.626	9.77
382.993	9.93
383.359	9.54
383.725	9.67
384.091	9.73
384.457	9.65
384.823	9.45
385.188	9.8
385.554	9.66
385.92	9.8
386.286	10
386.651	10.13
387.017	9.9
387.383	9.86
387.748	9.7
388.114	9.89
388.479	9.96
388.845	10.02
389.21	9.91
389.575	10.09
389.94	10.35
390.306	10.26
390.671	10.56
391.036	10.33
391.401	10.52
391.766	10.27
392.131	10.28
392.496	10.32
392.861	10.3
393.226	10.31
393.591	10.11
393.956	10.36
394.32	10.45
394.685	10.48
395.05	10.39
395.414	10.56
395.779	10.45
396.143	10.53
396.508	10.53
396.872	10.85
397.236	10.65
397.601	10.78
397.965	10.9
398.329	10.86
398.694	10.88
399.058	11.02
399.422	11
399.786	10.86
400.15	11.15
400.514	10.9
400.878	11
401.242	11.07
401.605	11.42
401.969	11.08
402.333	11.06
402.697	11.06
403.06	11.06
403.424	11.45
403.787	11.14
404.151	11.13
404.514	11.3
404.878	11.26
405.241	11.2
405.604	11.33
405.968	11.2
406.331	11.3
406.694	11.39
407.057	11.35
407.42	11.31
407.783	11.38
408.146	11.66
408.509	11.82
408.872	11.75
409.235	11.68
409.598	11.71
409.961	11.51
410.323	11.98
410.686	11.86
411.049	11.85
411.411	11.95
411.774	11.77
412.136	11.8
412.499	12
412.861	12.28
413.223	12.09
413.586	11.92
413.948	11.99
414.31	11.87
414.672	12.06
415.035	12.3
415.397	12.47
415.759	12.27
416.121	12.29
416.483	12.52
416.845	12.47
417.206	12.14
417.568	12.28
417.93	12.27
418.292	12.55
418.653	12.39
419.015	12.32
419.377	12.36
419.738	12.12
420.1	12.3
420.461	12.22
420.822	12.49
421.184	12.42
421.545	12.34
421.906	12.47
422.267	12.31
422.629	12.27
422.99	12.25
423.351	12.52
423.712	12.58
424.073	12.59
424.434	12.66
424.795	12.94
425.155	12.73
425.516	12.53
425.877	12.49
426.238	12.5
426.598	12.68
426.959	12.84
427.32	12.95
427.68	13
428.041	13.11
428.401	13.3
428.761	13.38
429.122	13.46
429.482	13.4
429.842	13.52
430.202	13.66
430.563	13.6
430.923	13.54
431.283	13.49
431.643	13.52
432.003	13.6
432.363	13.78
432.722	13.57
433.082	13.55
433.442	13.76
433.802	13.71
434.161	13.55
434.521	13.69
434.881	13.5
435.24	13.41
435.6	13.71
435.959	13.59
436.319	13.9
436.678	13.83
437.037	14.02
437.396	14.12
437.756	14.06
438.115	13.95
438.474	14.14
438.833	13.96
439.192	14.04
439.551	14.05
439.91	14.05
440.269	14.02
440.628	14.12
440.987	13.99
441.345	13.95
441.704	13.96
442.063	13.94
442.421	14.16
442.78	14.11
443.138	14.17
443.497	14.35
443.855	14.56
444.214	14.49
444.572	14.5
444.93	14.49
445.288	14.51
445.647	14.58
446.005	14.59
446.363	14.38
446.721	14.38
447.079	14.35
447.437	14.35
447.795	14.32
448.153	14.22
448.51	14.34
448.868	14.56
449.226	14.68
449.584	14.74
449.941	14.98
450.299	15.11
450.656	15.04
451.014	15.11
451.371	15.2
451.729	15.14
452.086	15.28
452.443	15.36
452.801	15.29
453.158	15.28
453.515	15.19
453.872	15.14
454.229	15.23
454.586	15.29
454.943	15.27
455.3	15.31
455.657	15.4
456.014	15.46
456.371	15.4
456.727	15.47
457.084	15.47
457.441	15.57
457.797	15.63
458.154	15.65
458.51	15.75
458.867	15.82
459.223	15.84
459.58	15.76
459.936	15.49
460.292	15.68
460.648	15.58
461.005	15.49
461.361	15.46
461.717	15.3
462.073	15.41
462.429	15.74
462.785	16
463.141	16.03
463.496	16.2
463.852	16.15
464.208	16.34
464.564	16.3
464.919	16.42
465.275	16.4
465.631	16.43
465.986	16.57
466.342	16.26
466.697	16.36
467.052	16.27
467.408	16.39
467.763	16.32
468.118	16.33
468.473	16.42
468.829	16.51
469.184	16.47
469.539	16.38
469.894	16.56
470.249	16.75
470.603	16.65
470.958	16.76
471.313	16.65
471.668	16.84
472.023	16.76
472.377	17.01
472.732	16.68
473.086	16.97
473.441	16.99
473.795	16.96
474.15	16.92
474.504	16.97
474.859	16.88
475.213	17.06
475.567	17.26
475.921	17.19
476.275	17.25
476.63	17.41
476.984	17.29
477.338	17.42
477.692	17.3
478.045	17.48
478.399	17.28
478.753	17.42
479.107	17.4
479.461	17.44
479.814	17.46
480.168	17.56
480.521	17.49
480.875	17.48
481.228	17.56
481.582	17.74
481.935	17.71
482.289	17.52
482.642	17.42
482.995	17.71
483.348	17.57
483.701	17.46
484.055	17.47
484.408	17.55
484.761	17.25
485.114	16.8
485.466	16.48
485.819	16.48
486.172	16.82
486.525	17.23
486.878	17.48
487.23	17.78
487.583	17.9
487.936	17.79
488.288	17.63
488.641	17.3
488.993	17.17
489.345	17.12
489.698	17.29
490.05	17.5
490.402	17.58
490.754	17.95
491.107	18.12
491.459	18.4
491.811	18.52
492.163	18.41
492.515	18.39
492.866	17.9
493.218	17.55
493.57	17.59
493.922	17.79
494.274	18.21
494.625	18.59
494.977	18.73
495.328	18.79
495.68	19.03
496.031	19.14
496.383	19.06
496.734	19.05
497.086	19.07
497.437	19.1
497.788	19.15
498.139	18.84
498.49	18.86
498.842	18.89
499.193	18.83
499.544	18.97
499.894	18.95
500.245	19.16
500.596	19.06
500.947	19.28
501.298	19.42
501.648	19.46
501.999	19.48
502.35	19.55
502.7	19.74
503.051	19.7
503.401	19.74
503.752	19.69
504.102	19.67
504.452	19.57
504.803	19.7
505.153	19.8
505.503	19.76
505.853	19.83
506.203	19.66
506.553	19.85
506.903	19.79
507.253	19.95
507.603	20.02
507.953	20.08
508.303	19.96
508.652	20.08
509.002	20.23
509.352	19.81
509.701	19.83
510.051	19.91
510.4	19.77
510.75	19.83
511.099	20.08
511.449	20.1
511.798	20.19
512.147	20.26
512.496	20.26
512.846	20.45
513.195	20.6
513.544	20.37
513.893	20.33
514.242	20.47
514.591	20.39
514.939	20.47
515.288	20.53
515.637	20.75
515.986	20.88
516.334	20.95
516.683	20.9
517.032	21.03
517.38	20.81
517.729	21.09
518.077	21.05
518.426	20.86
518.774	21
519.122	20.77
519.47	20.85
519.819	20.68
520.167	20.61
520.515	20.54
520.863	20.68
521.211	20.92
521.559	21.08
521.907	21.25
522.255	21.21
522.602	21.44
522.95	21.47
523.298	21.63
523.645	21.6
523.993	21.57
524.341	21.73
524.688	21.72
525.036	21.63
525.383	21.68
525.73	21.84
526.078	21.82
526.425	21.64
526.772	21.53
527.119	21.22
527.466	21.07
527.814	21.23
528.161	21.55
528.508	21.69
528.854	21.81
529.201	21.7
529.548	21.56
529.895	20.97
530.242	20.68
530.588	20.66
530.935	21.04
531.282	21.47
531.628	21.72
531.975	21.89
532.321	21.99
532.667	22.23
533.014	22.24
533.36	22.24
533.706	22.19
534.052	22.23
534.399	22.06
534.745	21.56
535.091	21.39
535.437	21.75
535.783	21.92
536.129	22.36
536.474	22.67
536.82	22.89
537.166	22.88
537.512	22.76
537.857	22.61
538.203	22.36
538.549	22.14
538.894	22.47
539.239	22.76
539.585	22.94
539.93	23.22
540.276	23.36
540.621	23.33
540.966	23.38
541.311	23.25
541.656	23.25
542.001	22.95
542.346	22.88
542.691	22.35
543.036	22.03
543.381	22.15
543.726	22.41
544.071	22.76
544.415	23.11
544.76	23.18
545.105	23.06
545.449	23.29
545.794	23.56
546.138	23.53
546.483	23.62
546.827	23.77
547.171	23.57
547.516	23.62
547.86	23.63
548.204	23.46
548.548	23.29
548.892	23.62
549.236	23.74
549.58	24
549.924	24.15
550.268	24.27
550.612	24.52
550.956	24.52
551.3	24.51
551.643	24.77
551.987	24.78
552.33	24.48
552.674	24.69
553.017	24.59
553.361	24.61
553.704	24.4
554.048	24.4
554.391	24.51
554.734	24.31
555.077	24.37
555.42	24.64
555.764	24.79
556.107	25.01
556.45	24.91
556.793	25.15
557.135	25.16
557.478	25.02
557.821	25.1
558.164	25.27
558.507	25.2
558.849	25.07
559.192	25.39
559.534	25.28
559.877	25.29
560.219	25.24
560.562	25.12
560.904	25.35
561.246	25.45
561.589	25.5
561.931	25.46
562.273	25.66
562.615	25.58
562.957	25.47
563.299	25.68
563.641	25.52
563.983	25.6
564.325	25.94
564.667	25.91
565.008	25.85
565.35	25.91
565.692	26.18
566.033	25.77
566.375	25.73
566.716	26.05
567.058	25.81
567.399	25.71
567.741	25.6
568.082	25.72
568.423	25.74
568.764	25.94
569.105	26.06
569.447	26.18
569.788	26.23
570.129	26.22
570.47	26.37
570.811	26.28
571.151	26.49
571.492	26.33
571.833	26.36
572.174	26.59
572.514	26.65
572.855	26.49
573.195	26.36
573.536	26.16
573.876	26.33
574.217	26.47
574.557	26.43
574.898	26.74
575.238	26.9
575.578	26.9
575.918	26.83
576.258	26.92
576.598	26.84
576.938	26.74
577.278	26.77
577.618	27.02
577.958	26.96
578.298	27.21
578.638	27.42
578.977	27.38
579.317	26.99
579.657	27.61
579.996	27.44
580.336	27.63
580.675	27.65
581.014	27.3
581.354	27.4
581.693	27.67
582.032	27.7
582.372	27.4
582.711	27.67
583.05	27.85
583.389	27.69
583.728	27.65
584.067	28.27
584.406	28.04
584.745	27.91
585.083	27.99
585.422	27.91
585.761	27.92
586.1	27.97
586.438	28.1
586.777	28.25
587.115	28.26
587.454	28.3
587.792	28.06
588.13	27.92
588.469	28.34
588.807	28.23
589.145	28.25
589.483	28.21
589.821	28.4
590.159	28.6
590.497	28.42
590.835	28.58
591.173	28.47
591.511	28.63
591.849	28.5
592.187	28.61
592.524	28.73
592.862	28.65
593.2	28.8
593.537	28.7
593.875	28.71
594.212	28.97
594.55	28.79
594.887	29.21
595.224	28.99
595.561	28.86
595.899	29.07
596.236	29.1
596.573	29.02
596.91	29.05
597.247	29.16
597.584	29.09
597.921	29.1
598.258	29.11
598.594	28.44
598.931	28.41
599.268	28.97
599.604	29.04
599.941	29.2
600.277	29.42
600.614	29.61
600.95	29.47
601.287	29.65
601.623	29.72
601.959	29.67
602.296	29.65
602.632	29.52
602.968	29.81
603.304	29.68
603.64	29.76
603.976	29.7
604.312	30.03
604.648	29.55
604.984	29.46
605.319	29.34
605.655	29.67
605.991	29.54
606.326	29.24
606.662	29.28
606.998	29.47
607.333	30.03
607.668	29.91
608.004	30.52
608.339	30.36
608.674	30.68
609.01	30.54
609.345	30.36
609.68	30.51
610.015	30.42
610.35	30.09
610.685	29.84
611.02	29.86
611.355	29.7
611.689	29.95
612.024	30.34
612.359	30.5
612.694	30.61
613.028	30.8
613.363	30.59
613.697	30.78
614.032	30.98
614.366	31.02
614.7	31.01
615.035	30.91
615.369	30.97
615.703	31.14
616.037	31.29
616.371	30.81
616.705	30.87
617.039	31.17
617.373	30.87
617.707	30.5
618.041	30.84
618.375	30.86
618.709	31.38
619.042	31.19
619.376	31.26
619.71	31.18
620.043	31.19
620.377	31.35
620.71	31.11
621.043	31.45
621.377	31
621.71	31.55
622.043	31.43
622.376	31.32
622.709	31.9
623.043	31.15
623.376	31.5
623.709	31.72
624.041	31.5
624.374	31.83
624.707	31.73
625.04	31.46
625.373	31.93
625.705	31.91
626.038	31.92
626.37	32.27
626.703	32.28
627.035	31.99
627.368	31.97
627.7	32.09
628.032	31.64
628.365	31.93
628.697	31.94
629.029	31.9
629.361	32
629.693	32.14
630.025	31.98
630.357	32.41
630.689	32.1
631.021	32.43
631.353	32.32
631.684	32.37
632.016	32.23
632.348	32.58
632.679	32.92
633.011	32.34
633.342	32.09
633.674	32.7
634.005	32.21
634.336	32.38
634.668	32.87
634.999	32.4
635.33	32.5
635.661	32.38
635.992	32.43
636.323	32.65
636.654	32.61
636.985	32.64
637.316	32.73
637.647	33.09
637.977	32.85
638.308	32.9
638.639	32.91
638.969	33.11
639.3	32.79
639.63	33.16
639.961	33.3
640.291	33.14
640.622	33.22
640.952	33.35
641.282	33.27
641.612	33.25
641.943	32.99
642.273	33.1
642.603	33.37
642.933	33.41
643.263	33.37
643.592	33.5
643.922	33.14
644.252	33.41
644.582	33.62
644.911	34.28
645.241	33.4
645.571	32.91
645.9	33.46
646.23	33.4
646.559	33.66
646.888	33.47
647.218	33.45
647.547	33.38
647.876	33.99
648.205	33.96
648.534	33.2
648.863	33.41
649.192	33.64
649.521	33.94
649.85	33.52
650.179	34.1
650.508	33.73
650.837	33.34
651.165	34.04
651.494	33.91
651.822	34
652.151	33.7
652.479	33.95
652.808	34.23
653.136	33.93
653.465	33.6
653.793	34.64
654.121	34.05
654.449	34.05
654.777	33.99
655.105	34.38
655.433	34.6
655.761	34.36
656.089	34.57
656.417	34.71
656.745	34.32
657.073	34.82
657.4	35.03
657.728	34.84
658.056	34.4
658.383	34.21
658.711	34.49
659.038	34.51
659.365	34.78
659.693	34.7
660.02	34.36
660.347	34.74
660.674	34.53
661.001	34.6
661.329	34.53
661.656	34.58
661.982	34.93
662.309	35.01
662.636	34.85
662.963	35.13
663.29	35
663.616	34.49
663.943	35.04
664.27	35.28
664.596	35.15
664.923	34.7
665.249	34.83
665.576	35.29
665.902	35.19
666.228	35.09
666.554	35.17
666.881	35.52
667.207	35.33
667.533	35.32
667.859	35.21
668.185	35.16
668.511	35.8
668.837	35.42
669.162	35.25
669.488	35.21
669.814	35.77
670.139	35.55
670.465	35.48
670.791	35.37
671.116	35.64
671.442	35.2
671.767	35.71
672.092	35.08
672.418	35.82
672.743	35.33
673.068	35.55
673.393	35.82
673.718	35.87
674.043	36.11
674.368	35.64
674.693	35.85
675.018	35.77
675.343	35.7
675.667	35.78
675.992	35.8
676.317	35.58
676.641	35.61
676.966	35.96
677.29	35.64
677.615	35.47
677.939	36.22
678.264	36.31
678.588	36.02
678.912	36.01
679.236	36.56
679.56	36.04
679.885	36.41
680.209	36.23
680.532	36.04
680.856	36.74
681.18	35.81
681.504	36.33
681.828	35.81
682.152	35.89
682.475	36.38
682.799	36.46
683.122	36.05
683.446	36.73
683.769	35.79
684.093	35.58
684.416	37.05
684.739	36.42
685.062	36.42
685.386	36.53
685.709	36.32
686.032	36.65
686.355	36.7
686.678	35.98
687.001	37.03
687.324	36.95
687.646	36.18
687.969	36.26
688.292	36.72
688.614	36.1
688.937	36.42
689.26	37.47
689.582	35.49
689.904	36.89
690.227	37.05
690.549	37.39
690.871	36.59
691.194	36.45
691.516	36.56
691.838	37.25
692.16	37.33
692.482	36.66
692.804	36.76
693.126	37.2
693.448	37.75
693.769	38.12
694.091	37.04
694.413	37.16
694.735	36.47
695.056	37.19
695.378	36.17
695.699	37.5
696.021	37.24
696.342	37.85
696.663	38.12
696.984	37.14
697.306	37.78
697.627	37.23
697.948	37.54
698.269	37.84
698.59	37.45
698.911	38.24
699.232	37.27
699.553	37.27
699.873	37.25
700.194	37.09
700.515	37.11
700.835	36.58
701.156	37.47
701.477	37.48
701.797	37.86
702.117	38.1
702.438	37.54
702.758	38.61
703.078	37.54
703.398	38.88
703.719	38.18
704.039	38.56
704.359	38.18
704.679	37.63
704.999	38.07
705.319	38.32
705.638	38.09
705.958	38.1
706.278	38.14
706.597	37.62
706.917	38.55
707.237	38.58
707.556	38.36
707.876	37.63
708.195	37.67
708.514	38.53
708.834	37.88
709.153	37.69
709.472	37.67
709.791	38.41
710.11	37.75
710.429	38.36
710.748	38.95
711.067	39.07
711.386	37.51
711.705	38.34
712.023	38.99
712.342	40
712.661	39.04
712.979	38.2
713.298	38.07
713.616	38.15
713.935	37.53
714.253	38.43
714.572	38.86
714.89	39.04
715.208	38.03
715.526	38.14
715.844	39.03
716.162	39.42
716.48	38.33
716.798	38.9
717.116	38.39
717.434	38.14
717.752	37.82
718.069	39.06
718.387	39.08
718.705	38.03
719.022	38.61
719.34	39.18
719.657	39.59
719.975	38.81
720.292	39.55
720.609	38.55
720.927	38.97
721.244	37.52
721.561	39.78
721.878	38.4
722.195	38.8
722.512	39.77
722.829	39.85
723.146	38.8
723.463	40.34
723.779	39.28
724.096	39.24
724.413	40.36
724.729	39.97
725.046	39.53
725.362	40.6
725.679	38.28
725.995	38.58
726.311	38.8
726.628	38.84
726.944	37.97
727.26	40.14
727.576	39.41
727.892	39.32
728.208	39.24
728.524	38.64
728.84	39.07
729.156	39.62
729.472	39.19
729.787	39.3
730.103	39.25
730.419	38.91
730.734	41.28
731.05	39.39
731.365	38.76
731.681	40.52
731.996	38.46
732.311	38.43
732.626	39.02
732.942	41.15
733.257	40.18
733.572	39.38
733.887	39.54
734.202	39.49
734.517	39.69
734.832	39.16
735.146	40.05
735.461	39.24
735.776	39.95
736.091	40.43
736.405	40.2
736.72	38.81
737.034	39.38
737.349	39.48
737.663	40.61
737.977	40.35
738.292	39.7
738.606	38.97
738.92	41.29
739.234	38.39
739.548	40.16
739.862	40.35
740.176	38.5
740.49	39.26
740.804	39.83
741.117	38.8
741.431	39.34
741.745	41.65
742.058	38.86
742.372	39.26
742.685	40.3
742.999	39.61
743.312	40.87
743.626	41.2
743.939	39.15
744.252	40.05
744.565	38.94
744.878	38.93
745.191	39.15
745.505	41.12
745.817	41.01
746.13	40.47
746.443	38.9
746.756	39.24
747.069	41.86
747.381	39.67
747.694	41.1
748.007	42.5
748.319	39.83
748.632	40.37
748.944	39.12
749.256	41.09
749.569	41.32
749.881	39.32
750.193	40.3
750.505	38.9
750.817	38.95
751.129	40.95
751.441	40.9
751.753	41.51
752.065	40.48
752.377	42.29
752.689	42.65
753	40.18
753.312	41.48
753.624	41.13
753.935	40.54
754.247	41.02
754.558	41.64
754.869	40.83
755.181	39.73
755.492	41.36
755.803	39.93
756.114	39.92
756.425	39.6
756.736	41.65
757.047	41.07
757.358	40.3
757.669	39.17
757.98	39.79
758.291	42.84
758.601	40.14
758.912	41.72
759.223	40.46
759.533	39.97
759.844	41
760.154	41.74
760.464	40.83
760.775	40.48
761.085	42.78
761.395	41.03
761.705	41.38
762.016	41.69
762.326	40.97
762.636	40.88
762.945	41.12
763.255	41.04
763.565	42.1
763.875	40.29
764.185	40.99
764.494	42.32
764.804	41.65
765.113	40.71
765.423	39.52
765.732	40.78
766.042	40.53
766.351	40.46
766.66	40.87
766.97	40.45
767.279	41.09
767.588	41.56
767.897	40.92
768.206	43.06
768.515	41.77
768.824	41.67
769.133	40.43
769.441	42.54
769.75	41.24
770.059	41.94
770.367	40.59
770.676	42.67
770.984	41.97
771.293	41.1
771.601	41.07
771.91	40.45
772.218	41.11
772.526	40.89
772.834	41.79
773.142	41.41
773.45	44.25
773.758	40.89
774.066	42.19
774.374	41.37
774.682	42.64
774.99	40.54
775.298	42.47
775.605	40.76
775.913	41.3
776.22	42.05
776.528	39.72
776.835	43.05
777.143	41.17
777.45	40.98
777.757	41.71
778.065	44.19
778.372	41.48
778.679	41.57
778.986	42.16
779.293	41.27
779.6	40.23
779.907	40.93
780.214	40.13
780.52	40.49
780.827	38.54
781.134	37.85
781.44	41.11
781.747	42.85
782.053	41.22
782.36	37.8
782.666	43.19
782.973	42.95
783.279	38.17
783.585	41
783.891	43.78
784.197	42.77
784.503	40.45
784.809	39.35
785.115	42.07
785.421	40.92
785.727	41.21
786.033	39.67
786.339	41.14
786.644	45.24
786.95	41.48
787.255	43.27
787.561	44.03
787.866	44.02
788.172	38.84
788.477	41.41
788.782	41.95
789.088	40.74
789.393	43.75
789.698	43.08
790.003	42.17
790.308	39.51
790.613	42.97
790.918	40.76
791.223	41.1
791.527	40.86
791.832	45.13
792.137	41.23
792.441	43.2
792.746	43.59
793.05	43.25
793.355	45.57
793.659	42.45
793.963	43.54
794.268	47.13
794.572	40.89
794.876	42.77
795.18	46.54
795.484	42.58
795.788	41.51
796.092	46.17
796.396	41.54
796.7	41.8
797.004	44.67
797.307	38.2
797.611	40.96
797.915	45.43
798.218	43.52
798.522	44.66
798.825	44.72
799.128	44.85
799.432	43.14
799.735	44.59
800.038	41.66
800.341	39.76
800.644	43.69
800.947	41.15
801.25	43.44
801.553	41.6
801.856	40.43
802.159	43.57
802.462	44.01
802.764	45.33
803.067	41.39
803.37	40.39
803.672	46.5
803.975	41.92
804.277	41.61
804.579	44.57
804.882	41.51
805.184	41.63
805.486	41.36
805.788	46.35
806.09	47.48
806.392	41.23
806.694	42.1
806.996	43.14
807.298	40.32
807.6	45.34
807.902	41.47
808.203	41.81
808.505	41.33
808.807	44.04
809.108	45.82
809.409	44.07
809.711	43.64
810.012	45.37
810.313	42.65
810.615	44.8
810.916	39.72
811.217	43.73
811.518	43.46
811.819	45.36
812.12	43.94
812.421	38.83
812.722	43.64
813.023	40.1
813.323	50.62
813.624	42.18
813.925	41.98
814.225	39.74
814.526	42.93
814.826	42.98
815.126	43.2
815.427	39.7
815.727	44.92
816.027	45.62
816.327	40.37
816.627	44.03
816.927	45.95
817.227	45.54
817.527	43.92
817.827	45.77
818.127	47.96
818.427	37.07
818.727	45.8
819.026	45.2
819.326	43.2
819.625	45.96
819.925	43.07
820.224	38.1
820.524	42.45
820.823	45.5
821.122	44.83
821.421	41.87
821.72	47.91
822.019	42.07
822.318	45.4
822.617	44.51
822.916	45.83
823.215	44.1
823.514	42.81
823.813	44.52
824.111	41.51
824.41	43.45
824.709	43.28
825.007	43.35
825.306	43.45
825.604	43.94
825.902	44.55
826.201	44.3
826.499	45.49
826.797	45.34
827.095	46.44
827.393	45.57
827.691	44.26
827.989	46.3
828.287	44.69
828.585	45.97
828.882	44.9
829.18	44.27
829.478	44.18
829.775	44.77
830.073	45.73
830.37	44.32
830.668	46.28
830.965	44.25
831.263	45.66
831.56	48.48
831.857	45.71
832.154	46.45
832.451	46.49
832.748	43.08
833.045	49.85
833.342	47.14
833.639	43.54
833.936	45.24
834.232	45.71
834.529	40.38
834.826	42.29
835.122	44.38
835.419	44.08
835.715	45.46
836.012	47.46
836.308	45.48
836.604	45.27
836.901	45.54
837.197	44.36
837.493	44.18
837.789	44.92
838.085	45.23
838.381	49.46
838.677	48.37
838.972	43.41
839.268	47.6
839.564	43.49
839.86	51.69
840.155	50.86
840.451	47
840.746	46.63
841.042	51.63
841.337	46.96
841.632	47.86
841.928	44.81
842.223	42.79
842.518	40.4
842.813	46.05
843.108	40.76
843.403	43.67
843.698	49.46
843.993	41.34
844.287	48.73
844.582	45.97
844.877	41.54
845.171	39.77
845.466	48.77
845.761	37.55
846.055	41.35
846.349	43.35
846.644	46.32
846.938	39.55
847.232	45.85
847.526	33.98
847.82	32.34
848.114	51.43
848.408	31.64
848.702	31.36
848.996	40.62
849.29	43.12
849.584	46.39
849.877	42.2
850.171	53.09
850.465	48.39
850.758	49.67
851.052	40.46
851.345	53.77
851.638	56.93
851.932	43.87
852.225	52.66
852.518	53.63
852.811	40.72
853.104	33.5
853.397	47.1
853.69	46.02
853.983	40.78
854.276	48.98
854.569	53.68
854.861	44.85
855.154	65.56
855.447	40.3
855.739	46.27
856.032	37.29
856.324	35.76
856.616	35.64
856.909	51.42
857.201	39.66
857.493	43.09
857.785	49.25
858.077	41.95
858.369	49.07
858.661	41.48
858.953	53.27
859.245	32.65
859.537	43.83
859.829	26.27
860.12	42.14
860.412	35.02
860.703	29.39
860.995	53.07
861.286	40.63
861.578	68.19
861.869	51.22
862.16	55.1
862.452	53.92
862.743	42.74
863.034	47.81
863.325	24.06
863.616	51.67
863.907	40.53
864.198	42.82
864.488	35.63
864.779	53.16
865.07	52.04
865.36	37.42
865.651	43.37
865.941	64.8
866.232	29.8
866.522	22.44
866.813	51.12
867.103	19.82
867.393	29.07
867.683	62.6
867.973	20.32
868.263	69.43
868.553	29.25
868.843	43.32
869.133	45.02
869.423	50.1
869.713	51.67
870.002	46.72
870.292	31.08
870.582	61.82
870.871	49.08
871.161	27.08
871.45	13.19
871.739	47.76
872.029	53.57
872.318	43.9
872.607	65.26
872.896	42.75
873.185	30.09
873.474	28.89
873.763	29.33
874.052	22.9
874.341	54.63
874.63	34.8
874.918	38.93
875.207	53.1
875.496	21.76
875.784	47.41
876.073	48.37
876.361	49.18
876.649	54.97
876.938	48.17
877.226	45.18
877.514	37.83
877.802	36.9
878.09	50.65
878.378	51.51
878.666	45.06
878.954	35.53
879.242	34.44
879.53	35.5
879.817	28.72
880.105	45.84
880.392	42.55
880.68	42.23
880.967	56.15
881.255	51.32
881.542	53.95
881.83	41.85
882.117	70.07
882.404	49.15
882.691	56.45
882.978	43.02
883.265	39.53
883.552	51.97
883.839	56.79
884.126	37.59
884.413	44.91
884.699	42.73
884.986	47.3
885.273	45.37
885.559	45.37
885.846	45.37
