Data from 97276_chest_Reflection__1__107.txt Node

Date: Fri Sep 23 20:32:09 CDT 2022
User: ToomeyLab
Spectrometer: FLMS14357
Trigger mode: 0
Integration Time (sec): 1.000000E-2
Scans to average: 100
Electric dark correction enabled: true
Nonlinearity correction enabled: false
Boxcar width: 0
XAxis mode: Wavelengths
Number of Pixels in Spectrum: 2048
>>>>>Begin Spectral Data<<<<<
189.047	-100.35
189.435	-100.35
189.823	-100.35
190.211	-3.71
190.599	285.36
190.987	109.96
191.375	-94.04
191.763	68.94
192.151	-117.02
192.538	46.57
192.926	34.3
193.314	71.38
193.702	53.54
194.089	242.48
194.477	110.97
194.864	298.09
195.252	61.14
195.639	6.45
196.027	-10.68
196.414	108.05
196.801	102.09
197.189	-47.72
197.576	158.17
197.963	-37.48
198.351	52.89
198.738	-4.26
199.125	18.34
199.512	23.01
199.899	14.06
200.286	-21.79
200.673	4.54
201.06	-11.55
201.447	9.97
201.833	44.37
202.22	12.83
202.607	21.54
202.994	6.42
203.38	-31.11
203.767	-18.65
204.154	30.26
204.54	24.62
204.927	48.67
205.313	8.28
205.699	-28.97
206.086	-21.41
206.472	34.01
206.858	31.69
207.245	-0.27
207.631	26.11
208.017	21.16
208.403	19.7
208.789	5.61
209.175	12.76
209.561	18.26
209.947	23.68
210.333	-8.49
210.719	15.05
211.105	15.79
211.491	-18.73
211.876	-14.83
212.262	0.37
212.648	-22.78
213.034	-18.97
213.419	-31.98
213.805	21.48
214.19	16.11
214.576	3.55
214.961	5.87
215.346	-34.5
215.732	20.48
216.117	5.6
216.502	10.25
216.888	-6.56
217.273	2.46
217.658	-27.39
218.043	25.14
218.428	13.27
218.813	27.73
219.198	-5.11
219.583	3.93
219.968	0.15
220.353	32.84
220.738	9.83
221.122	-4.74
221.507	6.1
221.892	14.36
222.276	-12.79
222.661	7.6
223.046	5.71
223.43	-7.85
223.815	8.99
224.199	6.55
224.583	8.14
224.968	2.24
225.352	4.65
225.736	-2.94
226.121	7.51
226.505	0.39
226.889	7.32
227.273	5.16
227.657	0.21
228.041	1.85
228.425	4.97
228.809	6.55
229.193	5.24
229.577	4.48
229.961	3.98
230.344	4.6
230.728	3.8
231.112	3.5
231.495	3.3
231.879	2.96
232.263	5.08
232.646	4.48
233.03	3.69
233.413	3.99
233.797	5
234.18	5.76
234.563	4.15
234.946	7.84
235.33	4.36
235.713	5.96
236.096	1.96
236.479	3.73
236.862	2.7
237.245	3.96
237.628	4.99
238.011	4.63
238.394	3.87
238.777	4.94
239.16	4.8
239.543	3.8
239.925	4.3
240.308	5.78
240.691	6.49
241.073	2.1
241.456	2.46
241.838	5.3
242.221	4.88
242.603	4.9
242.986	4.16
243.368	3.84
243.75	3.98
244.133	4.01
244.515	3.79
244.897	4.26
245.279	4.53
245.661	4.69
246.043	4.64
246.425	2.87
246.807	4.38
247.189	5.14
247.571	4.23
247.953	3.98
248.335	4.16
248.717	4.18
249.098	4.01
249.48	3.99
249.862	4.03
250.243	4.35
250.625	3.86
251.006	4.16
251.388	3.93
251.769	4.54
252.151	3.56
252.532	4.16
252.913	4.69
253.295	4.35
253.676	4.08
254.057	4.01
254.438	3.91
254.819	4.41
255.2	3.85
255.581	5.18
255.962	4.75
256.343	4.97
256.724	4.18
257.105	3.76
257.486	4.21
257.867	3.16
258.247	4.05
258.628	3.55
259.009	3.76
259.389	3.9
259.77	2.79
260.15	3.59
260.531	3.61
260.911	4.11
261.292	3.93
261.672	3.62
262.052	3.75
262.432	3.58
262.813	3.81
263.193	3.44
263.573	4.01
263.953	3.86
264.333	3.84
264.713	4.21
265.093	4.07
265.473	4.19
265.853	4.01
266.233	3.53
266.612	4.22
266.992	4.16
267.372	3.78
267.752	3.86
268.131	4.39
268.511	4.07
268.89	3.51
269.27	3.85
269.649	3.97
270.029	3.82
270.408	3.9
270.787	3.26
271.167	3.48
271.546	3.36
271.925	3.46
272.304	3.69
272.683	3.69
273.062	3.39
273.441	3.79
273.82	3.85
274.199	3.65
274.578	3.44
274.957	3.52
275.336	3.79
275.715	3.37
276.093	4.24
276.472	4.04
276.851	3.89
277.229	3.76
277.608	3.67
277.986	3.42
278.365	3.85
278.743	3.89
279.122	3.21
279.5	3.49
279.878	3.22
280.257	3.53
280.635	3.62
281.013	3.15
281.391	3.87
281.769	3.71
282.147	3.8
282.525	3.77
282.903	3.67
283.281	3.45
283.659	3.33
284.037	3.45
284.415	3.28
284.792	3.73
285.17	3.55
285.548	3.69
285.925	3.37
286.303	3.6
286.68	3.51
287.058	3.6
287.435	3.5
287.813	3.87
288.19	3.25
288.567	3.78
288.945	3.75
289.322	3.82
289.699	3.89
290.076	3.96
290.453	3.29
290.83	3.63
291.207	3.46
291.584	3.97
291.961	3.21
292.338	3.71
292.715	3.39
293.092	3.24
293.469	3.75
293.845	3.45
294.222	3.7
294.599	3.28
294.975	3.78
295.352	3.54
295.728	3.21
296.105	3.62
296.481	3.51
296.858	3.12
297.234	3.47
297.61	3.19
297.986	3.82
298.363	3.12
298.739	3.54
299.115	3.37
299.491	3.61
299.867	3.21
300.243	3.28
300.619	3.68
300.995	3.8
301.371	3.19
301.746	3.83
302.122	3.64
302.498	3.67
302.874	3.18
303.249	3.42
303.625	3.47
304	3.76
304.376	3.23
304.751	3.19
305.127	4.01
305.502	3.88
305.878	3.95
306.253	3.53
306.628	3.47
307.003	2.87
307.378	3.82
307.754	3.93
308.129	3.18
308.504	3.42
308.879	3.69
309.254	3.59
309.629	3.73
310.003	3.64
310.378	3.8
310.753	3.79
311.128	3.02
311.502	3.07
311.877	3.49
312.252	3.4
312.626	3.72
313.001	3.37
313.375	3.32
313.75	3.65
314.124	3.19
314.498	3.68
314.873	3.59
315.247	3.39
315.621	3.53
315.995	4.47
316.369	3.5
316.743	3.16
317.117	3.34
317.491	3.15
317.865	3.67
318.239	3.85
318.613	3.37
318.987	3.1
319.361	3.3
319.734	3.46
320.108	3.15
320.482	3.59
320.855	3.13
321.229	3.88
321.602	3.55
321.976	3.85
322.349	3.59
322.723	3.51
323.096	3.51
323.469	3.65
323.843	3.16
324.216	3.94
324.589	3.37
324.962	3.8
325.335	3.41
325.708	3.48
326.081	3.27
326.454	3.78
326.827	2.98
327.2	3.05
327.573	3.64
327.945	3.72
328.318	3.34
328.691	3.51
329.063	3.66
329.436	3.97
329.809	3.84
330.181	3.7
330.553	3.19
330.926	3.68
331.298	3.61
331.671	3.5
332.043	3.88
332.415	3.51
332.787	2.86
333.159	3.59
333.532	3.05
333.904	3.38
334.276	3.26
334.648	3.63
335.02	3.69
335.391	3.87
335.763	3.28
336.135	3.55
336.507	4.09
336.879	3.48
337.25	3.78
337.622	3.34
337.993	3.47
338.365	3.8
338.736	3.49
339.108	3.88
339.479	3.29
339.851	3.71
340.222	4.17
340.593	3.17
340.964	3.94
341.336	3.62
341.707	4.1
342.078	3.52
342.449	3.54
342.82	3.81
343.191	3.55
343.562	3.35
343.933	4.02
344.303	3.56
344.674	3.73
345.045	3.85
345.416	3.78
345.786	3.91
346.157	3.61
346.527	3.61
346.898	3.28
347.268	3.38
347.639	3.4
348.009	3.08
348.38	3.33
348.75	3.62
349.12	3.66
349.49	3.35
349.861	3.74
350.231	3.32
350.601	3.4
350.971	3.54
351.341	3.32
351.711	3.61
352.081	3.45
352.45	3.17
352.82	3.4
353.19	4.3
353.56	4
353.929	3.6
354.299	4.21
354.669	3.94
355.038	3.65
355.408	3.35
355.777	3.57
356.147	3.26
356.516	3.53
356.885	3.54
357.254	3.42
357.624	3.3
357.993	3.5
358.362	3.27
358.731	3.37
359.1	3.39
359.469	3.42
359.838	3.49
360.207	3.77
360.576	3.35
360.945	3.24
361.314	3.39
361.682	3.27
362.051	3.41
362.42	3.9
362.788	3.53
363.157	3.55
363.525	3.8
363.894	3.77
364.262	3.41
364.631	3.65
364.999	3.45
365.367	3.46
365.735	3.5
366.104	3.7
366.472	3.75
366.84	3.47
367.208	3.69
367.576	3.54
367.944	3.52
368.312	3.3
368.68	3.67
369.048	3.43
369.416	3.86
369.783	3.42
370.151	3.61
370.519	3.6
370.886	3.75
371.254	3.86
371.621	3.56
371.989	3.66
372.356	3.98
372.724	3.61
373.091	3.69
373.458	3.72
373.826	3.88
374.193	3.34
374.56	3.7
374.927	3.94
375.294	3.68
375.661	3.69
376.028	3.65
376.395	3.56
376.762	3.19
377.129	3.1
377.496	3.78
377.863	3.61
378.229	3.75
378.596	3.66
378.963	3.87
379.329	3.97
379.696	3.67
380.062	3.49
380.429	3.55
380.795	3.35
381.161	3.97
381.528	3.92
381.894	3.59
382.26	3.47
382.626	3.53
382.993	3.97
383.359	3.72
383.725	3.77
384.091	3.87
384.457	3.74
384.823	3.56
385.188	4.04
385.554	3.74
385.92	3.96
386.286	3.66
386.651	3.83
387.017	3.99
387.383	3.58
387.748	3.73
388.114	3.57
388.479	3.67
388.845	3.7
389.21	3.73
389.575	3.78
389.94	3.57
390.306	3.66
390.671	3.75
391.036	3.71
391.401	3.9
391.766	3.73
392.131	3.7
392.496	3.69
392.861	3.75
393.226	3.71
393.591	3.66
393.956	3.86
394.32	3.82
394.685	3.63
395.05	3.95
395.414	3.55
395.779	3.74
396.143	3.67
396.508	4.01
396.872	3.78
397.236	3.97
397.601	3.61
397.965	4.3
398.329	3.98
398.694	3.58
399.058	3.91
399.422	3.91
399.786	3.92
400.15	3.74
400.514	3.67
400.878	3.64
401.242	3.68
401.605	3.95
401.969	3.87
402.333	3.68
402.697	3.45
403.06	3.76
403.424	3.91
403.787	3.83
404.151	4.04
404.514	3.55
404.878	3.88
405.241	3.77
405.604	3.8
405.968	3.72
406.331	3.76
406.694	3.82
407.057	3.7
407.42	3.76
407.783	3.79
408.146	3.78
408.509	3.86
408.872	3.78
409.235	3.96
409.598	4
409.961	3.78
410.323	3.76
410.686	3.9
411.049	3.67
411.411	4.04
411.774	3.67
412.136	3.78
412.499	3.76
412.861	3.66
413.223	3.77
413.586	3.9
413.948	3.81
414.31	3.75
414.672	3.95
415.035	3.79
415.397	4.15
415.759	3.96
416.121	3.88
416.483	3.88
416.845	3.68
417.206	3.7
417.568	3.78
417.93	3.79
418.292	3.8
418.653	3.91
419.015	3.92
419.377	3.72
419.738	3.84
420.1	3.68
420.461	3.74
420.822	3.88
421.184	3.78
421.545	3.75
421.906	3.79
422.267	3.74
422.629	3.75
422.99	3.78
423.351	3.81
423.712	3.84
424.073	3.79
424.434	3.77
424.795	3.87
425.155	3.81
425.516	3.9
425.877	3.73
426.238	3.87
426.598	3.76
426.959	3.83
427.32	3.77
427.68	3.87
428.041	3.8
428.401	3.73
428.761	3.93
429.122	3.99
429.482	3.94
429.842	4.03
430.202	4.01
430.563	4.06
430.923	4.1
431.283	4
431.643	3.98
432.003	4.02
432.363	3.96
432.722	3.95
433.082	3.98
433.442	3.83
433.802	3.95
434.161	3.93
434.521	3.96
434.881	3.77
435.24	3.91
435.6	3.75
435.959	3.98
436.319	4.02
436.678	3.9
437.037	3.97
437.396	3.91
437.756	3.98
438.115	3.82
438.474	3.92
438.833	4.2
439.192	4.04
439.551	4.12
439.91	3.87
440.269	4.05
440.628	3.82
440.987	3.92
441.345	3.94
441.704	3.98
442.063	3.91
442.421	3.92
442.78	3.9
443.138	3.87
443.497	4.02
443.855	3.95
444.214	4
444.572	3.93
444.93	3.92
445.288	3.94
445.647	4.08
446.005	4.09
446.363	4.05
446.721	3.8
447.079	4.02
447.437	4.07
447.795	3.97
448.153	3.85
448.51	3.94
448.868	4.01
449.226	4.01
449.584	4.02
449.941	4.03
450.299	4.1
450.656	4.08
451.014	4.11
451.371	3.96
451.729	3.96
452.086	4.21
452.443	3.99
452.801	4.13
453.158	4.16
453.515	4.06
453.872	4.1
454.229	4.12
454.586	4.11
454.943	4.13
455.3	4.05
455.657	4.21
456.014	4.15
456.371	3.96
456.727	4.16
457.084	3.99
457.441	4.22
457.797	3.95
458.154	4.02
458.51	4.04
458.867	4.22
459.223	4.21
459.58	4.09
459.936	4.21
460.292	3.93
460.648	4.16
461.005	4.08
461.361	4.07
461.717	4.08
462.073	4.06
462.429	4.02
462.785	4.16
463.141	4.21
463.496	4.05
463.852	4.21
464.208	4.24
464.564	4.25
464.919	4.33
465.275	4.23
465.631	4.15
465.986	4.1
466.342	4.12
466.697	4.28
467.052	4.1
467.408	4.23
467.763	4.27
468.118	4.26
468.473	4.23
468.829	4.15
469.184	4.23
469.539	4.28
469.894	4.22
470.249	4.3
470.603	4.26
470.958	4.34
471.313	4.26
471.668	4.31
472.023	4.2
472.377	4.06
472.732	4.28
473.086	4.17
473.441	4.42
473.795	4.27
474.15	4.32
474.504	4.32
474.859	4.25
475.213	4.48
475.567	4.08
475.921	4.29
476.275	4.19
476.63	4.25
476.984	4.43
477.338	4.29
477.692	4.21
478.045	4.23
478.399	4.3
478.753	4.31
479.107	4.26
479.461	4.25
479.814	4.29
480.168	4.23
480.521	4.35
480.875	4.35
481.228	4.4
481.582	4.37
481.935	4.3
482.289	4.43
482.642	4.19
482.995	4.45
483.348	4.17
483.701	4.24
484.055	4.19
484.408	4.29
484.761	4.21
485.114	4.08
485.466	4.03
485.819	4.04
486.172	4.05
486.525	4.09
486.878	4.1
487.23	4.17
487.583	4.16
487.936	4.2
488.288	4.22
488.641	4.19
488.993	4.12
489.345	4.19
489.698	4.15
490.05	4.16
490.402	4.12
490.754	4.2
491.107	4.27
491.459	4.21
491.811	4.32
492.163	4.44
492.515	4.34
492.866	4.25
493.218	4.2
493.57	4.19
493.922	4.23
494.274	4.23
494.625	4.26
494.977	4.36
495.328	4.46
495.68	4.44
496.031	4.41
496.383	4.53
496.734	4.46
497.086	4.64
497.437	4.57
497.788	4.51
498.139	4.51
498.49	4.39
498.842	4.49
499.193	4.53
499.544	4.43
499.894	4.41
500.245	4.54
500.596	4.5
500.947	4.38
501.298	4.51
501.648	4.63
501.999	4.53
502.35	4.6
502.7	4.69
503.051	4.52
503.401	4.5
503.752	4.49
504.102	4.67
504.452	4.63
504.803	4.58
505.153	4.52
505.503	4.43
505.853	4.65
506.203	4.65
506.553	4.68
506.903	4.55
507.253	4.66
507.603	4.62
507.953	4.55
508.303	4.68
508.652	4.52
509.002	4.57
509.352	4.65
509.701	4.57
510.051	4.65
510.4	4.59
510.75	4.61
511.099	4.69
511.449	4.47
511.798	4.65
512.147	4.49
512.496	4.7
512.846	4.53
513.195	4.6
513.544	4.83
513.893	4.61
514.242	4.66
514.591	4.69
514.939	4.71
515.288	4.68
515.637	4.78
515.986	4.64
516.334	4.7
516.683	4.9
517.032	4.73
517.38	4.83
517.729	4.74
518.077	4.65
518.426	4.85
518.774	4.78
519.122	4.81
519.47	4.78
519.819	4.77
520.167	4.65
520.515	4.64
520.863	4.77
521.211	4.7
521.559	4.68
521.907	4.74
522.255	4.78
522.602	4.84
522.95	4.8
523.298	4.93
523.645	4.81
523.993	4.91
524.341	5.13
524.688	4.88
525.036	4.87
525.383	4.73
525.73	4.98
526.078	4.99
526.425	4.89
526.772	4.88
527.119	4.82
527.466	4.79
527.814	4.86
528.161	4.92
528.508	4.86
528.854	4.8
529.201	4.85
529.548	4.83
529.895	4.69
530.242	4.68
530.588	4.69
530.935	4.73
531.282	4.75
531.628	4.76
531.975	4.83
532.321	4.88
532.667	4.89
533.014	4.88
533.36	5.02
533.706	5.03
534.052	5.03
534.399	4.98
534.745	4.96
535.091	4.92
535.437	4.92
535.783	4.95
536.129	4.9
536.474	5.01
536.82	4.99
537.166	5.13
537.512	5.03
537.857	5.09
538.203	5.05
538.549	5.06
538.894	5.11
539.239	5.12
539.585	5.16
539.93	5.26
540.276	5.36
540.621	5.31
540.966	5.22
541.311	5.31
541.656	5.2
542.001	5.3
542.346	5.24
542.691	5.09
543.036	5.12
543.381	5.07
543.726	5.11
544.071	5.11
544.415	5.19
544.76	5.15
545.105	5.17
545.449	5.31
545.794	5.33
546.138	5.31
546.483	5.34
546.827	5.46
547.171	5.31
547.516	5.49
547.86	5.35
548.204	5.4
548.548	5.36
548.892	5.35
549.236	5.51
549.58	5.36
549.924	5.67
550.268	5.58
550.612	5.49
550.956	5.64
551.3	5.57
551.643	5.51
551.987	5.8
552.33	5.48
552.674	5.66
553.017	5.64
553.361	5.63
553.704	5.7
554.048	5.61
554.391	5.62
554.734	5.67
555.077	5.64
555.42	5.62
555.764	5.68
556.107	5.67
556.45	5.81
556.793	5.78
557.135	6.01
557.478	6
557.821	5.93
558.164	5.85
558.507	5.74
558.849	5.94
559.192	5.98
559.534	6
559.877	6.06
560.219	6.04
560.562	6.14
560.904	5.98
561.246	5.87
561.589	5.88
561.931	6.23
562.273	6.07
562.615	6.11
562.957	5.99
563.299	5.95
563.641	6.05
563.983	5.95
564.325	6.17
564.667	6.02
565.008	6.07
565.35	6.25
565.692	6.24
566.033	6.18
566.375	6.22
566.716	6.18
567.058	6.1
567.399	5.9
567.741	6.11
568.082	6.17
568.423	6.03
568.764	6.09
569.105	6.12
569.447	6.11
569.788	6.26
570.129	6.36
570.47	6.32
570.811	6.28
571.151	6.5
571.492	6.32
571.833	6.43
572.174	6.3
572.514	6.55
572.855	6.42
573.195	6.58
573.536	6.51
573.876	6.31
574.217	6.38
574.557	6.35
574.898	6.41
575.238	6.5
575.578	6.52
575.918	6.63
576.258	6.49
576.598	6.55
576.938	6.51
577.278	6.64
577.618	6.66
577.958	6.63
578.298	6.63
578.638	6.41
578.977	6.69
579.317	6.89
579.657	6.82
579.996	6.72
580.336	6.92
580.675	6.88
581.014	6.86
581.354	6.94
581.693	6.94
582.032	6.96
582.372	7.21
582.711	6.96
583.05	6.94
583.389	7.14
583.728	6.98
584.067	6.97
584.406	7.08
584.745	6.99
585.083	7.06
585.422	6.93
585.761	7.03
586.1	7.11
586.438	7.09
586.777	7.07
587.115	7.29
587.454	7.3
587.792	7.19
588.13	7.31
588.469	7.11
588.807	7.14
589.145	7.41
589.483	7.33
589.821	7.33
590.159	7.3
590.497	7.28
590.835	7.2
591.173	7.45
591.511	7.49
591.849	7.08
592.187	7.34
592.524	7.67
592.862	7.81
593.2	7.66
593.537	7.57
593.875	7.54
594.212	7.56
594.55	7.46
594.887	7.61
595.224	7.47
595.561	7.65
595.899	7.44
596.236	7.44
596.573	7.67
596.91	7.63
597.247	7.71
597.584	7.8
597.921	7.6
598.258	7.59
598.594	7.48
598.931	7.72
599.268	7.68
599.604	7.85
599.941	7.93
600.277	7.74
600.614	7.7
600.95	7.72
601.287	7.87
601.623	7.8
601.959	7.92
602.296	8.02
602.632	7.79
602.968	7.73
603.304	8.08
603.64	8.18
603.976	8.14
604.312	8.04
604.648	8.21
604.984	8.07
605.319	8.26
605.655	7.99
605.991	8.07
606.326	8.1
606.662	8.09
606.998	8.14
607.333	8.12
607.668	8.32
608.004	8.04
608.339	8.07
608.674	8.08
609.01	8.63
609.345	8.48
609.68	8.49
610.015	8.34
610.35	8.54
610.685	8.1
611.02	8.34
611.355	8.33
611.689	8.56
612.024	8.39
612.359	8.79
612.694	8.72
613.028	8.65
613.363	8.79
613.697	8.73
614.032	8.81
614.366	8.71
614.7	8.37
615.035	8.97
615.369	9.21
615.703	8.8
616.037	8.66
616.371	8.8
616.705	8.95
617.039	8.93
617.373	9
617.707	9.07
618.041	9.21
618.375	9.03
618.709	8.78
619.042	9
619.376	9.32
619.71	8.87
620.043	8.95
620.377	9.18
620.71	9.14
621.043	9.25
621.377	8.64
621.71	9.45
622.043	8.9
622.376	9.1
622.709	9.31
623.043	8.84
623.376	9.42
623.709	9.63
624.041	9.37
624.374	9.07
624.707	9.31
625.04	9.73
625.373	9.32
625.705	9.4
626.038	9.51
626.37	9.51
626.703	9.44
627.035	9.72
627.368	9.79
627.7	9.67
628.032	9.12
628.365	9.38
628.697	9.65
629.029	9.66
629.361	9.73
629.693	9.7
630.025	9.68
630.357	9.88
630.689	9.7
631.021	9.81
631.353	9.81
631.684	9.94
632.016	9.96
632.348	9.75
632.679	9.79
633.011	10.05
633.342	9.85
633.674	10.21
634.005	9.79
634.336	10.06
634.668	10.03
634.999	10.07
635.33	10.31
635.661	10.2
635.992	10.29
636.323	10.18
636.654	10.32
636.985	10.4
637.316	10.03
637.647	10.09
637.977	10.23
638.308	10.21
638.639	10.26
638.969	10.22
639.3	9.95
639.63	10.28
639.961	10.4
640.291	10.4
640.622	10.26
640.952	10.48
641.282	10.66
641.612	10.64
641.943	10.3
642.273	10.86
642.603	10.95
642.933	10.65
643.263	10.33
643.592	10.51
643.922	10.96
644.252	10.97
644.582	11.19
644.911	10.5
645.241	10.59
645.571	10.96
645.9	10.82
646.23	11.54
646.559	10.42
646.888	11.13
647.218	11.18
647.547	10.82
647.876	10.51
648.205	11.17
648.534	10.73
648.863	10.65
649.192	11.53
649.521	10.55
649.85	10.97
650.179	10.57
650.508	10.71
650.837	11.33
651.165	11.39
651.494	10.92
651.822	11.28
652.151	11.32
652.479	11.04
652.808	10.66
653.136	11.27
653.465	10.86
653.793	11.6
654.121	11.16
654.449	11.16
654.777	11.45
655.105	11.1
655.433	11.52
655.761	11.6
656.089	11.53
656.417	11.45
656.745	11.26
657.073	11.03
657.4	12.05
657.728	11.83
658.056	11.93
658.383	11.74
658.711	11.2
659.038	11.59
659.365	11.32
659.693	11.72
660.02	12.03
660.347	11.57
660.674	11.46
661.001	11.85
661.329	11.69
661.656	11.87
661.982	11.6
662.309	11.76
662.636	11.95
662.963	12
663.29	12.13
663.616	11.74
663.943	11.97
664.27	11.88
664.596	12.03
664.923	12.09
665.249	12.52
665.576	12.36
665.902	12.02
666.228	11.89
666.554	12.43
666.881	12.03
667.207	12.66
667.533	12.12
667.859	11.9
668.185	12.29
668.511	11.59
668.837	12.5
669.162	12.48
669.488	12.09
669.814	12.21
670.139	12.93
670.465	12.37
670.791	12.63
671.116	12.44
671.442	12.7
671.767	11.7
672.092	11.93
672.418	12.16
672.743	12.58
673.068	11.8
673.393	12.6
673.718	12.66
674.043	13
674.368	12.33
674.693	12.88
675.018	12.75
675.343	13.15
675.667	12.89
675.992	12.59
676.317	12.98
676.641	13.3
676.966	13.51
677.29	12.71
677.615	12.76
677.939	13.1
678.264	12.1
678.588	12.63
678.912	12.78
679.236	13.02
679.56	13.18
679.885	13.36
680.209	13.16
680.532	13.02
680.856	13.55
681.18	13.13
681.504	13.2
681.828	13.21
682.152	13.37
682.475	12.8
682.799	13.08
683.122	12.94
683.446	13.02
683.769	12.93
684.093	13.3
684.416	13.7
684.739	13.75
685.062	13.45
685.386	13.07
685.709	13.38
686.032	13.54
686.355	13.77
686.678	13.72
687.001	13.39
687.324	13.96
687.646	13.23
687.969	13.93
688.292	12.74
688.614	13.64
688.937	13.16
689.26	13.9
689.582	14
689.904	14.33
690.227	13.32
690.549	14.01
690.871	14.39
691.194	13.77
691.516	13.63
691.838	12.93
692.16	13.41
692.482	14.12
692.804	14.14
693.126	15.12
693.448	13.68
693.769	14.67
694.091	13.63
694.413	13.51
694.735	13.38
695.056	13.83
695.378	13.83
695.699	14.06
696.021	14.33
696.342	14.03
696.663	13.91
696.984	14.8
697.306	15.08
697.627	14.2
697.948	13.55
698.269	13.99
698.59	14.48
698.911	14.18
699.232	14.19
699.553	13.8
699.873	14.48
700.194	14.69
700.515	14.04
700.835	14.4
701.156	14.27
701.477	14.63
701.797	14.12
702.117	14.51
702.438	14.02
702.758	13.63
703.078	14.5
703.398	14.31
703.719	15.03
704.039	14.29
704.359	15.22
704.679	15.7
704.999	13.92
705.319	14.87
705.638	14.96
705.958	15.61
706.278	15.32
706.597	15.82
706.917	14.69
707.237	14.71
707.556	15.11
707.876	15.44
708.195	14.58
708.514	14.5
708.834	14.5
709.153	15.35
709.472	14.69
709.791	15.4
710.11	15.43
710.429	14.85
710.748	15.08
711.067	15.54
711.386	14.95
711.705	14.87
712.023	16.25
712.342	15.84
712.661	14.14
712.979	14.92
713.298	14.98
713.616	15.12
713.935	15.46
714.253	16.11
714.572	16.13
714.89	15.99
715.208	15.68
715.526	16.11
715.844	15.45
716.162	15.99
716.48	16.28
716.798	14.8
717.116	16.3
717.434	15.45
717.752	15.52
718.069	15.74
718.387	15.92
718.705	14.77
719.022	15.91
719.34	13.98
719.657	15.98
719.975	15.56
720.292	16.37
720.609	15.89
720.927	16.1
721.244	15.69
721.561	16.77
721.878	14.8
722.195	16.23
722.512	15.28
722.829	15.99
723.146	16.78
723.463	15.11
723.779	15.41
724.096	18.03
724.413	16.26
724.729	15.98
725.046	16.75
725.362	16.21
725.679	15.75
725.995	16.61
726.311	15.18
726.628	17.35
726.944	16.84
727.26	17.9
727.576	16.52
727.892	14.71
728.208	15.56
728.524	16.76
728.84	14.62
729.156	16.19
729.472	16.61
729.787	16.59
730.103	16.47
730.419	17.31
730.734	17.36
731.05	16.89
731.365	15.9
731.681	16.88
731.996	16.73
732.311	18.04
732.626	16.06
732.942	16.97
733.257	17.39
733.572	16.49
733.887	17.79
734.202	17.18
734.517	16.82
734.832	16.66
735.146	17.8
735.461	18.06
735.776	16.3
736.091	17.77
736.405	17.55
736.72	17.14
737.034	16
737.349	17.08
737.663	17.49
737.977	17.67
738.292	17.55
738.606	19.3
738.92	16.84
739.234	16.49
739.548	17.46
739.862	16.32
740.176	16.73
740.49	17.37
740.804	18.2
741.117	18.2
741.431	17.58
741.745	17.67
742.058	16.95
742.372	17.22
742.685	17.68
742.999	19.75
743.312	16.25
743.626	17.72
743.939	18.09
744.252	20.52
744.565	15.88
744.878	17.11
745.191	18.42
745.505	17.75
745.817	17.29
746.13	18.58
746.443	17.17
746.756	18.9
747.069	18.6
747.381	18.12
747.694	18.19
748.007	18.26
748.319	18.7
748.632	17.74
748.944	16.45
749.256	17.52
749.569	17.9
749.881	19.56
750.193	18.56
750.505	18.48
750.817	18.29
751.129	18.53
751.441	18.23
751.753	18.22
752.065	17.74
752.377	17.14
752.689	15.09
753	19.42
753.312	18.47
753.624	16.84
753.935	18.65
754.247	18.42
754.558	20.19
754.869	17.69
755.181	17.3
755.492	17.33
755.803	17.25
756.114	19.18
756.425	18.2
756.736	18.52
757.047	19.67
757.358	19.57
757.669	18.69
757.98	17.9
758.291	19.61
758.601	20.72
758.912	19.5
759.223	20.09
759.533	18.94
759.844	17.8
760.154	21.36
760.464	18.7
760.775	18.32
761.085	18.2
761.395	18.56
761.705	21.59
762.016	17.59
762.326	19.61
762.636	18.2
762.945	19.17
763.255	18.83
763.565	19.04
763.875	19.39
764.185	19.57
764.494	19.97
764.804	18.97
765.113	19.13
765.423	19.97
765.732	19.37
766.042	20.18
766.351	20.04
766.66	19.2
766.97	19.23
767.279	17.83
767.588	20.14
767.897	19.35
768.206	19.61
768.515	17.57
768.824	20.12
769.133	20.36
769.441	20.15
769.75	19.02
770.059	21.01
770.367	20.05
770.676	20.68
770.984	20.29
771.293	19.15
771.601	20.25
771.91	19.34
772.218	18.21
772.526	18.07
772.834	18.97
773.142	19.92
773.45	19.96
773.758	23.68
774.066	18.92
774.374	20.99
774.682	20.92
774.99	18.13
775.298	20.36
775.605	21.16
775.913	20.11
776.22	19.54
776.528	21
776.835	18.02
777.143	21.37
777.45	21.35
777.757	19.98
778.065	18.41
778.372	15.5
778.679	23.06
778.986	22.87
779.293	20.83
779.6	20.94
779.907	20.83
780.214	21.1
780.52	19.78
780.827	19.06
781.134	18.42
781.44	19.68
781.747	21.85
782.053	19.94
782.36	22
782.666	20.78
782.973	22.93
783.279	20.18
783.585	20.32
783.891	21.97
784.197	18.93
784.503	23.53
784.809	19.57
785.115	23.75
785.421	21.66
785.727	20.95
786.033	23.65
786.339	20.08
786.644	18.38
786.95	19.68
787.255	22.22
787.561	21.3
787.866	15.17
788.172	26.39
788.477	22.05
788.782	21.78
789.088	20.82
789.393	20.81
789.698	23.41
790.003	22.73
790.308	21.43
790.613	19.71
790.918	24.36
791.223	18.57
791.527	21.9
791.832	21.61
792.137	18.66
792.441	22.77
792.746	23.5
793.05	17.75
793.355	22.88
793.659	20.18
793.963	20.21
794.268	22.08
794.572	20.7
794.876	24.55
795.18	22.45
795.484	25.87
795.788	22.78
796.092	17.31
796.396	15.01
796.7	16.09
797.004	18.54
797.307	17.77
797.611	21.31
797.915	24.82
798.218	22.53
798.522	22.44
798.825	23.2
799.128	24.73
799.432	20.59
799.735	21.62
800.038	22.8
800.341	23.1
800.644	19.38
800.947	26.31
801.25	22.64
801.553	20.57
801.856	21.73
802.159	19.49
802.462	20.7
802.764	21
803.067	23.14
803.37	22.18
803.672	22.15
803.975	21.33
804.277	19.94
804.579	22.57
804.882	20.81
805.184	25.01
805.486	28.38
805.788	23.31
806.09	23.9
806.392	22.96
806.694	22.46
806.996	21.03
807.298	16.76
807.6	26.19
807.902	19.87
808.203	23.66
808.505	23.08
808.807	22.46
809.108	22.28
809.409	28.06
809.711	19.6
810.012	21.84
810.313	19.25
810.615	18.61
810.916	16.98
811.217	21.41
811.518	21.83
811.819	30.23
812.12	20.35
812.421	18.05
812.722	23.12
813.023	27.09
813.323	19.94
813.624	21.2
813.925	25.43
814.225	19.32
814.526	24.7
814.826	16.38
815.126	25.58
815.427	17.76
815.727	25.42
816.027	16.39
816.327	23.37
816.627	22.66
816.927	26.61
817.227	22.03
817.527	27.85
817.827	26.48
818.127	27.17
818.427	23.28
818.727	26.33
819.026	26.89
819.326	24.14
819.625	26.54
819.925	23.44
820.224	25.04
820.524	23.3
820.823	19.37
821.122	25.56
821.421	26.97
821.72	26.56
822.019	23.62
822.318	29.47
822.617	26.81
822.916	23.63
823.215	22.64
823.514	22.04
823.813	23.22
824.111	23.68
824.41	23.38
824.709	23.05
825.007	24.18
825.306	24.18
825.604	23.75
825.902	23.49
826.201	23.74
826.499	25.14
826.797	23.89
827.095	24.21
827.393	23.33
827.691	22.73
827.989	24.77
828.287	24.92
828.585	24.61
828.882	24.36
829.18	22.13
829.478	23.48
829.775	24.59
830.073	26.34
830.37	24.79
830.668	24.26
830.965	23.86
831.263	25.09
831.56	23.5
831.857	26.59
832.154	22.6
832.451	27
832.748	21.57
833.045	20.01
833.342	23.44
833.639	24.54
833.936	24.3
834.232	27.17
834.529	21.26
834.826	24.99
835.122	23.62
835.419	21.93
835.715	24.16
836.012	20.32
836.308	25.01
836.604	28.75
836.901	24.03
837.197	25.68
837.493	24.53
837.789	25.23
838.085	24.25
838.381	25.51
838.677	23.89
838.972	24.76
839.268	24.04
839.564	27.43
839.86	27.13
840.155	23.79
840.451	24.84
840.746	27.64
841.042	21.84
841.337	22.82
841.632	18.43
841.928	36.19
842.223	30.23
842.518	25.51
842.813	25.93
843.108	26.67
843.403	20.79
843.698	23.93
843.993	27.26
844.287	35.25
844.582	25.68
844.877	21.3
845.171	27.32
845.466	25.05
845.761	23.31
846.055	31.72
846.349	20.86
846.644	18.1
846.938	19.62
847.232	28.9
847.526	11.27
847.82	31.87
848.114	19.84
848.408	29.24
848.702	31.58
848.996	33.89
849.29	13.53
849.584	19.05
849.877	24.03
850.171	21.06
850.465	19.82
850.758	22.63
851.052	38.37
851.345	21.53
851.638	38.62
851.932	33.86
852.225	22.6
852.518	21.15
852.811	18.17
853.104	29.1
853.397	26.67
853.69	29.18
853.983	13.88
854.276	16.93
854.569	24.63
854.861	40.04
855.154	37
855.447	27.02
855.739	12.12
856.032	33.62
856.324	36.9
856.616	25.11
856.909	20.2
857.201	6.91
857.493	26.18
857.785	23.77
858.077	29.55
858.369	26.95
858.661	44.41
858.953	33.39
859.245	8.09
859.537	27.83
859.829	13.22
860.12	7.83
860.412	25.05
860.703	20.28
860.995	34.25
861.286	43.15
861.578	11.97
861.869	14.36
862.16	30.6
862.452	36.07
862.743	24.96
863.034	34.68
863.325	26.14
863.616	27.78
863.907	-3.75
864.198	34.38
864.488	8.49
864.779	32.99
865.07	22.31
865.36	7.55
865.651	40.55
865.941	30.13
866.232	18.81
866.522	44.64
866.813	28.27
867.103	43.5
867.393	25.5
867.683	47.08
867.973	23.03
868.263	43.55
868.553	12.16
868.843	33.27
869.133	20.2
869.423	30.26
869.713	7.34
870.002	7.55
870.292	16.89
870.582	21.78
870.871	15.61
871.161	26.91
871.45	31.62
871.739	48.08
872.029	42.48
872.318	36.08
872.607	9.01
872.896	26.52
873.185	26.82
873.474	22.26
873.763	31.95
874.052	14.77
874.341	36.22
874.63	53.08
874.918	13.54
875.207	45.35
875.496	26.27
875.784	25.54
876.073	31.12
876.361	21.73
876.649	31.16
876.938	24.35
877.226	34.45
877.514	23.87
877.802	30.94
878.09	6.99
878.378	32.24
878.666	32.1
878.954	23.9
879.242	23.5
879.53	33.59
879.817	47.9
880.105	22.8
880.392	64.48
880.68	10.41
880.967	53.43
881.255	30.24
881.542	34.62
881.83	30.99
882.117	27.28
882.404	21.25
882.691	15.81
882.978	13.86
883.265	17.02
883.552	21.31
883.839	29.42
884.126	20.34
884.413	26.35
884.699	22.6
884.986	28.5
885.273	28.51
885.559	28.51
885.846	28.51
