Data from 0235_forehead_Reflection__4__297.txt Node

Date: Fri Sep 22 23:03:21 CDT 2023
User: ToomeyLab
Spectrometer: FLMS14357
Trigger mode: 0
Integration Time (sec): 1.000000E-2
Scans to average: 100
Electric dark correction enabled: true
Nonlinearity correction enabled: false
Boxcar width: 0
XAxis mode: Wavelengths
Number of Pixels in Spectrum: 2048
>>>>>Begin Spectral Data<<<<<
189.047	118.24
189.435	118.24
189.823	118.24
190.211	-140.16
190.599	62.84
190.987	-165.65
191.375	3621.43
191.763	41.49
192.151	1072.28
192.538	-211.33
192.926	95.09
193.314	2.91
193.702	1290
194.089	94.16
194.477	10.78
194.864	270.41
195.252	44.03
195.639	132.98
196.027	-42.66
196.414	183.56
196.801	-1208.41
197.189	-37.31
197.576	265.6
197.963	-163.62
198.351	24.47
198.738	53.78
199.125	43.63
199.512	-0.48
199.899	65.71
200.286	12.16
200.673	11.51
201.06	13.57
201.447	40.99
201.833	56.8
202.22	49.3
202.607	54.58
202.994	63.3
203.38	42.74
203.767	45.61
204.154	28.65
204.54	51.58
204.927	-49.81
205.313	42.3
205.699	57.59
206.086	56.93
206.472	30.19
206.858	42.38
207.245	5.45
207.631	31.36
208.017	21.21
208.403	15.94
208.789	33.5
209.175	41.2
209.561	46.52
209.947	57.27
210.333	43.33
210.719	28.35
211.105	37.43
211.491	32.41
211.876	78.36
212.262	38.89
212.648	39.35
213.034	29.51
213.419	29.23
213.805	13.69
214.19	3.94
214.576	19.57
214.961	10.97
215.346	56.66
215.732	38.85
216.117	29.61
216.502	48.73
216.888	19.71
217.273	23.76
217.658	17.08
218.043	15.8
218.428	39.75
218.813	9.98
219.198	-2.54
219.583	23.78
219.968	16.34
220.353	35.03
220.738	19.74
221.122	10
221.507	35.19
221.892	10.91
222.276	-8.15
222.661	4.47
223.046	31.45
223.43	37.87
223.815	-3.86
224.199	-2.35
224.583	16.32
224.968	13.74
225.352	6.67
225.736	12.78
226.121	16.43
226.505	10.98
226.889	9.39
227.273	8.76
227.657	0.52
228.041	6.4
228.425	13.98
228.809	4.35
229.193	3.15
229.577	9.78
229.961	8.58
230.344	7.37
230.728	4.36
231.112	6.14
231.495	4.52
231.879	4.25
232.263	3.8
232.646	3.3
233.03	4.2
233.413	4.12
233.797	5.9
234.18	5.2
234.563	6.53
234.946	7.82
235.33	6.15
235.713	5.88
236.096	6.09
236.479	4.88
236.862	6.03
237.245	7.26
237.628	6.99
238.011	6.27
238.394	5.38
238.777	6.71
239.16	7.93
239.543	6.9
239.925	7.99
240.308	6.49
240.691	6.18
241.073	6.62
241.456	6.38
241.838	4.99
242.221	3.31
242.603	5.01
242.986	3.98
243.368	4.01
243.75	5.29
244.133	5.83
244.515	4.83
244.897	4.87
245.279	4.93
245.661	4.56
246.043	4.67
246.425	4.47
246.807	6.22
247.189	4.25
247.571	5.08
247.953	5.68
248.335	5.21
248.717	5.16
249.098	4.67
249.48	4.69
249.862	4.44
250.243	4.67
250.625	4.95
251.006	3.96
251.388	5
251.769	5.56
252.151	5
252.532	5.23
252.913	5.82
253.295	5.95
253.676	5.26
254.057	5.59
254.438	5.49
254.819	4.36
255.2	4.96
255.581	4.85
255.962	5.69
256.343	5.02
256.724	4.66
257.105	5.68
257.486	5.14
257.867	5.13
258.247	4.76
258.628	5.11
259.009	4.94
259.389	4.58
259.77	5.53
260.15	5.4
260.531	5.1
260.911	4.81
261.292	4.67
261.672	4.53
262.052	4.71
262.432	4.54
262.813	4.72
263.193	4.22
263.573	4.84
263.953	4.56
264.333	5.05
264.713	4.8
265.093	4.94
265.473	4.93
265.853	4.65
266.233	4.76
266.612	4.89
266.992	5.14
267.372	5.13
267.752	5.09
268.131	3.98
268.511	4.65
268.89	4.78
269.27	4.47
269.649	4.77
270.029	5.04
270.408	3.92
270.787	4.76
271.167	4.9
271.546	4.24
271.925	4.58
272.304	4.33
272.683	4.72
273.062	5.48
273.441	4.41
273.82	4.89
274.199	4.73
274.578	5.05
274.957	4.18
275.336	4.25
275.715	4.39
276.093	4.68
276.472	4.52
276.851	4.61
277.229	4.28
277.608	4.52
277.986	4.69
278.365	5.01
278.743	4.17
279.122	4.62
279.5	4.83
279.878	4.18
280.257	4.81
280.635	4.24
281.013	4.8
281.391	4.07
281.769	4.27
282.147	5.12
282.525	4.48
282.903	4.42
283.281	4.62
283.659	4.84
284.037	4.22
284.415	4.56
284.792	4.41
285.17	4.73
285.548	4.69
285.925	4.24
286.303	4.45
286.68	3.95
287.058	4.35
287.435	3.85
287.813	4.01
288.19	3.95
288.567	4.56
288.945	4.57
289.322	4.68
289.699	4.71
290.076	4.26
290.453	4.27
290.83	4.31
291.207	4.64
291.584	4.31
291.961	4.3
292.338	4.65
292.715	4.85
293.092	4.67
293.469	4.44
293.845	4.32
294.222	5.26
294.599	5.03
294.975	4.93
295.352	5.29
295.728	4.94
296.105	4.92
296.481	5.2
296.858	4.74
297.234	5.08
297.61	4.77
297.986	4.89
298.363	5.18
298.739	5.09
299.115	5.03
299.491	4.84
299.867	4.9
300.243	4.88
300.619	5.23
300.995	4.59
301.371	5.58
301.746	5.31
302.122	5.53
302.498	4.63
302.874	4.95
303.249	5.41
303.625	4.37
304	5.83
304.376	5.34
304.751	5.22
305.127	5.74
305.502	5.75
305.878	5.44
306.253	5.82
306.628	5.29
307.003	5.58
307.378	5.78
307.754	5.24
308.129	4.83
308.504	5.7
308.879	5.86
309.254	6.01
309.629	5.64
310.003	5.94
310.378	6.46
310.753	5.84
311.128	5.99
311.502	6.18
311.877	5.5
312.252	5.69
312.626	6.23
313.001	6
313.375	6.17
313.75	6.06
314.124	6.83
314.498	6.15
314.873	6.32
315.247	6.48
315.621	5.94
315.995	6.25
316.369	6.22
316.743	6.4
317.117	6.42
317.491	6.97
317.865	5.89
318.239	7.25
318.613	6.57
318.987	6.76
319.361	6.74
319.734	6.2
320.108	7.16
320.482	7.43
320.855	6.61
321.229	8.03
321.602	7.13
321.976	6.64
322.349	7.01
322.723	7.65
323.096	7.49
323.469	6.76
323.843	7.21
324.216	8.02
324.589	7.46
324.962	7.63
325.335	7.44
325.708	6.75
326.081	7.75
326.454	7.14
326.827	7.68
327.2	7
327.573	7.62
327.945	7.94
328.318	7.6
328.691	8.06
329.063	7.23
329.436	7.4
329.809	7.74
330.181	7.81
330.553	8.19
330.926	7.53
331.298	7.76
331.671	7.57
332.043	6.96
332.415	7.59
332.787	8.22
333.159	7.58
333.532	7.77
333.904	7.95
334.276	7.54
334.648	7.51
335.02	7.55
335.391	7.87
335.763	7.89
336.135	8.15
336.507	8.26
336.879	8.44
337.25	8.29
337.622	8.41
337.993	8.42
338.365	8.55
338.736	8.77
339.108	8.51
339.479	7.93
339.851	7.57
340.222	8.09
340.593	8.43
340.964	8.15
341.336	8.26
341.707	8.08
342.078	8.68
342.449	8.41
342.82	7.79
343.191	8.06
343.562	8
343.933	8.5
344.303	8.67
344.674	8.65
345.045	9.05
345.416	8.92
345.786	8.21
346.157	8.77
346.527	8.66
346.898	8.74
347.268	8.89
347.639	8.76
348.009	8.64
348.38	8.81
348.75	9.04
349.12	8.96
349.49	9.21
349.861	8.76
350.231	9.22
350.601	9.29
350.971	9.4
351.341	8.87
351.711	8.7
352.081	8.86
352.45	9.23
352.82	9.06
353.19	9.06
353.56	8.98
353.929	8.91
354.299	9.09
354.669	8.62
355.038	9.29
355.408	9.2
355.777	9.36
356.147	9.24
356.516	9.44
356.885	9.11
357.254	9.44
357.624	8.92
357.993	9.47
358.362	9.44
358.731	9.06
359.1	9.26
359.469	9.69
359.838	9.12
360.207	9.35
360.576	9.67
360.945	9.66
361.314	9.47
361.682	9.79
362.051	9.98
362.42	9.63
362.788	9.55
363.157	9.93
363.525	9.54
363.894	9.81
364.262	9.51
364.631	9.34
364.999	9.57
365.367	9.96
365.735	9.83
366.104	9.73
366.472	10.18
366.84	9.8
367.208	10.26
367.576	9.6
367.944	9.86
368.312	10.12
368.68	10.22
369.048	10.29
369.416	9.97
369.783	10
370.151	10.13
370.519	10.35
370.886	10.21
371.254	10.71
371.621	9.75
371.989	10.23
372.356	10.3
372.724	10.54
373.091	10.34
373.458	10.19
373.826	10.4
374.193	10.49
374.56	10.27
374.927	10.42
375.294	10.53
375.661	10.09
376.028	10.62
376.395	10.79
376.762	10.75
377.129	10.51
377.496	10.76
377.863	10.58
378.229	10.9
378.596	10.59
378.963	10.69
379.329	10.94
379.696	11.15
380.062	10.66
380.429	11.07
380.795	11.29
381.161	10.62
381.528	10.83
381.894	10.83
382.26	11.26
382.626	10.68
382.993	10.96
383.359	11.15
383.725	10.72
384.091	11.24
384.457	10.71
384.823	11.13
385.188	11.31
385.554	11.16
385.92	11.55
386.286	11.12
386.651	11.26
387.017	11.08
387.383	11.31
387.748	11.04
388.114	11.36
388.479	11.27
388.845	11
389.21	11.15
389.575	11.34
389.94	11.11
390.306	11.69
390.671	11.87
391.036	11.16
391.401	11.27
391.766	11.32
392.131	11.38
392.496	11.48
392.861	11.3
393.226	11.55
393.591	11.5
393.956	11.45
394.32	11.38
394.685	11.4
395.05	11.75
395.414	11.82
395.779	11.77
396.143	11.71
396.508	11.44
396.872	11.44
397.236	11.47
397.601	11.44
397.965	11.77
398.329	11.62
398.694	11.75
399.058	11.82
399.422	11.61
399.786	11.96
400.15	11.96
400.514	11.91
400.878	11.82
401.242	11.84
401.605	11.59
401.969	11.44
402.333	11.69
402.697	11.74
403.06	11.57
403.424	11.76
403.787	11.79
404.151	11.91
404.514	11.96
404.878	12.13
405.241	11.93
405.604	11.82
405.968	11.99
406.331	11.95
406.694	11.75
407.057	11.61
407.42	11.76
407.783	11.91
408.146	11.8
408.509	11.64
408.872	11.47
409.235	11.97
409.598	11.82
409.961	11.81
410.323	11.9
410.686	11.92
411.049	12
411.411	12.16
411.774	12.09
412.136	12.01
412.499	11.95
412.861	11.91
413.223	11.83
413.586	11.88
413.948	12.04
414.31	12.16
414.672	11.96
415.035	12
415.397	12.19
415.759	12.34
416.121	11.72
416.483	11.81
416.845	12.11
417.206	11.93
417.568	11.98
417.93	12.33
418.292	12.22
418.653	11.96
419.015	11.98
419.377	12.12
419.738	12.25
420.1	12.01
420.461	12.27
420.822	12.06
421.184	12.09
421.545	12.21
421.906	12.04
422.267	12.02
422.629	12.21
422.99	12.24
423.351	12.12
423.712	12.25
424.073	12.16
424.434	12.24
424.795	12.42
425.155	12.51
425.516	12.51
425.877	12.5
426.238	12.4
426.598	12.56
426.959	12.57
427.32	12.74
427.68	12.64
428.041	12.62
428.401	12.87
428.761	13
429.122	12.94
429.482	13.04
429.842	12.94
430.202	13.23
430.563	13.38
430.923	13.42
431.283	13.36
431.643	13.48
432.003	13.51
432.363	13.67
432.722	13.51
433.082	13.66
433.442	13.53
433.802	13.67
434.161	13.61
434.521	13.76
434.881	13.92
435.24	13.64
435.6	13.69
435.959	13.68
436.319	13.91
436.678	13.93
437.037	13.99
437.396	13.97
437.756	14.09
438.115	14.18
438.474	14.18
438.833	14.22
439.192	14.27
439.551	14.24
439.91	14.52
440.269	14.46
440.628	14.3
440.987	14.45
441.345	14.44
441.704	14.56
442.063	14.46
442.421	14.45
442.78	14.54
443.138	14.57
443.497	14.55
443.855	14.61
444.214	14.52
444.572	14.86
444.93	14.88
445.288	14.85
445.647	14.89
446.005	14.82
446.363	14.9
446.721	15
447.079	14.83
447.437	15.01
447.795	15.02
448.153	14.97
448.51	14.99
448.868	14.96
449.226	14.9
449.584	15.06
449.941	15.18
450.299	15.18
450.656	15.32
451.014	15.43
451.371	15.53
451.729	15.52
452.086	15.54
452.443	15.71
452.801	15.8
453.158	15.7
453.515	15.78
453.872	15.75
454.229	16.08
454.586	15.71
454.943	15.75
455.3	15.8
455.657	15.85
456.014	16.03
456.371	15.96
456.727	16.19
457.084	16.3
457.441	16.02
457.797	16.13
458.154	16.37
458.51	16.33
458.867	16.43
459.223	16.35
459.58	16.49
459.936	16.47
460.292	16.53
460.648	16.46
461.005	16.52
461.361	16.52
461.717	16.24
462.073	16.34
462.429	16.12
462.785	16.4
463.141	16.5
463.496	16.71
463.852	16.64
464.208	16.79
464.564	16.94
464.919	16.93
465.275	17.19
465.631	17.03
465.986	17.44
466.342	17.33
466.697	17.25
467.052	17.22
467.408	17.31
467.763	17.3
468.118	17.36
468.473	17.39
468.829	17.05
469.184	17.19
469.539	17.47
469.894	17.25
470.249	17.51
470.603	17.36
470.958	17.62
471.313	17.56
471.668	17.84
472.023	17.75
472.377	17.76
472.732	17.73
473.086	18.07
473.441	17.65
473.795	18.14
474.15	17.76
474.504	17.87
474.859	17.96
475.213	17.83
475.567	17.9
475.921	18.17
476.275	18.03
476.63	18.18
476.984	18
477.338	18.21
477.692	18.27
478.045	18.4
478.399	18.4
478.753	18.43
479.107	18.53
479.461	18.44
479.814	18.57
480.168	18.47
480.521	18.37
480.875	18.6
481.228	18.53
481.582	18.55
481.935	18.45
482.289	18.58
482.642	18.42
482.995	18.62
483.348	18.59
483.701	18.6
484.055	18.54
484.408	18.5
484.761	18.53
485.114	18.3
485.466	18.16
485.819	17.92
486.172	17.9
486.525	17.92
486.878	18
487.23	18.11
487.583	18.21
487.936	18.45
488.288	18.63
488.641	18.72
488.993	18.59
489.345	18.41
489.698	18.46
490.05	18.37
490.402	18.37
490.754	18.44
491.107	18.57
491.459	18.84
491.811	18.76
492.163	19.02
492.515	19.1
492.866	19.04
493.218	19.04
493.57	19.02
493.922	18.68
494.274	18.87
494.625	18.8
494.977	19.01
495.328	19.3
495.68	19.4
496.031	19.57
496.383	19.69
496.734	19.84
497.086	19.82
497.437	20.16
497.788	20
498.139	19.94
498.49	20.07
498.842	19.83
499.193	19.84
499.544	19.94
499.894	19.92
500.245	20.02
500.596	19.95
500.947	20.22
501.298	20.24
501.648	20.19
501.999	20.3
502.35	20.18
502.7	20.54
503.051	20.34
503.401	20.47
503.752	20.5
504.102	20.63
504.452	20.66
504.803	20.76
505.153	20.81
505.503	20.6
505.853	20.75
506.203	20.59
506.553	20.7
506.903	20.64
507.253	20.7
507.603	20.87
507.953	21.04
508.303	20.78
508.652	20.8
509.002	21.02
509.352	21.08
509.701	21.03
510.051	21.1
510.4	20.91
510.75	20.95
511.099	20.89
511.449	20.96
511.798	21.07
512.147	20.92
512.496	20.89
512.846	21
513.195	21.02
513.544	21.18
513.893	21.26
514.242	21.05
514.591	21.29
514.939	21.19
515.288	21.25
515.637	21.2
515.986	21.39
516.334	21.45
516.683	21.51
517.032	21.51
517.38	21.71
517.729	21.51
518.077	21.67
518.426	21.67
518.774	21.61
519.122	21.76
519.47	21.59
519.819	21.5
520.167	21.56
520.515	21.3
520.863	21.21
521.211	21.33
521.559	21.48
521.907	21.41
522.255	21.65
522.602	21.62
522.95	21.78
523.298	22
523.645	21.89
523.993	21.88
524.341	21.99
524.688	21.92
525.036	21.98
525.383	22.06
525.73	22.1
526.078	22.13
526.425	21.96
526.772	22.2
527.119	21.91
527.466	21.77
527.814	21.74
528.161	21.69
528.508	21.8
528.854	21.77
529.201	21.73
529.548	21.89
529.895	21.81
530.242	21.7
530.588	21.56
530.935	21.34
531.282	21.4
531.628	21.49
531.975	21.36
532.321	21.53
532.667	21.76
533.014	22.02
533.36	22.04
533.706	22.14
534.052	22.3
534.399	22.17
534.745	22.16
535.091	22.1
535.437	21.9
535.783	21.84
536.129	21.95
536.474	22.14
536.82	22.1
537.166	22.39
537.512	22.35
537.857	22.61
538.203	22.72
538.549	22.54
538.894	22.31
539.239	22.48
539.585	22.46
539.93	22.6
540.276	22.72
540.621	22.9
540.966	22.85
541.311	23.12
541.656	23.1
542.001	23.05
542.346	23.19
542.691	22.99
543.036	22.83
543.381	22.72
543.726	22.54
544.071	22.49
544.415	22.56
544.76	22.66
545.105	22.67
545.449	22.9
545.794	22.93
546.138	22.9
546.483	23.11
546.827	23.18
547.171	23.33
547.516	23.32
547.86	23.42
548.204	23.36
548.548	23.39
548.892	23.33
549.236	23.28
549.58	23.39
549.924	23.59
550.268	23.7
550.612	23.66
550.956	23.97
551.3	23.86
551.643	23.88
551.987	23.95
552.33	24.26
552.674	24.31
553.017	24.28
553.361	24.17
553.704	24.5
554.048	24.3
554.391	24.45
554.734	24.41
555.077	24.29
555.42	24.19
555.764	24.11
556.107	24.42
556.45	24.26
556.793	24.25
557.135	24.67
557.478	24.52
557.821	24.56
558.164	24.68
558.507	24.86
558.849	24.64
559.192	24.71
559.534	24.76
559.877	24.72
560.219	24.94
560.562	24.88
560.904	24.92
561.246	24.75
561.589	24.96
561.931	24.96
562.273	24.52
562.615	25.06
562.957	25.1
563.299	25
563.641	25.03
563.983	25.09
564.325	24.99
564.667	25.12
565.008	25.19
565.35	25.02
565.692	25.29
566.033	25.12
566.375	25.26
566.716	25.34
567.058	25.39
567.399	25.36
567.741	25.54
568.082	25.16
568.423	25.25
568.764	25.67
569.105	25.13
569.447	25.31
569.788	25.35
570.129	25.45
570.47	25.52
570.811	25.6
571.151	25.7
571.492	25.47
571.833	25.62
572.174	25.7
572.514	25.78
572.855	25.82
573.195	25.57
573.536	25.74
573.876	25.95
574.217	25.65
574.557	25.67
574.898	25.85
575.238	25.76
575.578	25.99
575.918	25.9
576.258	25.68
576.598	25.87
576.938	26.15
577.278	26.13
577.618	25.85
577.958	26.2
578.298	26.13
578.638	25.96
578.977	26.33
579.317	26.3
579.657	26.45
579.996	26.51
580.336	26.57
580.675	26.59
581.014	26.61
581.354	26.37
581.693	26.41
582.032	26.67
582.372	26.79
582.711	26.61
583.05	26.59
583.389	26.79
583.728	26.55
584.067	26.86
584.406	26.62
584.745	26.98
585.083	27.12
585.422	27.08
585.761	26.75
586.1	26.81
586.438	27.04
586.777	27.12
587.115	27.16
587.454	26.89
587.792	27.29
588.13	27.34
588.469	27.24
588.807	27.42
589.145	27.1
589.483	27.24
589.821	27.14
590.159	27.12
590.497	27.58
590.835	27.31
591.173	27.33
591.511	27.4
591.849	27.37
592.187	27.45
592.524	27.56
592.862	27.62
593.2	27.35
593.537	27.44
593.875	27.7
594.212	27.93
594.55	27.82
594.887	27.55
595.224	27.9
595.561	27.99
595.899	28.1
596.236	28.22
596.573	27.88
596.91	27.94
597.247	27.84
597.584	28.13
597.921	28
598.258	28.07
598.594	28.13
598.931	28.03
599.268	28.1
599.604	28.05
599.941	27.98
600.277	28.06
600.614	27.91
600.95	28.12
601.287	28.02
601.623	28.3
601.959	28.05
602.296	28.46
602.632	28.47
602.968	28.62
603.304	28.54
603.64	28.62
603.976	28.5
604.312	28.48
604.648	28.43
604.984	28.32
605.319	28.45
605.655	28.59
605.991	28.51
606.326	28.26
606.662	28.49
606.998	28.51
607.333	28.52
607.668	28.72
608.004	28.62
608.339	28.46
608.674	28.53
609.01	28.72
609.345	28.83
609.68	29.23
610.015	28.77
610.35	28.96
610.685	29.12
611.02	29.21
611.355	28.96
611.689	29
612.024	29.19
612.359	28.95
612.694	28.75
613.028	29.17
613.363	28.86
613.697	29.08
614.032	29.23
614.366	29.49
614.7	29.33
615.035	29.48
615.369	29.45
615.703	29.42
616.037	29.79
616.371	29.82
616.705	30.06
617.039	29.81
617.373	29.93
617.707	29.52
618.041	29.89
618.375	29.63
618.709	29.84
619.042	29.94
619.376	30.1
619.71	30.44
620.043	29.79
620.377	30
620.71	30.08
621.043	30.25
621.377	29.95
621.71	30.26
622.043	30.34
622.376	30.32
622.709	30.15
623.043	30.04
623.376	30.57
623.709	30.36
624.041	30.52
624.374	30.45
624.707	30.72
625.04	30.66
625.373	30.41
625.705	30.38
626.038	30.17
626.37	30.49
626.703	30.66
627.035	30.56
627.368	30.51
627.7	30.78
628.032	30.58
628.365	30.89
628.697	30.9
629.029	30.74
629.361	30.74
629.693	30.76
630.025	30.79
630.357	30.43
630.689	30.67
631.021	30.58
631.353	30.84
631.684	30.98
632.016	30.98
632.348	30.71
632.679	30.67
633.011	30.84
633.342	31.34
633.674	31.1
634.005	30.78
634.336	30.95
634.668	31.07
634.999	31.42
635.33	31.4
635.661	31.22
635.992	31.24
636.323	31.42
636.654	31.25
636.985	31.44
637.316	31.08
637.647	31.27
637.977	30.93
638.308	31.55
638.639	31.14
638.969	31.35
639.3	31.35
639.63	31.55
639.961	31.48
640.291	31.6
640.622	31.66
640.952	32
641.282	31.67
641.612	32.35
641.943	32.07
642.273	31.48
642.603	31.92
642.933	31.9
643.263	31.42
643.592	32.3
643.922	32.55
644.252	32.16
644.582	32.78
644.911	32.31
645.241	32.13
645.571	32.12
645.9	32.52
646.23	32.14
646.559	32.53
646.888	32.51
647.218	32.65
647.547	32.37
647.876	32.58
648.205	31.82
648.534	32.8
648.863	32.21
649.192	32.56
649.521	32.06
649.85	32.76
650.179	32.57
650.508	32.44
650.837	32.72
651.165	32.86
651.494	32.7
651.822	32.53
652.151	32.7
652.479	32.89
652.808	32.32
653.136	32.99
653.465	32.97
653.793	32.35
654.121	33.3
654.449	32.34
654.777	33.06
655.105	33.04
655.433	32.87
655.761	33.11
656.089	33.18
656.417	32.91
656.745	32.94
657.073	33.93
657.4	33.61
657.728	33.1
658.056	33.25
658.383	33.05
658.711	32.98
659.038	32.73
659.365	32.81
659.693	33.14
660.02	33.21
660.347	33.68
660.674	33.21
661.001	33.2
661.329	33.48
661.656	33.77
661.982	33.28
662.309	33.53
662.636	33.44
662.963	33.57
663.29	33.43
663.616	33.44
663.943	33.69
664.27	33.41
664.596	34.01
664.923	33.73
665.249	33.52
665.576	33.46
665.902	33.95
666.228	33.7
666.554	33.61
666.881	33.78
667.207	34.36
667.533	33.28
667.859	34.23
668.185	34.02
668.511	34.4
668.837	33.69
669.162	34.68
669.488	34.15
669.814	34
670.139	34.29
670.465	34.53
670.791	34.74
671.116	34
671.442	34.42
671.767	34.17
672.092	34.49
672.418	35.18
672.743	34.71
673.068	34.35
673.393	34.05
673.718	34.79
674.043	34.55
674.368	34.46
674.693	34.37
675.018	34.75
675.343	34.65
675.667	34.39
675.992	34.5
676.317	34.41
676.641	34.59
676.966	35.29
677.29	34.8
677.615	36.09
677.939	34.96
678.264	35.04
678.588	35.38
678.912	35.57
679.236	34.48
679.56	34.99
679.885	34.41
680.209	35.77
680.532	35.18
680.856	34.94
681.18	34.94
681.504	35.4
681.828	35.3
682.152	35.4
682.475	35.43
682.799	35.42
683.122	35.73
683.446	35.04
683.769	35.26
684.093	35.28
684.416	35.55
684.739	35.05
685.062	35.53
685.386	35.88
685.709	35.31
686.032	34.82
686.355	35.46
686.678	35.41
687.001	35.69
687.324	35.51
687.646	35.45
687.969	35.47
688.292	36.2
688.614	36.11
688.937	35.9
689.26	35.29
689.582	35.43
689.904	35.55
690.227	36.19
690.549	36.69
690.871	35.23
691.194	36.3
691.516	35.91
691.838	36.34
692.16	36.33
692.482	36.1
692.804	35.84
693.126	35.28
693.448	36.54
693.769	35.85
694.091	35.77
694.413	37.15
694.735	36.76
695.056	36.73
695.378	36.3
695.699	36.41
696.021	36.93
696.342	37.07
696.663	36.19
696.984	35.89
697.306	35.7
697.627	35.78
697.948	36.07
698.269	36.71
698.59	36.61
698.911	35.82
699.232	36.51
699.553	36.16
699.873	36.07
700.194	36.28
700.515	36.91
700.835	37.57
701.156	37
701.477	36.88
701.797	36.56
702.117	36.86
702.438	36.52
702.758	36.21
703.078	36.28
703.398	37.5
703.719	36.04
704.039	37.5
704.359	36.01
704.679	36.63
704.999	37.65
705.319	37.12
705.638	36.53
705.958	37.42
706.278	38.78
706.597	37.14
706.917	37.84
707.237	37.1
707.556	37.06
707.876	36.13
708.195	37.51
708.514	36.93
708.834	37.42
709.153	37.33
709.472	37.74
709.791	36.38
710.11	38.05
710.429	37.89
710.748	38.07
711.067	38.23
711.386	38.11
711.705	37.7
712.023	38.16
712.342	37.77
712.661	38.16
712.979	37.64
713.298	37.68
713.616	36.61
713.935	36.97
714.253	38.44
714.572	38.4
714.89	37.82
715.208	38.27
715.526	37.24
715.844	38.53
716.162	38.42
716.48	38.05
716.798	37.76
717.116	38.4
717.434	38.13
717.752	37.49
718.069	37.85
718.387	38.11
718.705	37.8
719.022	38.11
719.34	38.14
719.657	36.77
719.975	39.08
720.292	38.09
720.609	39.05
720.927	37.79
721.244	37.82
721.561	39.91
721.878	38.09
722.195	37.13
722.512	37.81
722.829	38.58
723.146	39.41
723.463	37.93
723.779	38
724.096	39.1
724.413	39.03
724.729	37.76
725.046	38.14
725.362	39.7
725.679	39.65
725.995	39.18
726.311	37.82
726.628	37.89
726.944	37.91
727.26	38.84
727.576	38.08
727.892	37.87
728.208	39.54
728.524	38.45
728.84	39.12
729.156	38.11
729.472	38.58
729.787	38.11
730.103	38.11
730.419	40.41
730.734	38.69
731.05	38.77
731.365	38.87
731.681	39.45
731.996	39.76
732.311	37.72
732.626	39.36
732.942	39.95
733.257	39.39
733.572	38.55
733.887	37.94
734.202	39.78
734.517	39.2
734.832	38.61
735.146	39.38
735.461	39.84
735.776	38.52
736.091	38.73
736.405	38.27
736.72	39.42
737.034	38.73
737.349	38.82
737.663	38.74
737.977	39.15
738.292	40.05
738.606	39.39
738.92	38.12
739.234	37.77
739.548	39.67
739.862	39.03
740.176	38.61
740.49	38.44
740.804	39.75
741.117	39.82
741.431	39.47
741.745	41.42
742.058	38.8
742.372	37.3
742.685	38.75
742.999	38.64
743.312	41.49
743.626	38.86
743.939	39.73
744.252	40.26
744.565	38.44
744.878	42.31
745.191	39.14
745.505	40.42
745.817	37.13
746.13	40.02
746.443	41.44
746.756	40.74
747.069	38.56
747.381	36.69
747.694	38.37
748.007	38.4
748.319	41.86
748.632	38.88
748.944	40.64
749.256	40.37
749.569	38.61
749.881	39.12
750.193	40.78
750.505	39.8
750.817	39.18
751.129	41.2
751.441	41.65
751.753	41.53
752.065	41.65
752.377	39.73
752.689	39.67
753	40.78
753.312	41.81
753.624	40.47
753.935	41.53
754.247	40.33
754.558	41.11
754.869	39.56
755.181	41.46
755.492	41.24
755.803	41.99
756.114	41.32
756.425	40.19
756.736	39.56
757.047	40.92
757.358	39.46
757.669	39.3
757.98	40.15
758.291	40.04
758.601	39.89
758.912	42.01
759.223	42.88
759.533	40.14
759.844	39.38
760.154	40.77
760.464	38.49
760.775	41.13
761.085	39.36
761.395	40.64
761.705	41.63
762.016	39.63
762.326	39.96
762.636	42.38
762.945	40.86
763.255	41.95
763.565	39.54
763.875	40.55
764.185	42.6
764.494	40.25
764.804	39.69
765.113	41.68
765.423	39.06
765.732	41.63
766.042	41.15
766.351	40.76
766.66	41.8
766.97	42.39
767.279	41.16
767.588	40.15
767.897	40.36
768.206	40.34
768.515	39.97
768.824	43.11
769.133	40.49
769.441	40.37
769.75	41.34
770.059	43.61
770.367	41.31
770.676	42.84
770.984	38.8
771.293	41.06
771.601	41.85
771.91	39.92
772.218	40.58
772.526	43
772.834	40.65
773.142	41.86
773.45	41.99
773.758	40.24
774.066	42.07
774.374	38.24
774.682	39.7
774.99	41.67
775.298	40.83
775.605	41.14
775.913	42.93
776.22	40.88
776.528	41.21
776.835	43.05
777.143	43.04
777.45	45.23
777.757	43
778.065	43.52
778.372	37.8
778.679	38.87
778.986	40.73
779.293	39.25
779.6	43.85
779.907	40.75
780.214	43.11
780.52	38.64
780.827	40.98
781.134	44.29
781.44	39.47
781.747	41.41
782.053	40.06
782.36	41.85
782.666	41.64
782.973	42.76
783.279	43.28
783.585	45.52
783.891	40.9
784.197	44.28
784.503	43.86
784.809	40.8
785.115	40.66
785.421	46.57
785.727	43.59
786.033	42.96
786.339	42.9
786.644	46.16
786.95	40.68
787.255	45.62
787.561	44.45
787.866	46.89
788.172	42.17
788.477	41.85
788.782	46.09
789.088	45.16
789.393	35.24
789.698	46.73
790.003	41.53
790.308	42.64
790.613	41.1
790.918	44.35
791.223	42.6
791.527	41.55
791.832	45.26
792.137	41.65
792.441	44.18
792.746	41.6
793.05	43.96
793.355	44.2
793.659	44.7
793.963	47.5
794.268	44.29
794.572	42.28
794.876	42.01
795.18	44.96
795.484	40.65
795.788	37.32
796.092	39.69
796.396	43.99
796.7	38.9
797.004	41.33
797.307	34.65
797.611	38.07
797.915	42.54
798.218	48.86
798.522	43.88
798.825	41.84
799.128	44.5
799.432	43.17
799.735	42.84
800.038	44.13
800.341	41.56
800.644	43.89
800.947	45.53
801.25	43.05
801.553	46.39
801.856	49.07
802.159	44.42
802.462	46.01
802.764	42.74
803.067	42.36
803.37	41.85
803.672	47.79
803.975	40.35
804.277	43.1
804.579	41.23
804.882	42.23
805.184	42.74
805.486	42.44
805.788	48.25
806.09	42.48
806.392	43.21
806.694	44.96
806.996	42.13
807.298	44.63
807.6	41.08
807.902	40.74
808.203	37.14
808.505	40.75
808.807	44.63
809.108	45.33
809.409	46.09
809.711	49.36
810.012	39.24
810.313	45.23
810.615	42.59
810.916	42.02
811.217	41.37
811.518	42.65
811.819	42.65
812.12	40.2
812.421	46.4
812.722	42.37
813.023	38.02
813.323	39.67
813.624	44.75
813.925	46.02
814.225	43.86
814.526	46.19
814.826	44.16
815.126	45.03
815.427	43.87
815.727	45.21
816.027	37.72
816.327	42.46
816.627	40.51
816.927	46.51
817.227	43.54
817.527	39.35
817.827	41.34
818.127	44.2
818.427	40.66
818.727	45.37
819.026	48.05
819.326	46.05
819.625	45.01
819.925	46.25
820.224	45.55
820.524	37.9
820.823	44.5
821.122	36.87
821.421	42.59
821.72	49.98
822.019	42.49
822.318	44.94
822.617	41.59
822.916	44.37
823.215	45.72
823.514	42.6
823.813	45.11
824.111	48.54
824.41	44.06
824.709	45.09
825.007	44.61
825.306	42.56
825.604	44.36
825.902	43.98
826.201	44.57
826.499	43.64
826.797	43.76
827.095	43.9
827.393	43.87
827.691	44.25
827.989	41.5
828.287	42.38
828.585	44.67
828.882	42.78
829.18	45.93
829.478	41.31
829.775	43.45
830.073	40.07
830.37	43.7
830.668	44.47
830.965	45.17
831.263	43.57
831.56	43.03
831.857	43.79
832.154	47.26
832.451	42.26
832.748	40.46
833.045	45.28
833.342	44.26
833.639	45.41
833.936	46.89
834.232	44.37
834.529	45.72
834.826	44.23
835.122	41.15
835.419	45.94
835.715	40.88
836.012	42.03
836.308	53.5
836.604	45.7
836.901	45.13
837.197	47.13
837.493	47.77
837.789	45.01
838.085	42.81
838.381	41.88
838.677	40.39
838.972	42.88
839.268	43.52
839.564	47.07
839.86	44.2
840.155	37.43
840.451	50.65
840.746	43.54
841.042	51.65
841.337	44.89
841.632	50.62
841.928	52.54
842.223	52.67
842.518	41.52
842.813	48.1
843.108	50.72
843.403	46.1
843.698	56.93
843.993	42.06
844.287	47.48
844.582	48.72
844.877	40.2
845.171	40.46
845.466	42.63
845.761	32.71
846.055	47.38
846.349	48.42
846.644	32.89
846.938	47.21
847.232	41.06
847.526	39.44
847.82	46.35
848.114	52.23
848.408	53.11
848.702	43.06
848.996	44.69
849.29	60.92
849.584	56.46
849.877	50.27
850.171	28.07
850.465	45.53
850.758	39.92
851.052	37.48
851.345	49.81
851.638	48.14
851.932	60.04
852.225	40.03
852.518	63.13
852.811	57.01
853.104	52.14
853.397	44
853.69	43.81
853.983	55.93
854.276	34.78
854.569	30.51
854.861	27.87
855.154	45.93
855.447	36.81
855.739	27.43
856.032	54.07
856.324	32.46
856.616	46.13
856.909	36.89
857.201	42.66
857.493	45.1
857.785	56.79
858.077	62.27
858.369	41.94
858.661	48.97
858.953	35.49
859.245	39.66
859.537	43.87
859.829	34.89
860.12	54.12
860.412	46.17
860.703	31.72
860.995	45.83
861.286	34.92
861.578	48.83
861.869	46.18
862.16	32.86
862.452	20.71
862.743	49.1
863.034	48.1
863.325	47.39
863.616	29.94
863.907	28.02
864.198	68.98
864.488	35.66
864.779	53.6
865.07	37.28
865.36	36.38
865.651	55.62
865.941	44.72
866.232	67.72
866.522	47.64
866.813	54.44
867.103	42.79
867.393	37.5
867.683	46.18
867.973	52.12
868.263	62.41
868.553	40.24
868.843	33
869.133	52.42
869.423	44.38
869.713	54.8
870.002	49.34
870.292	45.02
870.582	47.73
870.871	50.76
871.161	48.18
871.45	39.35
871.739	21.7
872.029	73.85
872.318	49.3
872.607	47.63
872.896	48.15
873.185	45.02
873.474	51.23
873.763	46.4
874.052	91.19
874.341	34.07
874.63	49.42
874.918	20.51
875.207	46.96
875.496	51.74
875.784	54.48
876.073	50.12
876.361	70.09
876.649	36.95
876.938	58.69
877.226	42.11
877.514	64.91
877.802	52.59
878.09	64.08
878.378	39.32
878.666	58.14
878.954	59
879.242	43.38
879.53	66.62
879.817	44.8
880.105	27.13
880.392	30.5
880.68	48.81
880.967	63.09
881.255	31.16
881.542	59.1
881.83	68.31
882.117	28.4
882.404	55.05
882.691	45.17
882.978	46.4
883.265	31.68
883.552	36.07
883.839	34.2
884.126	49.25
884.413	36.17
884.699	49.59
884.986	48.45
885.273	43
885.559	43
885.846	43
