Data from 1610-4_forehead_Reflection__6__62.txt Node

Date: Fri Nov 11 16:36:31 CST 2022
User: ToomeyLab
Spectrometer: FLMS14357
Trigger mode: 0
Integration Time (sec): 1.000000E-2
Scans to average: 100
Electric dark correction enabled: true
Nonlinearity correction enabled: false
Boxcar width: 0
XAxis mode: Wavelengths
Number of Pixels in Spectrum: 2048
>>>>>Begin Spectral Data<<<<<
189.047	52.55
189.435	52.55
189.823	52.55
190.211	188.84
190.599	573.85
190.987	-900.88
191.375	154.53
191.763	89.17
192.151	66.44
192.538	67.98
192.926	-401.4
193.314	5.24
193.702	256.11
194.089	-7285.71
194.477	1011.65
194.864	89.93
195.252	79.08
195.639	-141.16
196.027	-275.47
196.414	531.18
196.801	260.79
197.189	105.17
197.576	-512.96
197.963	-3.91
198.351	24.58
198.738	15.21
199.125	38
199.512	77.81
199.899	-5.33
200.286	34.9
200.673	-9.96
201.06	1.31
201.447	10.16
201.833	11.33
202.22	58.66
202.607	42.3
202.994	32.11
203.38	8.74
203.767	5.57
204.154	-2.12
204.54	28.74
204.927	12.92
205.313	17.6
205.699	20.82
206.086	47.93
206.472	28.34
206.858	6.81
207.245	23.68
207.631	53.75
208.017	12.46
208.403	33
208.789	4.88
209.175	26.79
209.561	41.89
209.947	13.41
210.333	35.05
210.719	26.56
211.105	3.02
211.491	-117.59
211.876	26.31
212.262	-11.34
212.648	32.68
213.034	26.34
213.419	8.12
213.805	26.08
214.19	-36.33
214.576	32.64
214.961	-3.77
215.346	-5
215.732	-36.78
216.117	17.91
216.502	18.76
216.888	18.07
217.273	6.04
217.658	7.64
218.043	13.29
218.428	1.67
218.813	32.37
219.198	-14.63
219.583	3.19
219.968	7.24
220.353	2.78
220.738	0.06
221.122	-7.35
221.507	32.77
221.892	0.65
222.276	-7.54
222.661	-3.97
223.046	-1.36
223.43	12.58
223.815	11.67
224.199	4.28
224.583	0.42
224.968	11.32
225.352	-6.34
225.736	6.56
226.121	-5.13
226.505	8.44
226.889	4.16
227.273	5.33
227.657	-0.52
228.041	-0.69
228.425	5.22
228.809	6.49
229.193	1.95
229.577	3.65
229.961	2.69
230.344	3.43
230.728	3.13
231.112	3.75
231.495	3.57
231.879	3.05
232.263	1.61
232.646	2.62
233.03	4.39
233.413	2.52
233.797	3.22
234.18	3.25
234.563	4.69
234.946	2.22
235.33	4.04
235.713	3.07
236.096	1.87
236.479	4.1
236.862	4
237.245	2.3
237.628	3.35
238.011	3.98
238.394	3.13
238.777	2.33
239.16	3.81
239.543	3.83
239.925	6.08
240.308	1.45
240.691	2.75
241.073	3.47
241.456	3.15
241.838	3.22
242.221	3.12
242.603	3.18
242.986	2.62
243.368	2.99
243.75	3.39
244.133	2.93
244.515	3.22
244.897	3.37
245.279	2.82
245.661	3.11
246.043	3.93
246.425	4.05
246.807	3.12
247.189	3.55
247.571	2.67
247.953	3.22
248.335	3.73
248.717	3.41
249.098	3.22
249.48	3.56
249.862	3.25
250.243	3.05
250.625	3.15
251.006	3.64
251.388	3.41
251.769	3.4
252.151	3.93
252.532	3.57
252.913	2.62
253.295	3.52
253.676	3.37
254.057	3.38
254.438	3.86
254.819	3.89
255.2	3.94
255.581	4.13
255.962	2.83
256.343	3.75
256.724	3.32
257.105	3.18
257.486	4.31
257.867	3.52
258.247	4.16
258.628	3.01
259.009	3.42
259.389	3.61
259.77	3.97
260.15	3.78
260.531	3.09
260.911	3.47
261.292	3.42
261.672	3.37
262.052	3.48
262.432	3.88
262.813	3.62
263.193	3.19
263.573	3.9
263.953	3.47
264.333	3.74
264.713	2.92
265.093	3.85
265.473	4.01
265.853	3.2
266.233	3.53
266.612	4
266.992	3.56
267.372	3.26
267.752	3.92
268.131	3.57
268.511	3.5
268.89	3.45
269.27	3.46
269.649	2.92
270.029	3.17
270.408	3.56
270.787	3.68
271.167	3.48
271.546	3.75
271.925	4.26
272.304	3.84
272.683	3.6
273.062	3.52
273.441	3.35
273.82	3.37
274.199	3.54
274.578	3.68
274.957	3.26
275.336	3.57
275.715	3.56
276.093	4.35
276.472	3.36
276.851	3.74
277.229	3.52
277.608	3.2
277.986	3.68
278.365	3.48
278.743	3.74
279.122	3.08
279.5	3.19
279.878	3.33
280.257	3.78
280.635	3.2
281.013	3.82
281.391	3.44
281.769	3.91
282.147	3.53
282.525	3.43
282.903	4.06
283.281	3.73
283.659	3.62
284.037	3.39
284.415	3.45
284.792	3.32
285.17	3.39
285.548	3.41
285.925	3.73
286.303	3.4
286.68	3.66
287.058	3.69
287.435	3.84
287.813	3.75
288.19	3.99
288.567	3.57
288.945	3.37
289.322	3.66
289.699	4.09
290.076	3.38
290.453	3.27
290.83	4.13
291.207	3.82
291.584	3.74
291.961	3.76
292.338	3.96
292.715	3.98
293.092	3.74
293.469	4.4
293.845	3.95
294.222	4.24
294.599	4.22
294.975	3.96
295.352	3.81
295.728	4.2
296.105	4.05
296.481	4.08
296.858	4.44
297.234	4.17
297.61	4.15
297.986	4.1
298.363	4.2
298.739	4.38
299.115	4.28
299.491	4.53
299.867	4.03
300.243	4.29
300.619	4.94
300.995	4.14
301.371	3.96
301.746	4.22
302.122	4.58
302.498	4.57
302.874	4.7
303.249	4.39
303.625	4.47
304	4.76
304.376	4.84
304.751	4.82
305.127	5.25
305.502	5.18
305.878	5.54
306.253	5.02
306.628	5.13
307.003	4.66
307.378	5.51
307.754	5.47
308.129	5.46
308.504	4.93
308.879	4.76
309.254	4.68
309.629	4.97
310.003	5.36
310.378	4.72
310.753	5.61
311.128	5.89
311.502	5.21
311.877	5.8
312.252	5.3
312.626	5.18
313.001	5.57
313.375	5.75
313.75	5.95
314.124	5.74
314.498	6
314.873	5.74
315.247	6.09
315.621	5.98
315.995	5.59
316.369	6.19
316.743	6.13
317.117	6.23
317.491	6.27
317.865	6.15
318.239	6.37
318.613	6.38
318.987	6.88
319.361	6.37
319.734	5.97
320.108	6.61
320.482	6.58
320.855	7.04
321.229	7.08
321.602	6.8
321.976	6.25
322.349	7.01
322.723	6.97
323.096	7.31
323.469	6.83
323.843	7.31
324.216	6.8
324.589	7.22
324.962	6.82
325.335	7.29
325.708	7.18
326.081	6.87
326.454	7.01
326.827	7.26
327.2	7.12
327.573	7.33
327.945	7.37
328.318	7.53
328.691	7.66
329.063	8
329.436	7.43
329.809	7.14
330.181	7.74
330.553	8.12
330.926	7.58
331.298	7.24
331.671	7.64
332.043	8.05
332.415	7.63
332.787	7.99
333.159	8.26
333.532	7.58
333.904	7.53
334.276	7.87
334.648	8.1
335.02	8.45
335.391	8.19
335.763	8.34
336.135	7.64
336.507	8.42
336.879	8.35
337.25	7.82
337.622	8.61
337.993	8.32
338.365	8.2
338.736	8.39
339.108	8.32
339.479	8.64
339.851	7.78
340.222	8.14
340.593	8.16
340.964	8.42
341.336	8.52
341.707	8.36
342.078	8.5
342.449	9.17
342.82	8.41
343.191	9.08
343.562	9.01
343.933	8.27
344.303	9.15
344.674	9.26
345.045	8.78
345.416	8.98
345.786	9.12
346.157	8.83
346.527	9.46
346.898	8.95
347.268	9.37
347.639	9.15
348.009	9.21
348.38	9.18
348.75	9.8
349.12	9.73
349.49	9.69
349.861	9.25
350.231	9.38
350.601	9.8
350.971	9.75
351.341	9.42
351.711	9.48
352.081	9.13
352.45	9.42
352.82	9.63
353.19	9.75
353.56	9.99
353.929	9.87
354.299	10.03
354.669	9.83
355.038	9.93
355.408	9.92
355.777	10.04
356.147	10.03
356.516	10.38
356.885	10.06
357.254	9.93
357.624	10.14
357.993	10.56
358.362	10.05
358.731	10.1
359.1	10.06
359.469	10.17
359.838	10.42
360.207	10.56
360.576	10.36
360.945	10.55
361.314	10.5
361.682	10.48
362.051	10.39
362.42	10.65
362.788	10.59
363.157	10.72
363.525	10.9
363.894	10.73
364.262	10.43
364.631	10.7
364.999	10.72
365.367	10.93
365.735	11.16
366.104	10.77
366.472	11.09
366.84	11.38
367.208	10.91
367.576	11.24
367.944	11.39
368.312	11.14
368.68	11.12
369.048	11.12
369.416	11.08
369.783	11.09
370.151	11.68
370.519	11.92
370.886	11.42
371.254	11.7
371.621	11.64
371.989	11.71
372.356	11.69
372.724	11.87
373.091	11.65
373.458	11.78
373.826	11.67
374.193	11.76
374.56	11.74
374.927	11.73
375.294	11.85
375.661	12.43
376.028	11.82
376.395	12.37
376.762	12.15
377.129	12.18
377.496	12.4
377.863	12.18
378.229	12.28
378.596	12.35
378.963	12.01
379.329	12.35
379.696	12.47
380.062	12.41
380.429	12.36
380.795	12.3
381.161	12.64
381.528	12.45
381.894	12.57
382.26	12.41
382.626	12.73
382.993	12.83
383.359	12.68
383.725	12.83
384.091	12.87
384.457	12.81
384.823	12.81
385.188	12.81
385.554	12.93
385.92	12.9
386.286	13.04
386.651	13.05
387.017	13.13
387.383	13
387.748	13.02
388.114	13.13
388.479	13.25
388.845	13.17
389.21	13.36
389.575	13.29
389.94	13.44
390.306	13.66
390.671	13.33
391.036	13.56
391.401	13.69
391.766	13.61
392.131	13.48
392.496	13.68
392.861	13.64
393.226	13.68
393.591	13.76
393.956	13.83
394.32	13.78
394.685	14.04
395.05	14.17
395.414	14.13
395.779	13.78
396.143	14.08
396.508	13.9
396.872	14.06
397.236	14.09
397.601	14.24
397.965	14.12
398.329	14.25
398.694	14.02
399.058	14.28
399.422	14.44
399.786	14.48
400.15	14.36
400.514	14.59
400.878	14.56
401.242	14.69
401.605	14.48
401.969	14.73
402.333	14.72
402.697	14.74
403.06	14.65
403.424	14.66
403.787	14.89
404.151	14.81
404.514	14.89
404.878	15.19
405.241	14.66
405.604	14.87
405.968	15.09
406.331	14.85
406.694	15.04
407.057	14.99
407.42	15.07
407.783	15.12
408.146	15.3
408.509	15.44
408.872	15.55
409.235	15.6
409.598	15.3
409.961	15.4
410.323	15.35
410.686	15.69
411.049	15.82
411.411	15.37
411.774	15.52
412.136	15.51
412.499	15.48
412.861	15.53
413.223	15.81
413.586	15.83
413.948	15.95
414.31	16.04
414.672	15.97
415.035	16.03
415.397	16.07
415.759	16.27
416.121	16.19
416.483	16.09
416.845	16.1
417.206	16.27
417.568	16.13
417.93	16.13
418.292	16.12
418.653	15.97
419.015	16.27
419.377	16.27
419.738	16.22
420.1	16.18
420.461	16.09
420.822	16.12
421.184	16.18
421.545	16.2
421.906	16.31
422.267	16.31
422.629	16.31
422.99	16.21
423.351	16.22
423.712	16.34
424.073	16.38
424.434	16.48
424.795	16.7
425.155	16.68
425.516	16.48
425.877	16.43
426.238	16.52
426.598	16.59
426.959	16.61
427.32	16.77
427.68	16.8
428.041	16.98
428.401	16.9
428.761	17.09
429.122	17.32
429.482	17.29
429.842	17.25
430.202	17.37
430.563	17.35
430.923	17.5
431.283	17.43
431.643	17.49
432.003	17.67
432.363	17.71
432.722	17.62
433.082	17.64
433.442	17.71
433.802	17.78
434.161	17.71
434.521	17.83
434.881	17.69
435.24	17.91
435.6	17.67
435.959	17.92
436.319	17.88
436.678	17.83
437.037	17.92
437.396	17.78
437.756	18.13
438.115	18.01
438.474	18.07
438.833	18.3
439.192	18.41
439.551	18.2
439.91	18.41
440.269	18.38
440.628	18.49
440.987	18.57
441.345	18.4
441.704	18.43
442.063	18.39
442.421	18.25
442.78	18.39
443.138	18.34
443.497	18.46
443.855	18.51
444.214	18.61
444.572	18.75
444.93	18.87
445.288	18.89
445.647	18.77
446.005	18.88
446.363	18.92
446.721	18.76
447.079	18.8
447.437	18.72
447.795	18.72
448.153	18.87
448.51	18.81
448.868	18.74
449.226	18.9
449.584	18.98
449.941	19.08
450.299	19.27
450.656	19.2
451.014	19.33
451.371	19.43
451.729	19.52
452.086	19.37
452.443	19.53
452.801	19.68
453.158	19.74
453.515	19.59
453.872	19.64
454.229	19.7
454.586	19.75
454.943	19.63
455.3	19.82
455.657	19.98
456.014	19.9
456.371	20.06
456.727	20.06
457.084	20.09
457.441	20.08
457.797	20.35
458.154	20.21
458.51	20.22
458.867	20.47
459.223	20.27
459.58	20.43
459.936	20.43
460.292	20.27
460.648	20.37
461.005	20.35
461.361	20.25
461.717	20.1
462.073	20.19
462.429	20.28
462.785	20.44
463.141	20.42
463.496	20.48
463.852	20.82
464.208	20.91
464.564	20.85
464.919	20.87
465.275	20.82
465.631	20.98
465.986	20.97
466.342	21.09
466.697	21.1
467.052	21.04
467.408	21.36
467.763	21.24
468.118	21.27
468.473	21.25
468.829	21.39
469.184	21.29
469.539	21.41
469.894	21.52
470.249	21.35
470.603	21.54
470.958	21.57
471.313	21.65
471.668	21.69
472.023	21.57
472.377	21.73
472.732	21.8
473.086	21.63
473.441	21.7
473.795	21.86
474.15	21.77
474.504	21.8
474.859	22
475.213	21.85
475.567	22.02
475.921	22.3
476.275	22
476.63	21.95
476.984	22.13
477.338	22.11
477.692	22.48
478.045	22.21
478.399	22.17
478.753	22.35
479.107	22.29
479.461	22.25
479.814	22.32
480.168	22.45
480.521	22.37
480.875	22.44
481.228	22.45
481.582	22.5
481.935	22.69
482.289	22.75
482.642	22.62
482.995	22.56
483.348	22.44
483.701	22.46
484.055	22.37
484.408	22.36
484.761	22.17
485.114	22.02
485.466	21.88
485.819	21.99
486.172	21.94
486.525	21.99
486.878	22.16
487.23	22.27
487.583	22.51
487.936	22.54
488.288	22.45
488.641	22.51
488.993	22.44
489.345	22.45
489.698	22.45
490.05	22.42
490.402	22.54
490.754	22.71
491.107	22.88
491.459	23.02
491.811	23.06
492.163	23.16
492.515	23.15
492.866	23
493.218	22.85
493.57	22.94
493.922	22.99
494.274	23.07
494.625	23.11
494.977	23.37
495.328	23.54
495.68	23.74
496.031	23.75
496.383	23.93
496.734	24.02
497.086	24.05
497.437	24.16
497.788	24.22
498.139	24.13
498.49	24.01
498.842	24.02
499.193	24.17
499.544	24.31
499.894	24.24
500.245	24.3
500.596	24.34
500.947	24.43
501.298	24.46
501.648	24.68
501.999	24.6
502.35	24.64
502.7	24.79
503.051	24.67
503.401	24.8
503.752	24.92
504.102	25.07
504.452	24.93
504.803	24.82
505.153	25.06
505.503	25
505.853	25.14
506.203	25.21
506.553	25.22
506.903	25.05
507.253	25.38
507.603	25.27
507.953	25.53
508.303	25.42
508.652	25.21
509.002	25.43
509.352	25.59
509.701	25.47
510.051	25.27
510.4	25.4
510.75	25.43
511.099	25.45
511.449	25.48
511.798	25.45
512.147	25.62
512.496	25.6
512.846	25.61
513.195	25.64
513.544	25.76
513.893	25.83
514.242	25.92
514.591	25.66
514.939	25.97
515.288	26.01
515.637	25.91
515.986	26.17
516.334	26.1
516.683	26.33
517.032	26.17
517.38	26.33
517.729	26.33
518.077	26.34
518.426	26.45
518.774	26.43
519.122	26.43
519.47	26.28
519.819	26.15
520.167	26.16
520.515	26.19
520.863	26.19
521.211	26.26
521.559	26.23
521.907	26.47
522.255	26.66
522.602	26.59
522.95	26.67
523.298	26.86
523.645	26.92
523.993	26.96
524.341	27.09
524.688	27.16
525.036	27.09
525.383	27.05
525.73	27.19
526.078	27.06
526.425	27.05
526.772	26.99
527.119	26.94
527.466	26.83
527.814	26.88
528.161	26.84
528.508	26.89
528.854	26.99
529.201	27.02
529.548	26.86
529.895	26.82
530.242	26.76
530.588	26.74
530.935	26.73
531.282	26.82
531.628	26.83
531.975	26.98
532.321	27.1
532.667	27.25
533.014	27.42
533.36	27.4
533.706	27.65
534.052	27.58
534.399	27.65
534.745	27.49
535.091	27.28
535.437	27.42
535.783	27.54
536.129	27.5
536.474	27.65
536.82	27.87
537.166	27.92
537.512	28.2
537.857	28.15
538.203	28.11
538.549	28.03
538.894	28.17
539.239	28.07
539.585	28.39
539.93	28.45
540.276	28.56
540.621	28.68
540.966	28.75
541.311	28.77
541.656	28.45
542.001	28.73
542.346	28.63
542.691	28.34
543.036	28.2
543.381	28.19
543.726	28.19
544.071	28.29
544.415	28.43
544.76	28.5
545.105	28.63
545.449	28.7
545.794	28.82
546.138	28.86
546.483	29.12
546.827	28.98
547.171	29.12
547.516	29.25
547.86	29.27
548.204	29.33
548.548	29.22
548.892	29.23
549.236	29.29
549.58	29.6
549.924	29.71
550.268	29.96
550.612	29.92
550.956	29.93
551.3	30.2
551.643	30.23
551.987	30.1
552.33	30.19
552.674	30.39
553.017	30.29
553.361	30.41
553.704	30.43
554.048	30.45
554.391	30.54
554.734	30.32
555.077	30.49
555.42	30.55
555.764	30.52
556.107	30.46
556.45	30.77
556.793	30.78
557.135	30.67
557.478	30.87
557.821	30.94
558.164	31.05
558.507	31.11
558.849	30.89
559.192	30.93
559.534	31.04
559.877	30.93
560.219	31.07
560.562	31.26
560.904	31.19
561.246	31.24
561.589	31.25
561.931	31.35
562.273	31.4
562.615	31.47
562.957	31.25
563.299	31.45
563.641	31.39
563.983	31.46
564.325	31.48
564.667	31.7
565.008	31.67
565.35	31.77
565.692	31.85
566.033	31.86
566.375	31.88
566.716	31.69
567.058	31.68
567.399	31.74
567.741	31.75
568.082	31.91
568.423	32.03
568.764	31.88
569.105	31.93
569.447	31.88
569.788	32.04
570.129	31.96
570.47	32.08
570.811	32.41
571.151	32.07
571.492	32.32
571.833	32.39
572.174	32.46
572.514	32.45
572.855	32.37
573.195	32.48
573.536	32.28
573.876	32.43
574.217	32.34
574.557	32.38
574.898	32.6
575.238	32.49
575.578	32.65
575.918	32.58
576.258	32.76
576.598	32.79
576.938	32.75
577.278	32.62
577.618	32.77
577.958	33.04
578.298	32.92
578.638	33.08
578.977	32.9
579.317	33.03
579.657	33.24
579.996	33.18
580.336	33.29
580.675	33.26
581.014	33.5
581.354	33.33
581.693	33.47
582.032	33.61
582.372	33.66
582.711	33.81
583.05	33.54
583.389	33.88
583.728	33.95
584.067	33.95
584.406	33.9
584.745	33.79
585.083	34.14
585.422	33.83
585.761	34.28
586.1	34.02
586.438	34.14
586.777	34.33
587.115	34.18
587.454	34.39
587.792	34.22
588.13	34.43
588.469	34.25
588.807	34.36
589.145	34.33
589.483	34.42
589.821	34.43
590.159	34.16
590.497	34.35
590.835	34.37
591.173	34.5
591.511	34.64
591.849	34.29
592.187	34.46
592.524	34.53
592.862	34.47
593.2	34.85
593.537	34.88
593.875	35
594.212	34.92
594.55	34.87
594.887	35.15
595.224	35
595.561	35
595.899	34.93
596.236	34.91
596.573	35.11
596.91	34.96
597.247	35
597.584	35.08
597.921	35.16
598.258	35.12
598.594	34.97
598.931	35.08
599.268	34.85
599.604	35.04
599.941	35.26
600.277	35.08
600.614	35.34
600.95	35.66
601.287	35.79
601.623	35.72
601.959	35.57
602.296	35.64
602.632	35.8
602.968	35.91
603.304	35.79
603.64	35.7
603.976	36.22
604.312	35.78
604.648	35.74
604.984	35.85
605.319	35.84
605.655	35.91
605.991	35.75
606.326	35.73
606.662	35.83
606.998	35.81
607.333	35.86
607.668	35.9
608.004	36.05
608.339	36.31
608.674	36.29
609.01	36.14
609.345	36.01
609.68	36.52
610.015	36.54
610.35	36.39
610.685	36.16
611.02	36.55
611.355	36.36
611.689	36.43
612.024	36.45
612.359	36.37
612.694	36.66
613.028	36.6
613.363	36.79
613.697	37.05
614.032	36.54
614.366	36.72
614.7	36.79
615.035	36.92
615.369	37.17
615.703	37.06
616.037	37.3
616.371	37.22
616.705	37.08
617.039	37.41
617.373	37.46
617.707	37.17
618.041	37.25
618.375	37.66
618.709	37.45
619.042	37.47
619.376	37.19
619.71	37.37
620.043	37.51
620.377	37.35
620.71	37.92
621.043	37.69
621.377	37.66
621.71	37.33
622.043	37.06
622.376	37.64
622.709	37.67
623.043	38.03
623.376	37.65
623.709	37.7
624.041	38.1
624.374	37.83
624.707	37.88
625.04	37.95
625.373	37.94
625.705	38.2
626.038	38.04
626.37	38.21
626.703	38.07
627.035	37.97
627.368	38.11
627.7	38.1
628.032	38.03
628.365	38.38
628.697	38.18
629.029	38.31
629.361	38.63
629.693	38.31
630.025	38.06
630.357	38.24
630.689	38.4
631.021	38.5
631.353	38.61
631.684	38.67
632.016	38.64
632.348	38.61
632.679	38.58
633.011	38.65
633.342	38.93
633.674	38.75
634.005	39.02
634.336	38.81
634.668	38.68
634.999	38.65
635.33	38.99
635.661	39.22
635.992	39.04
636.323	38.82
636.654	39.32
636.985	38.93
637.316	39.38
637.647	39.42
637.977	39.45
638.308	39.21
638.639	39.06
638.969	39.44
639.3	39.34
639.63	39.32
639.961	39.47
640.291	39.23
640.622	39.43
640.952	39.55
641.282	39.43
641.612	39.42
641.943	39.75
642.273	39.61
642.603	39.59
642.933	39.29
643.263	39.62
643.592	39.95
643.922	39.83
644.252	39.9
644.582	40.07
644.911	39.68
645.241	39.81
645.571	39.87
645.9	39.75
646.23	40.08
646.559	39.51
646.888	40.32
647.218	40.03
647.547	40.29
647.876	39.81
648.205	40.26
648.534	39.99
648.863	40.12
649.192	40.39
649.521	40.45
649.85	40.23
650.179	40.21
650.508	40.52
650.837	40.55
651.165	40.58
651.494	40.48
651.822	40.16
652.151	40.71
652.479	40.58
652.808	40.37
653.136	40.51
653.465	40.44
653.793	40.52
654.121	40.9
654.449	40.49
654.777	40.38
655.105	40.65
655.433	40.42
655.761	40.57
656.089	40.66
656.417	40.6
656.745	40.38
657.073	41.04
657.4	40.79
657.728	40.95
658.056	40.9
658.383	41.27
658.711	40.58
659.038	40.75
659.365	40.79
659.693	40.69
660.02	41.11
660.347	41.26
660.674	40.68
661.001	40.96
661.329	41.04
661.656	41.25
661.982	41.05
662.309	41.23
662.636	41
662.963	40.95
663.29	41.36
663.616	41.3
663.943	42.1
664.27	41.62
664.596	41.93
664.923	41.45
665.249	41.45
665.576	41.44
665.902	41.01
666.228	41.66
666.554	41.25
666.881	41.74
667.207	41.64
667.533	41.51
667.859	41.29
668.185	41.55
668.511	41.09
668.837	41.88
669.162	41.68
669.488	41.72
669.814	41.4
670.139	41.76
670.465	41.72
670.791	41.85
671.116	41.68
671.442	41.51
671.767	41.84
672.092	42.23
672.418	42.16
672.743	42.13
673.068	41.87
673.393	41.98
673.718	41.93
674.043	42.38
674.368	42.35
674.693	42.4
675.018	42.68
675.343	42.55
675.667	41.95
675.992	42.25
676.317	42.12
676.641	42.8
676.966	42.01
677.29	42.03
677.615	42.21
677.939	43.29
678.264	42.36
678.588	42.51
678.912	43.05
679.236	42.86
679.56	42.61
679.885	43.22
680.209	42.95
680.532	42.44
680.856	43.13
681.18	42.83
681.504	42.83
681.828	42.68
682.152	43
682.475	42.87
682.799	42.78
683.122	43.22
683.446	43.4
683.769	43.17
684.093	42.8
684.416	42.86
684.739	43.2
685.062	43.54
685.386	42.9
685.709	43.59
686.032	43.51
686.355	42.83
686.678	42.5
687.001	43.65
687.324	43.53
687.646	42.37
687.969	42.78
688.292	43.44
688.614	43.59
688.937	43.63
689.26	43.9
689.582	43.53
689.904	43.72
690.227	43.91
690.549	43.53
690.871	43.16
691.194	43.59
691.516	43.99
691.838	44.15
692.16	44.07
692.482	43.67
692.804	43.79
693.126	43.51
693.448	43.84
693.769	44.18
694.091	44.74
694.413	42.72
694.735	43.48
695.056	44.42
695.378	43.57
695.699	44.56
696.021	44.4
696.342	43.58
696.663	43.75
696.984	42.93
697.306	44.61
697.627	43.93
697.948	44.6
698.269	44.74
698.59	44.69
698.911	45.4
699.232	44.33
699.553	44.4
699.873	44.37
700.194	44.42
700.515	44.25
700.835	44.11
701.156	44.09
701.477	44.46
701.797	44
702.117	44.83
702.438	44.02
702.758	44.5
703.078	44.05
703.398	43.62
703.719	44.2
704.039	43.92
704.359	45.19
704.679	43.04
704.999	44.73
705.319	44.26
705.638	44.19
705.958	43.18
706.278	44.5
706.597	44.33
706.917	44.53
707.237	44.35
707.556	44.85
707.876	45.32
708.195	44.54
708.514	44.7
708.834	44.41
709.153	44.6
709.472	45.01
709.791	45.32
710.11	44.58
710.429	44.22
710.748	44.03
711.067	44.5
711.386	44.82
711.705	44.54
712.023	44.71
712.342	45.46
712.661	44.76
712.979	45.56
713.298	45.3
713.616	44.65
713.935	45.24
714.253	44.09
714.572	45.08
714.89	44.57
715.208	44.3
715.526	45.58
715.844	45.22
716.162	44.73
716.48	43.63
716.798	44.88
717.116	44.96
717.434	45.05
717.752	45.31
718.069	45.68
718.387	45.83
718.705	44.96
719.022	44.5
719.34	45.08
719.657	45.04
719.975	45.07
720.292	44.86
720.609	45.47
720.927	46.22
721.244	45.63
721.561	45.03
721.878	45.84
722.195	46.38
722.512	46.24
722.829	45.41
723.146	46.53
723.463	46.05
723.779	46.34
724.096	45.01
724.413	45.48
724.729	44.96
725.046	44.76
725.362	46.25
725.679	46.88
725.995	46.42
726.311	45.51
726.628	44.88
726.944	45.35
727.26	46.04
727.576	45.31
727.892	45.1
728.208	45.81
728.524	45.39
728.84	44.95
729.156	45.09
729.472	44.91
729.787	45.61
730.103	45.79
730.419	46.8
730.734	46.14
731.05	45.58
731.365	45.53
731.681	45.38
731.996	46.87
732.311	46.08
732.626	46.76
732.942	45.81
733.257	44.98
733.572	47.17
733.887	45.4
734.202	46.38
734.517	46.96
734.832	45.98
735.146	45.37
735.461	44.87
735.776	45.8
736.091	45.86
736.405	47.27
736.72	45.43
737.034	46.58
737.349	47.03
737.663	46.01
737.977	47.22
738.292	46.03
738.606	45.52
738.92	46.4
739.234	46.83
739.548	45.96
739.862	44.77
740.176	47.5
740.49	46.92
740.804	45.75
741.117	46.89
741.431	46.71
741.745	46.74
742.058	47.16
742.372	46.43
742.685	46.26
742.999	46.49
743.312	48.2
743.626	46.05
743.939	46.64
744.252	45.28
744.565	47.77
744.878	46.45
745.191	47.75
745.505	46.97
745.817	45.82
746.13	47.05
746.443	45.86
746.756	45.66
747.069	47.06
747.381	47.25
747.694	46.96
748.007	46.54
748.319	46.66
748.632	45.02
748.944	46.68
749.256	44.85
749.569	47.24
749.881	47.23
750.193	46.87
750.505	47.22
750.817	46.33
751.129	47.3
751.441	47.04
751.753	48
752.065	46.69
752.377	47.58
752.689	45.7
753	45.6
753.312	46.28
753.624	46.88
753.935	47.68
754.247	46.16
754.558	46.7
754.869	47.7
755.181	46.61
755.492	46.2
755.803	46.78
756.114	46.09
756.425	47.82
756.736	46.03
757.047	46.96
757.358	47.64
757.669	48.62
757.98	46.31
758.291	47.83
758.601	47.61
758.912	47.57
759.223	46.62
759.533	46.13
759.844	46.86
760.154	47.61
760.464	46.68
760.775	47.78
761.085	46.67
761.395	47.28
761.705	48.3
762.016	47.52
762.326	46.88
762.636	48.63
762.945	47.85
763.255	47.5
763.565	48.05
763.875	48.34
764.185	47.46
764.494	48.16
764.804	48.14
765.113	47.69
765.423	48.58
765.732	47.28
766.042	47.42
766.351	48.88
766.66	47.22
766.97	47.05
767.279	47.85
767.588	48.05
767.897	48.86
768.206	47.06
768.515	48.24
768.824	47.64
769.133	47.64
769.441	48.22
769.75	47.95
770.059	48.66
770.367	49.62
770.676	46.77
770.984	47.91
771.293	48.53
771.601	48.72
771.91	48.14
772.218	49.82
772.526	46.15
772.834	46.86
773.142	46.88
773.45	47.89
773.758	49.74
774.066	47.47
774.374	43.31
774.682	48.1
774.99	46.35
775.298	47.87
775.605	47.23
775.913	46.14
776.22	50.26
776.528	46.73
776.835	51.11
777.143	46.98
777.45	48.14
777.757	46.35
778.065	50.84
778.372	49.38
778.679	45.9
778.986	45.35
779.293	48.9
779.6	48.47
779.907	49.34
780.214	46.95
780.52	44.93
780.827	50.18
781.134	47.2
781.44	46.79
781.747	50.13
782.053	49.87
782.36	49.75
782.666	48.37
782.973	46.3
783.279	45.45
783.585	48.08
783.891	45.78
784.197	48.44
784.503	47.21
784.809	45.72
785.115	49.29
785.421	49.69
785.727	46.23
786.033	45.47
786.339	49.19
786.644	46.72
786.95	45.75
787.255	47.75
787.561	46.92
787.866	46.66
788.172	47.49
788.477	45.84
788.782	47.1
789.088	47.6
789.393	48.58
789.698	48.62
790.003	53.06
790.308	50.96
790.613	48.87
790.918	51.32
791.223	49.24
791.527	45.57
791.832	49.49
792.137	48.11
792.441	50.74
792.746	46.84
793.05	47.99
793.355	49.36
793.659	49.72
793.963	51.76
794.268	50.55
794.572	49.41
794.876	48.21
795.18	48.91
795.484	50.01
795.788	49.09
796.092	52.83
796.396	48.79
796.7	51.94
797.004	46.78
797.307	44
797.611	49.99
797.915	47.22
798.218	48.13
798.522	50.68
798.825	48.24
799.128	46.79
799.432	52.18
799.735	51.62
800.038	48.96
800.341	50.29
800.644	49.03
800.947	49.14
801.25	48.45
801.553	50.23
801.856	50.44
802.159	49.42
802.462	48.94
802.764	48.71
803.067	51
803.37	48.77
803.672	44.54
803.975	52.96
804.277	46.5
804.579	44.9
804.882	54.94
805.184	48.31
805.486	46.07
805.788	48.95
806.09	50
806.392	45.29
806.694	44.18
806.996	48.46
807.298	50.74
807.6	48.96
807.902	50.14
808.203	49.05
808.505	47.75
808.807	49.74
809.108	48.39
809.409	53.08
809.711	50.23
810.012	48.29
810.313	51.89
810.615	51.56
810.916	47.4
811.217	48.65
811.518	44.79
811.819	49.74
812.12	47.42
812.421	44.9
812.722	42.97
813.023	44.86
813.323	46.97
813.624	53.46
813.925	51.45
814.225	52.49
814.526	48.81
814.826	54.81
815.126	43.9
815.427	53.19
815.727	54.01
816.027	50.91
816.327	50.16
816.627	54.23
816.927	52.38
817.227	47.08
817.527	51.09
817.827	45.57
818.127	49.09
818.427	48.51
818.727	46.08
819.026	46.81
819.326	44.83
819.625	49.93
819.925	51.62
820.224	49.62
820.524	47.44
820.823	52.92
821.122	54.08
821.421	48.98
821.72	51.2
822.019	48.56
822.318	50.59
822.617	50.82
822.916	49.27
823.215	50.54
823.514	51.11
823.813	48.75
824.111	50.77
824.41	51.8
824.709	51.07
825.007	51.74
825.306	51.01
825.604	51.89
825.902	51.76
826.201	51.22
826.499	52.14
826.797	51.75
827.095	52.46
827.393	50.93
827.691	52.43
827.989	51.02
828.287	51.21
828.585	51.18
828.882	50.53
829.18	51.08
829.478	51.04
829.775	51.4
830.073	51.32
830.37	52.17
830.668	51.37
830.965	52.72
831.263	52.76
831.56	52.4
831.857	49.43
832.154	50.71
832.451	52.34
832.748	46.79
833.045	46.6
833.342	48.08
833.639	47.06
833.936	51.27
834.232	46.46
834.529	47.01
834.826	47.16
835.122	49.39
835.419	53.68
835.715	49.42
836.012	55.96
836.308	53.87
836.604	50.22
836.901	52.18
837.197	52.45
837.493	53.01
837.789	48.06
838.085	47.27
838.381	50.91
838.677	52.25
838.972	49.76
839.268	47.69
839.564	50.11
839.86	50.64
840.155	43.94
840.451	48.65
840.746	52.6
841.042	49.99
841.337	52.35
841.632	49.11
841.928	53.62
842.223	48.15
842.518	57.55
842.813	51.08
843.108	47.97
843.403	49.83
843.698	48.04
843.993	57.75
844.287	50.1
844.582	54.27
844.877	53.72
845.171	49.49
845.466	57.51
845.761	46.19
846.055	44.34
846.349	59.89
846.644	58.79
846.938	36.38
847.232	45.73
847.526	41.83
847.82	45.1
848.114	51.64
848.408	66.22
848.702	44.98
848.996	45.15
849.29	40.01
849.584	40.83
849.877	48.31
850.171	42.61
850.465	40.09
850.758	19.61
851.052	51.99
851.345	35.07
851.638	46.6
851.932	56.58
852.225	44.99
852.518	48.93
852.811	28.25
853.104	34.89
853.397	52.25
853.69	43.93
853.983	52.31
854.276	53.73
854.569	49.32
854.861	66.1
855.154	51.08
855.447	33.52
855.739	31.49
856.032	52.12
856.324	32.83
856.616	49.96
856.909	39.65
857.201	32.95
857.493	46.92
857.785	41.1
858.077	53.12
858.369	33.49
858.661	76.18
858.953	50.24
859.245	52.86
859.537	34.42
859.829	37.57
860.12	55.83
860.412	37.74
860.703	55.11
860.995	63.79
861.286	40.17
861.578	21.53
861.869	48.6
862.16	9.2
862.452	34.69
862.743	52.79
863.034	48.9
863.325	39.5
863.616	19.12
863.907	53.96
864.198	30.78
864.488	11.88
864.779	30.89
865.07	48.54
865.36	34.69
865.651	47.29
865.941	62.91
866.232	34.26
866.522	11.39
866.813	40.27
867.103	19.61
867.393	44.99
867.683	32.39
867.973	33.89
868.263	62.01
868.553	33.25
868.843	46.32
869.133	25.11
869.423	36.13
869.713	58.85
870.002	41.75
870.292	39.51
870.582	61.75
870.871	54.72
871.161	37.91
871.45	13.57
871.739	22.46
872.029	22.17
872.318	60.66
872.607	51.94
872.896	16.55
873.185	36.79
873.474	11.88
873.763	65.31
874.052	42.25
874.341	55
874.63	43.39
874.918	30.99
875.207	33.82
875.496	35.87
875.784	41.22
876.073	37.66
876.361	52.53
876.649	51.57
876.938	61.93
877.226	46.51
877.514	31.9
877.802	55.31
878.09	37.82
878.378	64.22
878.666	57.88
878.954	46.93
879.242	22.89
879.53	53.31
879.817	38.34
880.105	56
880.392	42.27
880.68	6.97
880.967	29.32
881.255	42.2
881.542	51.93
881.83	56.97
882.117	6.55
882.404	41.4
882.691	54.28
882.978	44.79
883.265	51.45
883.552	51.1
883.839	52.77
884.126	55.55
884.413	53.76
884.699	49.6
884.986	57.82
885.273	54.64
885.559	54.64
885.846	54.64
