Data from 815646_chest_Reflection__2__57.txt Node

Date: Fri Sep 16 14:57:48 CDT 2022
User: ToomeyLab
Spectrometer: FLMS14357
Trigger mode: 0
Integration Time (sec): 1.000000E-2
Scans to average: 100
Electric dark correction enabled: true
Nonlinearity correction enabled: false
Boxcar width: 0
XAxis mode: Wavelengths
Number of Pixels in Spectrum: 2048
>>>>>Begin Spectral Data<<<<<
189.047	-27.05
189.435	-27.05
189.823	-27.05
190.211	261.09
190.599	6.16
190.987	132.65
191.375	85.49
191.763	872.26
192.151	222.49
192.538	170.08
192.926	-754.68
193.314	-42.5
193.702	-90.63
194.089	37.25
194.477	548.1
194.864	26.62
195.252	4.28
195.639	3411.61
196.027	64.06
196.414	84.66
196.801	-96.17
197.189	478.36
197.576	-47.5
197.963	-263.31
198.351	-33.86
198.738	-9.74
199.125	-5.45
199.512	-68.21
199.899	9.15
200.286	-29.45
200.673	-14.68
201.06	18.9
201.447	-21.15
201.833	-4.34
202.22	20.47
202.607	-27.4
202.994	21.56
203.38	-10.1
203.767	18.11
204.154	18.91
204.54	-12.48
204.927	-27.25
205.313	29.46
205.699	54.57
206.086	25.44
206.472	57.29
206.858	-10.49
207.245	-27.81
207.631	11.36
208.017	33.58
208.403	-23.54
208.789	21.43
209.175	31.85
209.561	14.11
209.947	0.55
210.333	1.95
210.719	-0.49
211.105	4.77
211.491	19.82
211.876	0.21
212.262	43.64
212.648	-11.67
213.034	3.2
213.419	-1.57
213.805	7.93
214.19	21.45
214.576	4.53
214.961	7.15
215.346	-4.44
215.732	-88.25
216.117	25.71
216.502	11.72
216.888	4.34
217.273	6.72
217.658	10.97
218.043	-57.36
218.428	15.31
218.813	-17.98
219.198	10.04
219.583	-15.2
219.968	-5.53
220.353	-18.58
220.738	8
221.122	-22.25
221.507	1.38
221.892	-18.13
222.276	16.56
222.661	2.69
223.046	5.48
223.43	-0.96
223.815	-4.72
224.199	3.83
224.583	1.63
224.968	1.28
225.352	-8.78
225.736	13.99
226.121	6.85
226.505	-0.28
226.889	1.14
227.273	1.08
227.657	6.99
228.041	-1.32
228.425	-4.22
228.809	5.19
229.193	0.29
229.577	1.83
229.961	1.82
230.344	3.16
230.728	0.92
231.112	1.84
231.495	1.71
231.879	2.44
232.263	-0.51
232.646	1.36
233.03	2.69
233.413	3.79
233.797	-0.02
234.18	4.43
234.563	1.82
234.946	1.36
235.33	2.51
235.713	2.16
236.096	2.05
236.479	1.3
236.862	2.34
237.245	1.22
237.628	1.82
238.011	2.48
238.394	1.36
238.777	2.55
239.16	2.05
239.543	4.68
239.925	2.73
240.308	-0.14
240.691	2.64
241.073	2.02
241.456	1.73
241.838	1.75
242.221	1.96
242.603	1.77
242.986	1.45
243.368	2.19
243.75	1.7
244.133	1.81
244.515	1.92
244.897	2.09
245.279	1.16
245.661	2.19
246.043	1.03
246.425	1.36
246.807	2.85
247.189	2.4
247.571	1.42
247.953	1.82
248.335	1.92
248.717	2.05
249.098	2.12
249.48	1.7
249.862	2.14
250.243	2.17
250.625	1.87
251.006	2.28
251.388	1.69
251.769	0.44
252.151	1.88
252.532	1.31
252.913	2.08
253.295	2.21
253.676	2.14
254.057	1.19
254.438	1.26
254.819	1.11
255.2	0.87
255.581	2.08
255.962	1.66
256.343	1.49
256.724	1.9
257.105	1.78
257.486	2.19
257.867	1.37
258.247	2.49
258.628	2.06
259.009	1.87
259.389	1.97
259.77	1.06
260.15	1.66
260.531	1.62
260.911	1.81
261.292	1.87
261.672	1.91
262.052	1.52
262.432	1.87
262.813	2.43
263.193	1.71
263.573	2.11
263.953	2.05
264.333	2.23
264.713	1.18
265.093	1.63
265.473	2.61
265.853	2.27
266.233	1.57
266.612	2.68
266.992	0.74
267.372	2.15
267.752	1.71
268.131	2.06
268.511	1.66
268.89	2.31
269.27	1.11
269.649	2.2
270.029	1.81
270.408	2.29
270.787	2.01
271.167	1.65
271.546	2.11
271.925	1.3
272.304	1.59
272.683	2.05
273.062	1.74
273.441	2.01
273.82	1.25
274.199	1.64
274.578	2
274.957	2.05
275.336	1.87
275.715	2.06
276.093	1.76
276.472	1.62
276.851	1.47
277.229	1.8
277.608	1.96
277.986	1.42
278.365	1.01
278.743	2.08
279.122	1.66
279.5	1.54
279.878	2.01
280.257	2.18
280.635	1.92
281.013	1.01
281.391	1.7
281.769	1.53
282.147	1.71
282.525	1.19
282.903	2.11
283.281	1.39
283.659	1.89
284.037	2.07
284.415	1.8
284.792	2.13
285.17	1.94
285.548	1.52
285.925	1.45
286.303	2.11
286.68	1.46
287.058	1.5
287.435	1.36
287.813	1.65
288.19	1.49
288.567	1.21
288.945	1.66
289.322	2.39
289.699	1.69
290.076	1.15
290.453	1.38
290.83	1.91
291.207	1.83
291.584	1.36
291.961	1.51
292.338	1.84
292.715	1.27
293.092	1.8
293.469	1.59
293.845	1.66
294.222	1.58
294.599	1.43
294.975	1.47
295.352	2.09
295.728	1.59
296.105	2.25
296.481	1.68
296.858	1.83
297.234	2.08
297.61	2.28
297.986	1.98
298.363	1.74
298.739	1.34
299.115	1.79
299.491	2.18
299.867	2.04
300.243	1.54
300.619	1.91
300.995	1.41
301.371	1.7
301.746	1.83
302.122	2.18
302.498	1.82
302.874	1.63
303.249	2.18
303.625	1.67
304	1.58
304.376	1.41
304.751	2.02
305.127	2.01
305.502	1.67
305.878	1.89
306.253	1.81
306.628	1.54
307.003	2.13
307.378	2.57
307.754	1.79
308.129	2.4
308.504	2.44
308.879	2.02
309.254	1.88
309.629	1.65
310.003	1.82
310.378	1.53
310.753	1.76
311.128	2.21
311.502	1.82
311.877	1.94
312.252	2.15
312.626	1.91
313.001	1.91
313.375	2.26
313.75	1.89
314.124	1.92
314.498	2.16
314.873	2.46
315.247	1.85
315.621	1.9
315.995	1.64
316.369	2.2
316.743	2.85
317.117	1.8
317.491	1.9
317.865	2.54
318.239	2.3
318.613	1.95
318.987	1.61
319.361	2.08
319.734	2.35
320.108	2.06
320.482	1.92
320.855	1.92
321.229	2.06
321.602	2.53
321.976	1.81
322.349	2.54
322.723	2.19
323.096	2.4
323.469	2.38
323.843	2.97
324.216	2.69
324.589	2.52
324.962	2.42
325.335	2.96
325.708	2.43
326.081	2.01
326.454	2.08
326.827	1.79
327.2	2.06
327.573	1.96
327.945	2.5
328.318	2.24
328.691	2.13
329.063	2.32
329.436	2.2
329.809	1.61
330.181	2.24
330.553	2.49
330.926	2.35
331.298	2.35
331.671	2.4
332.043	2.12
332.415	2.55
332.787	2.23
333.159	2.3
333.532	2.78
333.904	2.77
334.276	2.17
334.648	1.92
335.02	2.2
335.391	2.54
335.763	2.32
336.135	2.11
336.507	1.88
336.879	2.99
337.25	1.64
337.622	2.38
337.993	2.86
338.365	2.56
338.736	2.86
339.108	2.44
339.479	2.4
339.851	2.39
340.222	2.36
340.593	2.34
340.964	3.14
341.336	2.58
341.707	2.35
342.078	2.7
342.449	2.77
342.82	2.48
343.191	2.08
343.562	2.34
343.933	2.83
344.303	2.67
344.674	2.34
345.045	2.78
345.416	2.13
345.786	2.74
346.157	2.92
346.527	2.5
346.898	2.56
347.268	2.57
347.639	2.3
348.009	2.66
348.38	2.66
348.75	1.78
349.12	2.84
349.49	2.55
349.861	2.42
350.231	2.44
350.601	2.39
350.971	2.83
351.341	2.67
351.711	2.33
352.081	2.43
352.45	2.79
352.82	3.02
353.19	2.53
353.56	2.52
353.929	2.93
354.299	2.57
354.669	2.57
355.038	2.53
355.408	2.83
355.777	2.43
356.147	2.65
356.516	2.68
356.885	2.68
357.254	2.78
357.624	2.29
357.993	2.49
358.362	2.21
358.731	2.85
359.1	2.54
359.469	2.62
359.838	2.6
360.207	2.8
360.576	2.57
360.945	2.59
361.314	2.38
361.682	2.31
362.051	2.51
362.42	2.95
362.788	2.8
363.157	2.85
363.525	2.34
363.894	2.77
364.262	2.46
364.631	2.82
364.999	2.21
365.367	2.56
365.735	2.72
366.104	2.6
366.472	2.66
366.84	3
367.208	2.92
367.576	2.48
367.944	2.7
368.312	2.67
368.68	2.79
369.048	2.98
369.416	2.76
369.783	2.81
370.151	2.9
370.519	3.08
370.886	2.71
371.254	2.16
371.621	3.17
371.989	2.71
372.356	2.86
372.724	2.93
373.091	2.84
373.458	2.74
373.826	2.4
374.193	3
374.56	2.36
374.927	2.59
375.294	2.7
375.661	2.79
376.028	3.1
376.395	2.74
376.762	3.37
377.129	2.72
377.496	2.8
377.863	2.99
378.229	3.04
378.596	2.47
378.963	2.74
379.329	2.75
379.696	3.13
380.062	2.53
380.429	2.64
380.795	2.77
381.161	3.1
381.528	2.97
381.894	2.87
382.26	2.98
382.626	2.85
382.993	2.95
383.359	2.8
383.725	2.92
384.091	3.09
384.457	2.72
384.823	2.8
385.188	2.51
385.554	2.77
385.92	2.89
386.286	2.91
386.651	3.06
387.017	2.72
387.383	2.57
387.748	2.62
388.114	2.52
388.479	3.14
388.845	2.79
389.21	3.01
389.575	2.96
389.94	2.96
390.306	3.06
390.671	2.92
391.036	3.08
391.401	3.08
391.766	2.95
392.131	3.02
392.496	2.86
392.861	2.77
393.226	2.9
393.591	2.94
393.956	2.87
394.32	3.28
394.685	2.7
395.05	3.14
395.414	2.63
395.779	2.97
396.143	2.94
396.508	2.8
396.872	3.06
397.236	2.77
397.601	2.89
397.965	2.74
398.329	3.1
398.694	2.97
399.058	3.2
399.422	2.79
399.786	3.16
400.15	2.96
400.514	2.92
400.878	3.17
401.242	3.07
401.605	2.93
401.969	2.81
402.333	3.16
402.697	2.89
403.06	3.14
403.424	2.93
403.787	2.9
404.151	3.18
404.514	3.21
404.878	2.99
405.241	2.92
405.604	3.29
405.968	3.25
406.331	3.01
406.694	2.88
407.057	2.9
407.42	2.91
407.783	3.19
408.146	3.2
408.509	3.32
408.872	3.29
409.235	3.26
409.598	2.98
409.961	3.12
410.323	3.32
410.686	3.28
411.049	3.14
411.411	2.97
411.774	3.16
412.136	2.77
412.499	3.2
412.861	3.1
413.223	3.22
413.586	3.34
413.948	3.06
414.31	3
414.672	3.03
415.035	3.29
415.397	3.09
415.759	3.22
416.121	3.23
416.483	3.23
416.845	3.21
417.206	3.16
417.568	3.29
417.93	3.49
418.292	3.27
418.653	3.06
419.015	3.04
419.377	3.19
419.738	3.01
420.1	3.14
420.461	3.27
420.822	3.08
421.184	3.16
421.545	3.05
421.906	3.23
422.267	3.24
422.629	3.1
422.99	3.05
423.351	3.1
423.712	3.05
424.073	3.17
424.434	3.22
424.795	3.18
425.155	3.19
425.516	3.27
425.877	3.19
426.238	3.08
426.598	3.05
426.959	3.15
427.32	3.12
427.68	3.17
428.041	3.13
428.401	3.29
428.761	3.43
429.122	3.45
429.482	3.1
429.842	3.22
430.202	3.3
430.563	3.32
430.923	3.38
431.283	3.39
431.643	3.51
432.003	3.35
432.363	3.49
432.722	3.43
433.082	3.42
433.442	3.25
433.802	3.39
434.161	3.11
434.521	3.3
434.881	3.32
435.24	3.31
435.6	3.38
435.959	3.53
436.319	3.29
436.678	3.39
437.037	3.19
437.396	3.44
437.756	3.51
438.115	3.41
438.474	3.33
438.833	3.38
439.192	3.4
439.551	3.31
439.91	3.34
440.269	3.54
440.628	3.34
440.987	3.33
441.345	3.45
441.704	3.5
442.063	3.4
442.421	3.25
442.78	3.39
443.138	3.51
443.497	3.4
443.855	3.38
444.214	3.5
444.572	3.64
444.93	3.49
445.288	3.46
445.647	3.47
446.005	3.34
446.363	3.41
446.721	3.54
447.079	3.32
447.437	3.51
447.795	3.42
448.153	3.44
448.51	3.32
448.868	3.38
449.226	3.41
449.584	3.49
449.941	3.42
450.299	3.41
450.656	3.42
451.014	3.52
451.371	3.48
451.729	3.45
452.086	3.49
452.443	3.46
452.801	3.4
453.158	3.65
453.515	3.4
453.872	3.49
454.229	3.39
454.586	3.44
454.943	3.39
455.3	3.37
455.657	3.38
456.014	3.66
456.371	3.39
456.727	3.55
457.084	3.72
457.441	3.51
457.797	3.72
458.154	3.6
458.51	3.67
458.867	3.56
459.223	3.52
459.58	3.61
459.936	3.57
460.292	3.65
460.648	3.46
461.005	3.64
461.361	3.51
461.717	3.5
462.073	3.54
462.429	3.58
462.785	3.58
463.141	3.56
463.496	3.55
463.852	3.67
464.208	3.7
464.564	3.7
464.919	3.71
465.275	3.75
465.631	3.86
465.986	3.53
466.342	3.78
466.697	3.68
467.052	3.66
467.408	3.93
467.763	3.77
468.118	3.78
468.473	3.69
468.829	3.61
469.184	3.68
469.539	3.78
469.894	3.57
470.249	3.82
470.603	3.87
470.958	3.68
471.313	3.83
471.668	3.7
472.023	3.57
472.377	3.87
472.732	3.69
473.086	3.73
473.441	3.59
473.795	3.75
474.15	3.73
474.504	3.89
474.859	3.76
475.213	3.88
475.567	3.39
475.921	3.76
476.275	3.87
476.63	3.8
476.984	3.82
477.338	3.86
477.692	3.73
478.045	3.8
478.399	3.87
478.753	3.74
479.107	3.78
479.461	3.83
479.814	3.73
480.168	3.71
480.521	3.82
480.875	3.86
481.228	3.72
481.582	3.88
481.935	3.85
482.289	3.89
482.642	3.79
482.995	3.79
483.348	3.7
483.701	3.76
484.055	3.78
484.408	3.9
484.761	3.72
485.114	3.6
485.466	3.59
485.819	3.55
486.172	3.58
486.525	3.67
486.878	3.65
487.23	3.7
487.583	3.76
487.936	3.74
488.288	3.79
488.641	3.68
488.993	3.74
489.345	3.65
489.698	3.69
490.05	3.71
490.402	3.72
490.754	3.75
491.107	3.79
491.459	3.89
491.811	3.88
492.163	3.72
492.515	3.79
492.866	3.74
493.218	3.65
493.57	3.7
493.922	3.72
494.274	3.8
494.625	3.81
494.977	3.81
495.328	3.87
495.68	3.9
496.031	3.99
496.383	3.99
496.734	4
497.086	4.02
497.437	4.05
497.788	4
498.139	3.9
498.49	4.06
498.842	4.04
499.193	3.97
499.544	3.96
499.894	3.93
500.245	4.06
500.596	4.02
500.947	3.91
501.298	4.01
501.648	4.11
501.999	4.05
502.35	4.14
502.7	4
503.051	4.16
503.401	3.99
503.752	4.14
504.102	4.15
504.452	4.06
504.803	4.19
505.153	4.18
505.503	4.2
505.853	4.13
506.203	4.07
506.553	4.11
506.903	4.09
507.253	4.17
507.603	4.17
507.953	4.18
508.303	4.1
508.652	4.08
509.002	4.04
509.352	4.16
509.701	4.18
510.051	4.23
510.4	4.2
510.75	4.21
511.099	4.22
511.449	4.08
511.798	4.15
512.147	4.09
512.496	4.22
512.846	4.08
513.195	4.13
513.544	4.18
513.893	4.26
514.242	4.23
514.591	4.19
514.939	4.22
515.288	4.27
515.637	4.2
515.986	4.28
516.334	4.2
516.683	4.25
517.032	4.23
517.38	4.39
517.729	4.36
518.077	4.4
518.426	4.38
518.774	4.24
519.122	4.4
519.47	4.37
519.819	4.24
520.167	4.24
520.515	4.15
520.863	4.32
521.211	4.26
521.559	4.26
521.907	4.31
522.255	4.24
522.602	4.32
522.95	4.39
523.298	4.33
523.645	4.52
523.993	4.34
524.341	4.59
524.688	4.39
525.036	4.46
525.383	4.5
525.73	4.41
526.078	4.28
526.425	4.28
526.772	4.45
527.119	4.3
527.466	4.37
527.814	4.43
528.161	4.34
528.508	4.51
528.854	4.51
529.201	4.44
529.548	4.32
529.895	4.28
530.242	4.31
530.588	4.28
530.935	4.27
531.282	4.32
531.628	4.33
531.975	4.36
532.321	4.49
532.667	4.53
533.014	4.57
533.36	4.49
533.706	4.49
534.052	4.51
534.399	4.45
534.745	4.43
535.091	4.39
535.437	4.46
535.783	4.47
536.129	4.58
536.474	4.52
536.82	4.57
537.166	4.68
537.512	4.68
537.857	4.67
538.203	4.61
538.549	4.54
538.894	4.47
539.239	4.75
539.585	4.68
539.93	4.64
540.276	4.87
540.621	4.89
540.966	4.81
541.311	4.82
541.656	4.85
542.001	4.73
542.346	4.7
542.691	4.72
543.036	4.56
543.381	4.56
543.726	4.62
544.071	4.63
544.415	4.71
544.76	4.73
545.105	4.8
545.449	4.72
545.794	4.75
546.138	4.78
546.483	4.98
546.827	4.91
547.171	5.01
547.516	4.76
547.86	4.88
548.204	4.93
548.548	4.82
548.892	4.84
549.236	4.94
549.58	5.08
549.924	4.99
550.268	5.12
550.612	5.13
550.956	4.88
551.3	5.09
551.643	5.15
551.987	4.99
552.33	5.05
552.674	5.13
553.017	5.19
553.361	5.16
553.704	5.11
554.048	5.2
554.391	5.34
554.734	5.26
555.077	5.24
555.42	5.23
555.764	5.35
556.107	5.47
556.45	5.12
556.793	5.43
557.135	5.17
557.478	5.38
557.821	5.15
558.164	5.41
558.507	5.51
558.849	5.35
559.192	5.47
559.534	5.46
559.877	5.42
560.219	5.42
560.562	5.51
560.904	5.42
561.246	5.53
561.589	5.48
561.931	5.67
562.273	5.68
562.615	5.52
562.957	5.63
563.299	5.49
563.641	5.51
563.983	5.58
564.325	5.54
564.667	5.67
565.008	5.59
565.35	5.63
565.692	5.63
566.033	5.49
566.375	5.66
566.716	5.63
567.058	5.72
567.399	5.78
567.741	5.61
568.082	5.8
568.423	5.65
568.764	5.79
569.105	5.71
569.447	5.82
569.788	5.93
570.129	5.8
570.47	5.93
570.811	6
571.151	6.1
571.492	6.02
571.833	5.78
572.174	5.9
572.514	5.83
572.855	5.98
573.195	5.89
573.536	5.96
573.876	6.01
574.217	5.99
574.557	5.95
574.898	6.02
575.238	6.1
575.578	5.97
575.918	6.04
576.258	6.1
576.598	5.97
576.938	6.13
577.278	6.07
577.618	6.33
577.958	6.17
578.298	6.12
578.638	6.12
578.977	6.17
579.317	6.11
579.657	6.13
579.996	6.36
580.336	6.46
580.675	6.12
581.014	6.46
581.354	6.32
581.693	6.17
582.032	6.62
582.372	6.59
582.711	6.74
583.05	6.62
583.389	6.54
583.728	6.44
584.067	6.67
584.406	6.64
584.745	6.76
585.083	6.57
585.422	6.94
585.761	6.64
586.1	6.31
586.438	6.89
586.777	6.56
587.115	6.81
587.454	6.73
587.792	6.56
588.13	6.67
588.469	6.8
588.807	6.5
589.145	6.85
589.483	6.84
589.821	6.69
590.159	6.81
590.497	6.55
590.835	6.86
591.173	6.94
591.511	6.82
591.849	6.81
592.187	6.93
592.524	6.71
592.862	7.07
593.2	6.72
593.537	7.23
593.875	7.12
594.212	6.96
594.55	6.93
594.887	6.99
595.224	6.9
595.561	7.3
595.899	7.14
596.236	7.1
596.573	7.22
596.91	7.09
597.247	7.17
597.584	7.22
597.921	7.03
598.258	7.01
598.594	7.01
598.931	7
599.268	7.19
599.604	7.22
599.941	7.35
600.277	7.13
600.614	7.32
600.95	7.61
601.287	7.44
601.623	7.5
601.959	7.55
602.296	7.29
602.632	7.54
602.968	7.46
603.304	7.34
603.64	7.43
603.976	7.56
604.312	7.6
604.648	7.67
604.984	7.47
605.319	7.85
605.655	7.73
605.991	7.59
606.326	7.54
606.662	7.65
606.998	7.71
607.333	7.77
607.668	7.73
608.004	7.72
608.339	7.81
608.674	7.89
609.01	7.84
609.345	8.27
609.68	7.8
610.015	7.78
610.35	7.94
610.685	8.08
611.02	7.94
611.355	8.01
611.689	7.96
612.024	7.7
612.359	8.18
612.694	8.2
613.028	7.89
613.363	8.05
613.697	8.35
614.032	8.17
614.366	8.16
614.7	8.35
615.035	8.25
615.369	8.24
615.703	8.35
616.037	8.05
616.371	8.51
616.705	8.18
617.039	8.37
617.373	8.13
617.707	8.29
618.041	8.09
618.375	8.44
618.709	8.05
619.042	7.94
619.376	8.46
619.71	8.57
620.043	8.39
620.377	8.7
620.71	8.58
621.043	8.5
621.377	8.87
621.71	8.47
622.043	8.32
622.376	8.6
622.709	8.69
623.043	8.95
623.376	8.44
623.709	8.48
624.041	8.74
624.374	8.65
624.707	8.95
625.04	8.77
625.373	8.71
625.705	8.71
626.038	9.48
626.37	9.23
626.703	8.76
627.035	8.66
627.368	9.43
627.7	9.31
628.032	8.98
628.365	8.91
628.697	9.11
629.029	9.06
629.361	8.86
629.693	9.38
630.025	9.38
630.357	9.01
630.689	9.07
631.021	9.4
631.353	9.57
631.684	9.21
632.016	9.49
632.348	9.29
632.679	9.22
633.011	9.32
633.342	9.23
633.674	9.7
634.005	9.41
634.336	9.76
634.668	9.22
634.999	9.12
635.33	9.58
635.661	9.58
635.992	9.52
636.323	9.42
636.654	9.02
636.985	9.54
637.316	9.87
637.647	9.38
637.977	9.41
638.308	9.83
638.639	9.65
638.969	9.9
639.3	9.78
639.63	9.38
639.961	9.93
640.291	9.66
640.622	9.6
640.952	9.84
641.282	9.99
641.612	9.8
641.943	9.6
642.273	9.75
642.603	9.84
642.933	9.96
643.263	9.89
643.592	9.4
643.922	9.73
644.252	10.19
644.582	9.68
644.911	10.08
645.241	10.17
645.571	10.56
645.9	10.4
646.23	10.21
646.559	9.92
646.888	10.08
647.218	10.55
647.547	10.25
647.876	10.45
648.205	10.42
648.534	10.1
648.863	10.42
649.192	10.64
649.521	10.55
649.85	10.61
650.179	10.47
650.508	10.65
650.837	10.31
651.165	10.37
651.494	10.78
651.822	10.48
652.151	10.68
652.479	11
652.808	11.05
653.136	10.55
653.465	10.71
653.793	10.69
654.121	10.83
654.449	10.99
654.777	10.92
655.105	11.11
655.433	10.42
655.761	11.17
656.089	10.56
656.417	11.01
656.745	10.93
657.073	10.97
657.4	10.52
657.728	11.03
658.056	10.45
658.383	10.92
658.711	10.77
659.038	10.78
659.365	10.98
659.693	10.52
660.02	11.42
660.347	11.14
660.674	11.16
661.001	11.34
661.329	10.77
661.656	10.77
661.982	11.29
662.309	11.19
662.636	11.11
662.963	11.23
663.29	11.38
663.616	11.01
663.943	11.29
664.27	10.88
664.596	11.27
664.923	11.25
665.249	11.27
665.576	11.54
665.902	11.62
666.228	10.78
666.554	12.21
666.881	11.92
667.207	11.19
667.533	11.72
667.859	12.24
668.185	12.14
668.511	12.38
668.837	12.15
669.162	11.95
669.488	11.87
669.814	12.13
670.139	11.68
670.465	11.96
670.791	11.76
671.116	12.21
671.442	12.07
671.767	12.22
672.092	12.4
672.418	11.65
672.743	11.95
673.068	12.24
673.393	11.74
673.718	12.51
674.043	11.92
674.368	12.44
674.693	13.07
675.018	12.11
675.343	12.39
675.667	12.16
675.992	12.37
676.317	12.29
676.641	11.26
676.966	12.59
677.29	12.28
677.615	12.48
677.939	12.04
678.264	12.57
678.588	12.63
678.912	12.61
679.236	12.6
679.56	12.95
679.885	12.67
680.209	12.14
680.532	13.09
680.856	12.51
681.18	12.77
681.504	12.8
681.828	12.23
682.152	12.53
682.475	12.78
682.799	12.04
683.122	12.48
683.446	12.43
683.769	12.37
684.093	12.68
684.416	12.62
684.739	12.76
685.062	13.18
685.386	12.31
685.709	12.79
686.032	13.07
686.355	12.72
686.678	12.81
687.001	12.54
687.324	12.88
687.646	12.79
687.969	13.64
688.292	12.68
688.614	13.28
688.937	12.89
689.26	13.46
689.582	12.6
689.904	12.32
690.227	13.38
690.549	13.03
690.871	12.46
691.194	12.89
691.516	12.79
691.838	13.56
692.16	13.72
692.482	13.03
692.804	12.83
693.126	14.18
693.448	13.59
693.769	13.52
694.091	14.1
694.413	14.1
694.735	14.11
695.056	13.4
695.378	13.21
695.699	13.54
696.021	12.98
696.342	13.91
696.663	14.29
696.984	13.51
697.306	13.36
697.627	14.77
697.948	13.62
698.269	14.19
698.59	13.49
698.911	13.33
699.232	14.23
699.553	13.06
699.873	13.75
700.194	13.45
700.515	13.54
700.835	13.72
701.156	14.11
701.477	14.05
701.797	13.9
702.117	13.73
702.438	13.34
702.758	13.78
703.078	13.76
703.398	13.87
703.719	14.16
704.039	13.92
704.359	14.51
704.679	13.92
704.999	13.89
705.319	13.11
705.638	14.44
705.958	13.69
706.278	14.1
706.597	14.88
706.917	13.9
707.237	14.9
707.556	14.96
707.876	14.63
708.195	14.96
708.514	14.73
708.834	14.95
709.153	14.42
709.472	15.08
709.791	14.39
710.11	14.32
710.429	14.22
710.748	14.66
711.067	15.16
711.386	14.37
711.705	13.58
712.023	14.95
712.342	15.37
712.661	14.3
712.979	14.83
713.298	15.37
713.616	14.64
713.935	15.42
714.253	14.39
714.572	13.89
714.89	14.45
715.208	14.96
715.526	13.79
715.844	15.72
716.162	16.09
716.48	15.51
716.798	15.12
717.116	15.57
717.434	15.42
717.752	15.12
718.069	15.64
718.387	16.08
718.705	15.37
719.022	14.03
719.34	15.07
719.657	16.16
719.975	15.21
720.292	15.32
720.609	15.93
720.927	14.99
721.244	15.85
721.561	14.76
721.878	14.63
722.195	15.9
722.512	14.06
722.829	15.58
723.146	15.24
723.463	16.15
723.779	14.6
724.096	15.28
724.413	14.43
724.729	14.47
725.046	15.22
725.362	16.13
725.679	15.54
725.995	15.19
726.311	15.24
726.628	15.56
726.944	16.54
727.26	15.62
727.576	14.5
727.892	13.86
728.208	15.95
728.524	16.01
728.84	15.19
729.156	14.73
729.472	16.58
729.787	15.93
730.103	14.81
730.419	15.82
730.734	16.23
731.05	16.47
731.365	15.89
731.681	15.45
731.996	16.48
732.311	16.16
732.626	15.08
732.942	15.82
733.257	17.13
733.572	16.41
733.887	16.04
734.202	16.25
734.517	16.74
734.832	16.25
735.146	16.69
735.461	16.44
735.776	16.5
736.091	16.49
736.405	17.01
736.72	15.6
737.034	16.85
737.349	16.44
737.663	16.68
737.977	16.37
738.292	17.35
738.606	17.81
738.92	15.11
739.234	17.3
739.548	16.17
739.862	16.73
740.176	16.58
740.49	16.6
740.804	16.98
741.117	15.66
741.431	17.57
741.745	18.01
742.058	17.74
742.372	17.2
742.685	16.05
742.999	17.56
743.312	17.75
743.626	16.74
743.939	17.48
744.252	18
744.565	15.11
744.878	17.08
745.191	16.22
745.505	15.42
745.817	17.01
746.13	16.87
746.443	17.97
746.756	16.17
747.069	16.83
747.381	17.44
747.694	17.36
748.007	18.59
748.319	17.23
748.632	18.29
748.944	16.98
749.256	17.48
749.569	17.23
749.881	15.85
750.193	19.34
750.505	18.03
750.817	18.65
751.129	17.21
751.441	17.06
751.753	18.18
752.065	18.55
752.377	16.95
752.689	16.8
753	17.55
753.312	17.46
753.624	16.23
753.935	17.63
754.247	17.83
754.558	17.86
754.869	16.56
755.181	19.16
755.492	17.76
755.803	17.13
756.114	18.56
756.425	17.27
756.736	17.55
757.047	18.18
757.358	16.52
757.669	18.96
757.98	20.1
758.291	17.29
758.601	19.93
758.912	18.81
759.223	20.07
759.533	19.29
759.844	16.71
760.154	18.74
760.464	17.59
760.775	18.03
761.085	18.82
761.395	18.13
761.705	18.28
762.016	18.06
762.326	19.23
762.636	19.51
762.945	17.79
763.255	18.08
763.565	18.55
763.875	18.36
764.185	19.05
764.494	19.12
764.804	20.82
765.113	17.97
765.423	18.1
765.732	18.44
766.042	19.46
766.351	18.12
766.66	18.98
766.97	18.9
767.279	19.17
767.588	18.45
767.897	17.89
768.206	18.48
768.515	18.97
768.824	18.98
769.133	20.79
769.441	20.57
769.75	20.26
770.059	20.71
770.367	21.23
770.676	20.59
770.984	17.42
771.293	20.79
771.601	16.31
771.91	21.87
772.218	20.12
772.526	19.31
772.834	20.5
773.142	19.61
773.45	18.06
773.758	17.81
774.066	18.25
774.374	21.24
774.682	21.92
774.99	18.76
775.298	19.36
775.605	17.88
775.913	19.88
776.22	20.05
776.528	23.6
776.835	20.07
777.143	17.66
777.45	19.55
777.757	18.96
778.065	22.33
778.372	17.31
778.679	21.98
778.986	18.93
779.293	20.74
779.6	18.96
779.907	20.3
780.214	19.12
780.52	20.85
780.827	22.07
781.134	18.33
781.44	21.46
781.747	19.72
782.053	19.69
782.36	19.24
782.666	18.93
782.973	18.39
783.279	18.49
783.585	21.34
783.891	18.56
784.197	21.43
784.503	19
784.809	23.56
785.115	22.68
785.421	20.8
785.727	20.65
786.033	18.88
786.339	22.18
786.644	21.26
786.95	16.97
787.255	17.03
787.561	18.33
787.866	19.76
788.172	17.63
788.477	18.9
788.782	25.6
789.088	19.23
789.393	22.75
789.698	17.62
790.003	20.55
790.308	22.2
790.613	22.83
790.918	21.11
791.223	21.29
791.527	21.3
791.832	21.08
792.137	15.77
792.441	22.84
792.746	20.39
793.05	18.35
793.355	18.21
793.659	21.06
793.963	23.31
794.268	21.25
794.572	18.87
794.876	19.07
795.18	20.46
795.484	18.12
795.788	24.12
796.092	22.29
796.396	21.86
796.7	24.76
797.004	25.34
797.307	20.46
797.611	26.27
797.915	17.51
798.218	20.7
798.522	22.4
798.825	21.49
799.128	20.6
799.432	21.58
799.735	21.25
800.038	20.11
800.341	19.59
800.644	17.55
800.947	19.27
801.25	20.25
801.553	23.44
801.856	19.96
802.159	15.78
802.462	25.18
802.764	23.97
803.067	18.74
803.37	19
803.672	19.28
803.975	21.32
804.277	19.75
804.579	19.07
804.882	23.44
805.184	20.66
805.486	19.35
805.788	19.81
806.09	16.56
806.392	22.26
806.694	19.38
806.996	18.5
807.298	16.76
807.6	19.49
807.902	22.38
808.203	21.13
808.505	23
808.807	20.8
809.108	22.97
809.409	21.4
809.711	24.81
810.012	15.49
810.313	22.2
810.615	22.09
810.916	23.83
811.217	19.58
811.518	18.38
811.819	21.36
812.12	20.25
812.421	21.76
812.722	20.29
813.023	20.77
813.323	17.74
813.624	23.33
813.925	18.49
814.225	22.44
814.526	24.84
814.826	21.98
815.126	25.13
815.427	22.32
815.727	26.38
816.027	23.18
816.327	21.89
816.627	20.68
816.927	18.04
817.227	18.56
817.527	21.42
817.827	17.06
818.127	23.3
818.427	21.21
818.727	21.75
819.026	24.63
819.326	19.65
819.625	21.72
819.925	20.5
820.224	21.98
820.524	24.31
820.823	22.15
821.122	28.22
821.421	24.19
821.72	22.79
822.019	21.79
822.318	27.81
822.617	24.38
822.916	21.83
823.215	23.59
823.514	22.63
823.813	25.48
824.111	25.67
824.41	23.57
824.709	24.11
825.007	24.03
825.306	23.6
825.604	24.28
825.902	24.2
826.201	23.98
826.499	24.59
826.797	25.49
827.095	23.74
827.393	24.24
827.691	23.26
827.989	24.96
828.287	23.96
828.585	24.85
828.882	23.56
829.18	22.4
829.478	23.7
829.775	23.3
830.073	24.6
830.37	23.22
830.668	23.97
830.965	24.13
831.263	24.62
831.56	23.79
831.857	28.91
832.154	20.3
832.451	24.58
832.748	26.5
833.045	20.33
833.342	19.56
833.639	22.45
833.936	24.4
834.232	27.25
834.529	19.26
834.826	28.11
835.122	19.53
835.419	21.54
835.715	23.52
836.012	25.89
836.308	20.21
836.604	26.69
836.901	26.24
837.197	27.49
837.493	23.11
837.789	25.18
838.085	23.07
838.381	24.95
838.677	26.07
838.972	23.75
839.268	26.29
839.564	26.68
839.86	27.62
840.155	26.96
840.451	31.95
840.746	17.44
841.042	26.44
841.337	26.81
841.632	27.58
841.928	24.17
842.223	21.38
842.518	23.73
842.813	18.12
843.108	28.85
843.403	29.49
843.698	23.87
843.993	23.59
844.287	21.22
844.582	23.55
844.877	19.15
845.171	28.45
845.466	21.19
845.761	28.41
846.055	24.18
846.349	16.49
846.644	11.62
846.938	21.81
847.232	20.08
847.526	31.16
847.82	38.51
848.114	16.32
848.408	8.79
848.702	8.55
848.996	21.08
849.29	10.29
849.584	23.56
849.877	26.61
850.171	9.74
850.465	17.93
850.758	7.1
851.052	17.7
851.345	13.09
851.638	19.62
851.932	7.91
852.225	11
852.518	33.82
852.811	24.56
853.104	42.27
853.397	8.88
853.69	30.19
853.983	-14.02
854.276	41.64
854.569	34.25
854.861	6.89
855.154	22.27
855.447	22.09
855.739	20.58
856.032	28.62
856.324	27.14
856.616	14.45
856.909	29.1
857.201	14.93
857.493	28.14
857.785	34.21
858.077	3.81
858.369	8.98
858.661	28.39
858.953	24.67
859.245	44.43
859.537	19.33
859.829	30.99
860.12	23
860.412	19.19
860.703	20.36
860.995	32.72
861.286	9.78
861.578	6.59
861.869	31.93
862.16	29.93
862.452	25.96
862.743	33.63
863.034	30.29
863.325	12.96
863.616	9.36
863.907	29.87
864.198	28.66
864.488	22.35
864.779	39.11
865.07	6.28
865.36	31.76
865.651	16.63
865.941	7.07
866.232	41.02
866.522	15.87
866.813	20.13
867.103	20.29
867.393	27.05
867.683	12.8
867.973	9.15
868.263	16.59
868.553	33.95
868.843	14.84
869.133	21.23
869.423	15.09
869.713	-0.82
870.002	24.28
870.292	25.66
870.582	41.21
870.871	12.93
871.161	-6.37
871.45	-15.7
871.739	21.72
872.029	2.55
872.318	25.51
872.607	-2.21
872.896	1.47
873.185	23.48
873.474	28.29
873.763	37.61
874.052	37.44
874.341	-3.03
874.63	6.13
874.918	24.63
875.207	31.68
875.496	37.99
875.784	6.55
876.073	5.34
876.361	20.98
876.649	0.57
876.938	39.29
877.226	40.91
877.514	28.42
877.802	38.7
878.09	19.05
878.378	16.01
878.666	9.73
878.954	22.58
879.242	22.07
879.53	33.99
879.817	26.38
880.105	15.71
880.392	26.89
880.68	20.85
880.967	41.71
881.255	9.37
881.542	30.78
881.83	-14.47
882.117	20.54
882.404	14.39
882.691	-4.12
882.978	23.32
883.265	23.23
883.552	30
883.839	22.14
884.126	19.36
884.413	32.27
884.699	28.2
884.986	27.19
885.273	30.35
885.559	30.35
885.846	30.35
