Data from 815646_crown_Reflection__0__67.txt Node

Date: Fri Sep 16 15:03:19 CDT 2022
User: ToomeyLab
Spectrometer: FLMS14357
Trigger mode: 0
Integration Time (sec): 1.000000E-2
Scans to average: 100
Electric dark correction enabled: true
Nonlinearity correction enabled: false
Boxcar width: 0
XAxis mode: Wavelengths
Number of Pixels in Spectrum: 2048
>>>>>Begin Spectral Data<<<<<
189.047	-99.03
189.435	-99.03
189.823	-99.03
190.211	121.82
190.599	140.03
190.987	117.65
191.375	209.32
191.763	1981.29
192.151	561.54
192.538	796.06
192.926	118.3
193.314	34.56
193.702	192.31
194.089	63.98
194.477	269.1
194.864	161.49
195.252	273.26
195.639	690.97
196.027	183.78
196.414	115.86
196.801	-16.88
197.189	41.17
197.576	-93.4
197.963	-763.62
198.351	-41.33
198.738	-29.53
199.125	8.37
199.512	-118.44
199.899	17.87
200.286	9.03
200.673	-23.37
201.06	35.12
201.447	7.46
201.833	-6.21
202.22	40.07
202.607	-58
202.994	13.58
203.38	18.13
203.767	10.45
204.154	34.91
204.54	2.36
204.927	-61.22
205.313	45.04
205.699	42.54
206.086	18.6
206.472	19.07
206.858	20.79
207.245	3.06
207.631	-8.91
208.017	45.47
208.403	0.25
208.789	11.7
209.175	28.32
209.561	2.23
209.947	31.03
210.333	19.96
210.719	-1.41
211.105	37.14
211.491	16.21
211.876	42.32
212.262	46.67
212.648	23.2
213.034	-8.72
213.419	-8.45
213.805	26.12
214.19	10.9
214.576	-0.55
214.961	7.56
215.346	-42.06
215.732	-77.79
216.117	7.82
216.502	-5.37
216.888	-27.33
217.273	19.53
217.658	-1.8
218.043	-33.54
218.428	15.35
218.813	-11.96
219.198	-6.9
219.583	9.61
219.968	13.78
220.353	2.85
220.738	29.65
221.122	8.54
221.507	0.05
221.892	-1.72
222.276	10.57
222.661	0.49
223.046	8.7
223.43	4.11
223.815	-9.14
224.199	12.38
224.583	5.47
224.968	16.77
225.352	5.09
225.736	6.55
226.121	5.1
226.505	1.81
226.889	5.86
227.273	5.29
227.657	7.69
228.041	1.56
228.425	-3.74
228.809	7.33
229.193	1.04
229.577	4.79
229.961	3.03
230.344	4.96
230.728	4.18
231.112	5.53
231.495	3.49
231.879	5.05
232.263	3.58
232.646	4.6
233.03	4.91
233.413	7.24
233.797	5.39
234.18	3.8
234.563	3.98
234.946	4.38
235.33	4.99
235.713	4.32
236.096	3.51
236.479	3.26
236.862	2.87
237.245	1.89
237.628	4.71
238.011	5.31
238.394	3.94
238.777	3.89
239.16	5.67
239.543	5.35
239.925	3.45
240.308	2.39
240.691	3.39
241.073	4.84
241.456	3.4
241.838	3.16
242.221	3.12
242.603	4
242.986	4.21
243.368	3.52
243.75	3.62
244.133	4.73
244.515	3.92
244.897	4.15
245.279	3.36
245.661	4.47
246.043	3.75
246.425	3.76
246.807	2.83
247.189	3.69
247.571	3.92
247.953	3.9
248.335	3.97
248.717	4
249.098	4
249.48	3.97
249.862	4.13
250.243	4.3
250.625	4.55
251.006	4.22
251.388	3.8
251.769	3.47
252.151	4.26
252.532	3.36
252.913	3.89
253.295	3.28
253.676	4.42
254.057	3.39
254.438	3.4
254.819	3.15
255.2	2.62
255.581	3.81
255.962	3.67
256.343	4.43
256.724	2.79
257.105	3.11
257.486	3.86
257.867	4.06
258.247	4.03
258.628	4.35
259.009	3.84
259.389	3.94
259.77	2.87
260.15	3.12
260.531	3.41
260.911	3.56
261.292	3.52
261.672	3.79
262.052	3.45
262.432	3.95
262.813	4.35
263.193	3.85
263.573	4.03
263.953	4.33
264.333	3.79
264.713	3.84
265.093	3.69
265.473	2.9
265.853	3.87
266.233	2.92
266.612	4.53
266.992	2.38
267.372	4.01
267.752	3.35
268.131	3.46
268.511	4.1
268.89	3.87
269.27	3.44
269.649	3.48
270.029	3.69
270.408	4.16
270.787	3.28
271.167	3.41
271.546	4.04
271.925	3.52
272.304	3.59
272.683	3.5
273.062	3.88
273.441	3.76
273.82	3.23
274.199	3.59
274.578	3.6
274.957	3.8
275.336	3.86
275.715	4.36
276.093	3.54
276.472	3.04
276.851	3.06
277.229	3.35
277.608	4.31
277.986	3.37
278.365	3.5
278.743	3.86
279.122	3.36
279.5	3.04
279.878	3.6
280.257	3.63
280.635	3.47
281.013	3.26
281.391	3.91
281.769	3.63
282.147	3.22
282.525	3.03
282.903	3.55
283.281	3.11
283.659	3.44
284.037	3.52
284.415	3.6
284.792	4.11
285.17	3.32
285.548	3.05
285.925	2.83
286.303	3.68
286.68	3.39
287.058	3.27
287.435	3.78
287.813	3.81
288.19	3.05
288.567	3.7
288.945	3.57
289.322	3.77
289.699	3.45
290.076	3.46
290.453	3.73
290.83	3.51
291.207	3.59
291.584	3.16
291.961	3.34
292.338	3.63
292.715	3.36
293.092	3.3
293.469	3.43
293.845	3.75
294.222	3.37
294.599	3.29
294.975	3.3
295.352	4.04
295.728	3.22
296.105	3.86
296.481	3.14
296.858	3.37
297.234	3.52
297.61	3.71
297.986	3.61
298.363	3.29
298.739	3.24
299.115	3.53
299.491	3.46
299.867	3.34
300.243	3.36
300.619	3.45
300.995	3.67
301.371	3.62
301.746	3.21
302.122	3.6
302.498	3.41
302.874	2.99
303.249	3.71
303.625	3.47
304	3.38
304.376	3.06
304.751	3.93
305.127	3.23
305.502	3.52
305.878	3.38
306.253	3.58
306.628	3.18
307.003	3.35
307.378	3.86
307.754	3.54
308.129	4.01
308.504	3.67
308.879	4.02
309.254	3.54
309.629	3.02
310.003	3.28
310.378	3.1
310.753	3.2
311.128	3.55
311.502	2.87
311.877	3.69
312.252	3.67
312.626	3.44
313.001	3.59
313.375	4.08
313.75	3.56
314.124	3.55
314.498	3.09
314.873	3.71
315.247	3.39
315.621	3.4
315.995	3.66
316.369	3.65
316.743	3.98
317.117	3.65
317.491	3.37
317.865	3.31
318.239	3.73
318.613	3.66
318.987	3.5
319.361	2.98
319.734	3.41
320.108	3.54
320.482	3.97
320.855	3.84
321.229	3.81
321.602	4.03
321.976	3.64
322.349	3.84
322.723	3.45
323.096	3.61
323.469	3.46
323.843	3.48
324.216	4.06
324.589	3.7
324.962	3.21
325.335	3.88
325.708	4.01
326.081	3.74
326.454	3.5
326.827	3.67
327.2	3.84
327.573	3.42
327.945	3.29
328.318	3.71
328.691	3.43
329.063	3.28
329.436	3.28
329.809	2.79
330.181	3.3
330.553	3.8
330.926	3.47
331.298	3.59
331.671	3.46
332.043	3.53
332.415	3.48
332.787	3.95
333.159	3.51
333.532	4.11
333.904	3.68
334.276	3.54
334.648	3.66
335.02	4.02
335.391	4.13
335.763	3.45
336.135	3.1
336.507	3.63
336.879	3.47
337.25	3.38
337.622	3.92
337.993	3.65
338.365	3.56
338.736	4.5
339.108	3.63
339.479	3.92
339.851	3.42
340.222	3.81
340.593	3.49
340.964	3.98
341.336	3.64
341.707	3.34
342.078	4.01
342.449	3.46
342.82	3.27
343.191	3.27
343.562	3.81
343.933	3.74
344.303	4.16
344.674	3.3
345.045	4.23
345.416	3.09
345.786	3.48
346.157	3.85
346.527	3.61
346.898	3.42
347.268	3.67
347.639	3.52
348.009	3.52
348.38	3.75
348.75	3.29
349.12	4.03
349.49	4.03
349.861	3.69
350.231	3.69
350.601	3.71
350.971	3.72
351.341	4.04
351.711	3.71
352.081	3.38
352.45	4.06
352.82	4.15
353.19	3.24
353.56	3.71
353.929	3.86
354.299	3.88
354.669	3.57
355.038	3.75
355.408	3.87
355.777	3.71
356.147	3.71
356.516	3.8
356.885	3.77
357.254	3.74
357.624	3.84
357.993	3.52
358.362	3.75
358.731	3.67
359.1	3.56
359.469	3.71
359.838	3.83
360.207	3.95
360.576	3.75
360.945	3.75
361.314	3.56
361.682	3.22
362.051	3.91
362.42	3.89
362.788	4.02
363.157	3.85
363.525	3.6
363.894	3.5
364.262	3.7
364.631	3.96
364.999	3.63
365.367	3.62
365.735	3.57
366.104	4.16
366.472	3.71
366.84	3.95
367.208	4.05
367.576	3.77
367.944	3.41
368.312	3.66
368.68	3.85
369.048	3.98
369.416	3.79
369.783	3.86
370.151	4.13
370.519	3.7
370.886	3.72
371.254	3.72
371.621	3.78
371.989	3.74
372.356	4.12
372.724	4.16
373.091	3.9
373.458	3.63
373.826	3.73
374.193	4.44
374.56	3.85
374.927	3.46
375.294	3.81
375.661	3.82
376.028	4.34
376.395	3.49
376.762	4.25
377.129	3.81
377.496	3.81
377.863	4.07
378.229	3.93
378.596	3.55
378.963	3.69
379.329	3.99
379.696	4.1
380.062	3.94
380.429	4.16
380.795	4
381.161	4.14
381.528	4.25
381.894	4.05
382.26	3.78
382.626	4.06
382.993	3.87
383.359	4.05
383.725	3.75
384.091	4.16
384.457	3.58
384.823	3.95
385.188	3.74
385.554	3.79
385.92	3.92
386.286	3.79
386.651	4.02
387.017	3.78
387.383	3.45
387.748	3.26
388.114	3.63
388.479	4.04
388.845	4.01
389.21	4.14
389.575	3.94
389.94	3.92
390.306	3.93
390.671	3.94
391.036	3.88
391.401	3.92
391.766	4.13
392.131	3.92
392.496	3.58
392.861	4.06
393.226	3.96
393.591	3.98
393.956	4.18
394.32	4.4
394.685	3.77
395.05	4.1
395.414	3.78
395.779	3.95
396.143	4.04
396.508	3.82
396.872	3.89
397.236	3.97
397.601	4.04
397.965	3.8
398.329	4.05
398.694	4.27
399.058	4.22
399.422	3.98
399.786	4.15
400.15	4.03
400.514	3.99
400.878	3.94
401.242	4.18
401.605	4.03
401.969	4
402.333	4.08
402.697	3.83
403.06	4.05
403.424	4.09
403.787	4.04
404.151	4.03
404.514	3.86
404.878	3.9
405.241	3.88
405.604	4.08
405.968	4.12
406.331	4.1
406.694	4.07
407.057	3.85
407.42	3.83
407.783	4.13
408.146	4.31
408.509	4.15
408.872	4.23
409.235	4.04
409.598	4.02
409.961	4.03
410.323	4.17
410.686	4.23
411.049	4.01
411.411	3.8
411.774	4.08
412.136	3.85
412.499	4.11
412.861	4.06
413.223	4.1
413.586	4.03
413.948	4.08
414.31	4.19
414.672	4.11
415.035	4.11
415.397	3.99
415.759	4.16
416.121	4.16
416.483	4.13
416.845	4.23
417.206	4.16
417.568	4.39
417.93	4.32
418.292	4.22
418.653	3.84
419.015	4.01
419.377	4.2
419.738	4.04
420.1	4.1
420.461	4.05
420.822	4.02
421.184	3.98
421.545	3.98
421.906	4.1
422.267	4.03
422.629	3.93
422.99	3.94
423.351	4.12
423.712	4.04
424.073	4.06
424.434	4.09
424.795	4.04
425.155	4.02
425.516	4.16
425.877	4.06
426.238	4.03
426.598	3.94
426.959	4.14
427.32	4.14
427.68	4.17
428.041	4.09
428.401	4.18
428.761	4.36
429.122	4.41
429.482	4.23
429.842	4.1
430.202	4.2
430.563	4.15
430.923	4.3
431.283	4.33
431.643	4.42
432.003	4.19
432.363	4.07
432.722	4.39
433.082	4.24
433.442	4.46
433.802	4.24
434.161	4.1
434.521	4.21
434.881	4.19
435.24	4.21
435.6	4.13
435.959	4.32
436.319	4.16
436.678	4.2
437.037	4.11
437.396	4.2
437.756	4.39
438.115	4.22
438.474	4.18
438.833	4.12
439.192	4.12
439.551	4.3
439.91	4.09
440.269	4.32
440.628	4.17
440.987	4.25
441.345	4.24
441.704	4.32
442.063	4.31
442.421	4.26
442.78	4.1
443.138	4.25
443.497	4.37
443.855	4.28
444.214	4.24
444.572	4.33
444.93	4.3
445.288	4.25
445.647	4.36
446.005	4.2
446.363	4.17
446.721	4.31
447.079	4.23
447.437	4.22
447.795	4.25
448.153	4.24
448.51	4.09
448.868	4.22
449.226	4.2
449.584	4.27
449.941	4.35
450.299	4.23
450.656	4.2
451.014	4.32
451.371	4.49
451.729	4.25
452.086	4.39
452.443	4.29
452.801	4.4
453.158	4.27
453.515	4.31
453.872	4.29
454.229	4.34
454.586	4.42
454.943	4.2
455.3	4.42
455.657	4.26
456.014	4.41
456.371	4.24
456.727	4.35
457.084	4.48
457.441	4.39
457.797	4.4
458.154	4.46
458.51	4.46
458.867	4.31
459.223	4.36
459.58	4.52
459.936	4.45
460.292	4.39
460.648	4.18
461.005	4.41
461.361	4.24
461.717	4.28
462.073	4.29
462.429	4.39
462.785	4.47
463.141	4.44
463.496	4.54
463.852	4.46
464.208	4.54
464.564	4.52
464.919	4.51
465.275	4.64
465.631	4.6
465.986	4.4
466.342	4.39
466.697	4.53
467.052	4.42
467.408	4.5
467.763	4.42
468.118	4.38
468.473	4.41
468.829	4.39
469.184	4.54
469.539	4.48
469.894	4.64
470.249	4.73
470.603	4.65
470.958	4.43
471.313	4.49
471.668	4.43
472.023	4.37
472.377	4.65
472.732	4.56
473.086	4.67
473.441	4.37
473.795	4.53
474.15	4.3
474.504	4.52
474.859	4.46
475.213	4.66
475.567	4.3
475.921	4.67
476.275	4.68
476.63	4.65
476.984	4.7
477.338	4.51
477.692	4.5
478.045	4.34
478.399	4.52
478.753	4.45
479.107	4.58
479.461	4.35
479.814	4.53
480.168	4.5
480.521	4.56
480.875	4.55
481.228	4.56
481.582	4.65
481.935	4.73
482.289	4.61
482.642	4.56
482.995	4.53
483.348	4.49
483.701	4.42
484.055	4.4
484.408	4.46
484.761	4.32
485.114	4.2
485.466	4.13
485.819	4.18
486.172	4.26
486.525	4.4
486.878	4.42
487.23	4.44
487.583	4.47
487.936	4.48
488.288	4.43
488.641	4.36
488.993	4.29
489.345	4.28
489.698	4.29
490.05	4.36
490.402	4.38
490.754	4.54
491.107	4.53
491.459	4.58
491.811	4.45
492.163	4.46
492.515	4.45
492.866	4.34
493.218	4.29
493.57	4.29
493.922	4.37
494.274	4.55
494.625	4.57
494.977	4.66
495.328	4.62
495.68	4.54
496.031	4.7
496.383	4.66
496.734	4.76
497.086	4.67
497.437	4.64
497.788	4.65
498.139	4.57
498.49	4.61
498.842	4.61
499.193	4.68
499.544	4.69
499.894	4.57
500.245	4.65
500.596	4.63
500.947	4.58
501.298	4.61
501.648	4.67
501.999	4.69
502.35	4.65
502.7	4.82
503.051	4.83
503.401	4.55
503.752	4.73
504.102	4.83
504.452	4.66
504.803	4.75
505.153	4.75
505.503	4.82
505.853	4.54
506.203	4.8
506.553	4.64
506.903	4.69
507.253	4.6
507.603	4.77
507.953	4.8
508.303	4.8
508.652	4.63
509.002	4.7
509.352	4.72
509.701	4.66
510.051	4.77
510.4	4.69
510.75	4.72
511.099	4.68
511.449	4.72
511.798	4.7
512.147	4.68
512.496	4.69
512.846	4.78
513.195	4.69
513.544	4.77
513.893	4.77
514.242	4.67
514.591	4.84
514.939	4.88
515.288	4.85
515.637	4.83
515.986	4.65
516.334	4.74
516.683	4.78
517.032	4.88
517.38	4.85
517.729	4.97
518.077	4.78
518.426	4.87
518.774	4.82
519.122	4.83
519.47	4.69
519.819	4.69
520.167	4.66
520.515	4.69
520.863	4.7
521.211	4.81
521.559	4.78
521.907	4.82
522.255	4.84
522.602	4.82
522.95	4.88
523.298	4.84
523.645	4.91
523.993	4.89
524.341	4.93
524.688	5.05
525.036	4.83
525.383	4.94
525.73	4.94
526.078	4.74
526.425	4.79
526.772	4.67
527.119	4.73
527.466	4.77
527.814	4.78
528.161	4.8
528.508	4.78
528.854	4.84
529.201	4.71
529.548	4.7
529.895	4.59
530.242	4.53
530.588	4.57
530.935	4.62
531.282	4.75
531.628	4.77
531.975	4.84
532.321	4.84
532.667	4.91
533.014	4.97
533.36	4.85
533.706	4.84
534.052	4.8
534.399	4.85
534.745	4.72
535.091	4.62
535.437	4.73
535.783	4.82
536.129	4.93
536.474	4.92
536.82	4.97
537.166	4.97
537.512	4.94
537.857	4.88
538.203	4.74
538.549	4.76
538.894	4.75
539.239	4.99
539.585	4.95
539.93	4.95
540.276	5.27
540.621	5.1
540.966	4.97
541.311	5.04
541.656	4.91
542.001	4.83
542.346	4.8
542.691	4.74
543.036	4.73
543.381	4.68
543.726	4.74
544.071	4.85
544.415	4.89
544.76	4.81
545.105	4.94
545.449	5.02
545.794	4.93
546.138	4.95
546.483	5.03
546.827	5.03
547.171	5.02
547.516	4.84
547.86	4.95
548.204	4.93
548.548	4.87
548.892	4.8
549.236	4.97
549.58	5.02
549.924	5.06
550.268	5.04
550.612	5.17
550.956	5.06
551.3	5.12
551.643	5.21
551.987	5.24
552.33	5
552.674	5.08
553.017	5.15
553.361	5.19
553.704	5.1
554.048	5.14
554.391	5.03
554.734	5.09
555.077	5.18
555.42	5.14
555.764	5.13
556.107	5.24
556.45	5.2
556.793	5.26
557.135	5.14
557.478	5.12
557.821	4.99
558.164	5.45
558.507	5.21
558.849	5.06
559.192	5.18
559.534	5.27
559.877	4.98
560.219	5.16
560.562	5.41
560.904	5.33
561.246	5.04
561.589	5.32
561.931	5.32
562.273	5.22
562.615	5.25
562.957	5.34
563.299	5.2
563.641	5.24
563.983	5.32
564.325	5.2
564.667	5.2
565.008	5.32
565.35	5.25
565.692	5.3
566.033	5.34
566.375	5.18
566.716	5.16
567.058	5.22
567.399	5.27
567.741	5.1
568.082	5.34
568.423	5.14
568.764	5.24
569.105	5.19
569.447	5.23
569.788	5.39
570.129	5.37
570.47	5.32
570.811	5.25
571.151	5.39
571.492	5.25
571.833	5.26
572.174	5.29
572.514	5.31
572.855	5.29
573.195	5.33
573.536	5.14
573.876	5.33
574.217	5.3
574.557	5.29
574.898	5.16
575.238	5.49
575.578	5.17
575.918	5.31
576.258	5.34
576.598	5.1
576.938	5.32
577.278	5.22
577.618	5.29
577.958	5.4
578.298	5.36
578.638	5.31
578.977	5.19
579.317	5.34
579.657	5.3
579.996	5.51
580.336	5.5
580.675	5.37
581.014	5.54
581.354	5.38
581.693	5.22
582.032	5.52
582.372	5.34
582.711	5.6
583.05	5.41
583.389	5.25
583.728	5.55
584.067	5.57
584.406	5.68
584.745	5.72
585.083	5.46
585.422	5.63
585.761	5.45
586.1	5.17
586.438	5.52
586.777	5.26
587.115	5.44
587.454	5.59
587.792	5.57
588.13	5.64
588.469	5.42
588.807	5.32
589.145	5.29
589.483	5.72
589.821	5.67
590.159	5.36
590.497	5.47
590.835	5.63
591.173	5.7
591.511	5.4
591.849	5.66
592.187	5.65
592.524	5.25
592.862	5.59
593.2	5.23
593.537	5.54
593.875	5.66
594.212	5.51
594.55	5.36
594.887	5.56
595.224	5.42
595.561	5.46
595.899	5.48
596.236	5.66
596.573	5.62
596.91	5.42
597.247	5.36
597.584	5.38
597.921	5.46
598.258	5.43
598.594	5.1
598.931	5.53
599.268	5.44
599.604	5.44
599.941	5.45
600.277	5.39
600.614	5.62
600.95	5.52
601.287	5.4
601.623	5.58
601.959	5.65
602.296	5.43
602.632	5.53
602.968	5.55
603.304	5.52
603.64	5.42
603.976	5.32
604.312	5.19
604.648	5.64
604.984	5.66
605.319	5.63
605.655	5.7
605.991	5.53
606.326	5.61
606.662	5.41
606.998	5.55
607.333	5.59
607.668	5.65
608.004	5.5
608.339	5.68
608.674	5.74
609.01	5.71
609.345	5.92
609.68	5.61
610.015	5.57
610.35	5.71
610.685	5.79
611.02	5.57
611.355	5.86
611.689	5.65
612.024	5.71
612.359	5.62
612.694	5.73
613.028	5.55
613.363	5.6
613.697	5.74
614.032	5.82
614.366	5.64
614.7	5.78
615.035	5.97
615.369	5.56
615.703	5.57
616.037	5.73
616.371	6.03
616.705	5.64
617.039	5.86
617.373	5.56
617.707	5.68
618.041	5.74
618.375	5.77
618.709	5.42
619.042	5.77
619.376	5.59
619.71	5.79
620.043	5.75
620.377	5.72
620.71	6
621.043	5.75
621.377	5.8
621.71	5.64
622.043	5.71
622.376	5.86
622.709	5.93
623.043	5.81
623.376	5.4
623.709	5.28
624.041	6.09
624.374	5.63
624.707	6.05
625.04	5.95
625.373	5.65
625.705	5.66
626.038	6.44
626.37	5.79
626.703	5.41
627.035	5.74
627.368	6.18
627.7	5.88
628.032	5.72
628.365	5.71
628.697	5.76
629.029	6.02
629.361	5.68
629.693	6.08
630.025	5.88
630.357	5.75
630.689	6.19
631.021	5.76
631.353	5.74
631.684	5.67
632.016	6.18
632.348	5.81
632.679	5.76
633.011	5.45
633.342	5.71
633.674	6.15
634.005	6.1
634.336	6.07
634.668	5.83
634.999	5.57
635.33	5.94
635.661	5.9
635.992	5.98
636.323	5.71
636.654	5.58
636.985	5.99
637.316	6.2
637.647	6.05
637.977	6.03
638.308	6.05
638.639	6.14
638.969	6.3
639.3	6.08
639.63	5.53
639.961	6.14
640.291	6.02
640.622	6.1
640.952	6.47
641.282	6.4
641.612	5.93
641.943	5.95
642.273	5.96
642.603	6.12
642.933	6.2
643.263	5.87
643.592	5.78
643.922	5.98
644.252	5.81
644.582	5.97
644.911	5.83
645.241	6.13
645.571	6.46
645.9	6.45
646.23	6.23
646.559	5.6
646.888	6.39
647.218	6.07
647.547	6.1
647.876	6.74
648.205	6.45
648.534	6.25
648.863	6.07
649.192	6.49
649.521	6.16
649.85	6.48
650.179	6.14
650.508	6.63
650.837	6.11
651.165	5.64
651.494	6.26
651.822	6.03
652.151	5.93
652.479	5.76
652.808	6.54
653.136	6.04
653.465	6.41
653.793	6
654.121	6.38
654.449	5.78
654.777	6.55
655.105	5.94
655.433	6.31
655.761	6.31
656.089	6.12
656.417	6.02
656.745	6.35
657.073	6.16
657.4	6.15
657.728	6.48
658.056	5.91
658.383	6.29
658.711	6.2
659.038	5.98
659.365	6.18
659.693	6.21
660.02	6.1
660.347	6.35
660.674	6.02
661.001	6.2
661.329	5.85
661.656	5.98
661.982	6.61
662.309	6.27
662.636	6.34
662.963	6.53
663.29	6.29
663.616	6.66
663.943	6.45
664.27	5.74
664.596	6.27
664.923	6.41
665.249	6.33
665.576	6.31
665.902	6.44
666.228	6.32
666.554	6.75
666.881	6.57
667.207	6.27
667.533	6.72
667.859	6.52
668.185	6.87
668.511	6.7
668.837	6.92
669.162	6.74
669.488	7.28
669.814	6.22
670.139	6.04
670.465	6.25
670.791	6.25
671.116	6.54
671.442	6.86
671.767	6.36
672.092	6.4
672.418	6.69
672.743	6.57
673.068	6.65
673.393	6.42
673.718	6.46
674.043	6.59
674.368	6.67
674.693	7.39
675.018	6.7
675.343	6.8
675.667	6.25
675.992	6.58
676.317	6.89
676.641	5.86
676.966	6.63
677.29	6.43
677.615	6.74
677.939	6
678.264	6.22
678.588	6.01
678.912	5.75
679.236	5.81
679.56	6.95
679.885	6.35
680.209	5.9
680.532	7.35
680.856	6.15
681.18	5.97
681.504	6.56
681.828	6.64
682.152	6.48
682.475	6.83
682.799	6.37
683.122	7.03
683.446	6.95
683.769	6.55
684.093	6.31
684.416	6.5
684.739	6.29
685.062	7.28
685.386	6.52
685.709	7.22
686.032	7.04
686.355	6.51
686.678	6.88
687.001	6.15
687.324	7.08
687.646	7.76
687.969	6.75
688.292	6.93
688.614	6.05
688.937	6.88
689.26	7.27
689.582	6.53
689.904	6.1
690.227	7.01
690.549	6.75
690.871	6.41
691.194	6.81
691.516	6.47
691.838	6.64
692.16	7.16
692.482	6.48
692.804	6.97
693.126	7.37
693.448	6.44
693.769	6.56
694.091	6.87
694.413	7.21
694.735	7.71
695.056	6.61
695.378	6.79
695.699	6.33
696.021	7.04
696.342	7.24
696.663	7.03
696.984	6.52
697.306	6.67
697.627	7.1
697.948	6.57
698.269	6.55
698.59	6.5
698.911	7.32
699.232	6.48
699.553	6.73
699.873	7
700.194	7.48
700.515	7.02
700.835	6.96
701.156	7.04
701.477	7.07
701.797	6.89
702.117	6.83
702.438	6.68
702.758	6.88
703.078	6.14
703.398	6.79
703.719	6.85
704.039	6.4
704.359	6.45
704.679	7.53
704.999	6.44
705.319	6.6
705.638	6.85
705.958	6.47
706.278	6.39
706.597	6.96
706.917	6.47
707.237	7.21
707.556	7.68
707.876	6.44
708.195	7.4
708.514	7.69
708.834	7.52
709.153	8.03
709.472	6.71
709.791	6.48
710.11	7.24
710.429	7.51
710.748	7.26
711.067	7.56
711.386	6.43
711.705	6.98
712.023	7.19
712.342	6.94
712.661	6.9
712.979	7.1
713.298	6.96
713.616	7.35
713.935	8.01
714.253	6.53
714.572	6.95
714.89	7.71
715.208	8.09
715.526	7.38
715.844	8.01
716.162	7.85
716.48	7.17
716.798	7.16
717.116	8.31
717.434	8.28
717.752	7.11
718.069	7.47
718.387	7.78
718.705	7.73
719.022	7.24
719.34	7.99
719.657	7.91
719.975	7.21
720.292	7.57
720.609	7.25
720.927	7.24
721.244	7.07
721.561	7.51
721.878	6.36
722.195	6.2
722.512	6.39
722.829	7.04
723.146	7.47
723.463	7.18
723.779	6.63
724.096	7.35
724.413	6.73
724.729	4.94
725.046	7.34
725.362	7.36
725.679	7.41
725.995	5.67
726.311	5.45
726.628	7.19
726.944	7.23
727.26	7.21
727.576	7.51
727.892	5.95
728.208	8.29
728.524	8.75
728.84	7.56
729.156	8.02
729.472	7.09
729.787	8.08
730.103	6.04
730.419	6.09
730.734	7.03
731.05	8.73
731.365	7.04
731.681	6.15
731.996	8.74
732.311	8.47
732.626	7.54
732.942	8.2
733.257	9.2
733.572	7.08
733.887	6.45
734.202	6.85
734.517	8.09
734.832	6.69
735.146	8.62
735.461	8.01
735.776	7.21
736.091	7.45
736.405	9.02
736.72	8.18
737.034	8.1
737.349	7.81
737.663	8.3
737.977	7.28
738.292	8.13
738.606	8.37
738.92	6.6
739.234	8.39
739.548	7.35
739.862	7.66
740.176	8.62
740.49	7.96
740.804	7.88
741.117	6.76
741.431	9.3
741.745	8.23
742.058	7.57
742.372	6.34
742.685	6.95
742.999	7.07
743.312	10.42
743.626	6.41
743.939	8.06
744.252	7.58
744.565	8.86
744.878	6.51
745.191	8.05
745.505	7.19
745.817	7.22
746.13	7.97
746.443	6.5
746.756	8.43
747.069	7.42
747.381	6.59
747.694	8.67
748.007	7.76
748.319	7.62
748.632	7.03
748.944	7.82
749.256	5.92
749.569	7.88
749.881	8.87
750.193	7.85
750.505	9.61
750.817	9.71
751.129	8.13
751.441	7.03
751.753	8.48
752.065	7.69
752.377	7.15
752.689	7.09
753	7.48
753.312	9.05
753.624	8.73
753.935	7.8
754.247	7.49
754.558	7.8
754.869	7.43
755.181	8.16
755.492	8.14
755.803	7.74
756.114	9.31
756.425	7.66
756.736	8.54
757.047	10.12
757.358	6.9
757.669	8.39
757.98	8.74
758.291	9.71
758.601	9.25
758.912	9.46
759.223	8.47
759.533	9.54
759.844	6.82
760.154	7.12
760.464	9.71
760.775	8.53
761.085	7.25
761.395	9.64
761.705	8.84
762.016	8.33
762.326	8.77
762.636	8.25
762.945	6.61
763.255	9.23
763.565	9.47
763.875	9.08
764.185	8.15
764.494	8.97
764.804	10.86
765.113	7.92
765.423	8.71
765.732	7.62
766.042	8.99
766.351	10.11
766.66	9.31
766.97	9.67
767.279	9.02
767.588	9.9
767.897	8.53
768.206	8.38
768.515	7.5
768.824	7.82
769.133	7.9
769.441	11.78
769.75	11.26
770.059	8.99
770.367	9.37
770.676	11.28
770.984	9.57
771.293	8.67
771.601	5.45
771.91	10.27
772.218	7.29
772.526	9.3
772.834	9.03
773.142	11.17
773.45	8.95
773.758	7.11
774.066	9.15
774.374	10.03
774.682	8.46
774.99	7.28
775.298	9.69
775.605	8.74
775.913	5.68
776.22	8.35
776.528	13.26
776.835	9.41
777.143	2.82
777.45	7.8
777.757	9.81
778.065	10.1
778.372	8.05
778.679	8.1
778.986	7.34
779.293	10.35
779.6	7.57
779.907	10.15
780.214	9.31
780.52	7.97
780.827	10.01
781.134	11.74
781.44	11.45
781.747	10.26
782.053	7.8
782.36	9.71
782.666	7.31
782.973	6.53
783.279	8.18
783.585	9.02
783.891	7
784.197	11.5
784.503	7.91
784.809	9.95
785.115	10.17
785.421	10.42
785.727	11.64
786.033	8.93
786.339	9.41
786.644	8.87
786.95	9.71
787.255	5.47
787.561	10.15
787.866	11.65
788.172	8.15
788.477	7.94
788.782	12.11
789.088	9.27
789.393	9.03
789.698	7.49
790.003	10.84
790.308	7.85
790.613	10.14
790.918	12.54
791.223	10.18
791.527	8.02
791.832	8.5
792.137	8.54
792.441	13.38
792.746	8.11
793.05	7.98
793.355	7.31
793.659	13.63
793.963	6.66
794.268	7.67
794.572	7.65
794.876	7.05
795.18	12.08
795.484	10.89
795.788	14.19
796.092	6.12
796.396	9.37
796.7	13.38
797.004	14.84
797.307	11.39
797.611	10.51
797.915	8.59
798.218	12.55
798.522	13.31
798.825	6.46
799.128	8.7
799.432	9.58
799.735	8.85
800.038	3.81
800.341	6.93
800.644	14.84
800.947	10.31
801.25	9.85
801.553	14.48
801.856	9.02
802.159	5.52
802.462	10.83
802.764	11.31
803.067	7.42
803.37	12.75
803.672	9.97
803.975	9.1
804.277	4.53
804.579	9.92
804.882	14.97
805.184	11.24
805.486	9.78
805.788	12.79
806.09	8.67
806.392	10.57
806.694	3.31
806.996	7.43
807.298	5.37
807.6	10.76
807.902	8.08
808.203	9.84
808.505	10.98
808.807	10.43
809.108	16.19
809.409	8.44
809.711	9.97
810.012	9.06
810.313	11.72
810.615	5.25
810.916	10.44
811.217	13.26
811.518	7.26
811.819	11.22
812.12	9.41
812.421	7.01
812.722	8.54
813.023	10.86
813.323	11.15
813.624	12.36
813.925	5.84
814.225	17.69
814.526	12.48
814.826	13.96
815.126	11.45
815.427	15.26
815.727	4.49
816.027	16.02
816.327	8.63
816.627	10.36
816.927	11.23
817.227	9.72
817.527	3.24
817.827	5.2
818.127	14.65
818.427	13.31
818.727	9.94
819.026	15.79
819.326	6.87
819.625	6.26
819.925	13.23
820.224	13.58
820.524	15.21
820.823	8.18
821.122	13.8
821.421	11.45
821.72	14.16
822.019	11.64
822.318	13.65
822.617	10.99
822.916	9.59
823.215	7.71
823.514	13.95
823.813	11.35
824.111	11.25
824.41	10.91
824.709	10.47
825.007	10.75
825.306	10.83
825.604	12.16
825.902	11.08
826.201	11.62
826.499	12.47
826.797	11.74
827.095	11.15
827.393	10.57
827.691	11.64
827.989	11.36
828.287	12.58
828.585	11.53
828.882	10.65
829.18	10.12
829.478	13.63
829.775	12.12
830.073	11.9
830.37	13.14
830.668	9.18
830.965	10.25
831.263	11.28
831.56	10.31
831.857	15.13
832.154	10.3
832.451	12.62
832.748	8.83
833.045	4.64
833.342	13.82
833.639	9.71
833.936	7.68
834.232	17.13
834.529	9.56
834.826	12.18
835.122	9.67
835.419	12.57
835.715	7.59
836.012	13.86
836.308	7.92
836.604	11.56
836.901	12.87
837.197	10.73
837.493	11.19
837.789	10.38
838.085	14.02
838.381	13.65
838.677	14.01
838.972	8.97
839.268	9.56
839.564	19.84
839.86	15.37
840.155	11.12
840.451	9.3
840.746	4.41
841.042	15.07
841.337	4.39
841.632	20.09
841.928	16.5
842.223	13.48
842.518	14.39
842.813	7.09
843.108	11.28
843.403	20.4
843.698	9.77
843.993	13.87
844.287	5.38
844.582	13.46
844.877	14.93
845.171	13.47
845.466	-0.07
845.761	15.97
846.055	12.97
846.349	15.2
846.644	10.24
846.938	9.01
847.232	10.63
847.526	16.14
847.82	12.11
848.114	19.72
848.408	5.45
848.702	5.78
848.996	-4.66
849.29	-7.75
849.584	14.34
849.877	20.37
850.171	8.8
850.465	19.54
850.758	-2.85
851.052	13.14
851.345	-3.34
851.638	-5.95
851.932	-9.12
852.225	0.06
852.518	24.27
852.811	4.86
853.104	10.4
853.397	1.67
853.69	10.39
853.983	0.07
854.276	17.34
854.569	12.63
854.861	10.15
855.154	2.09
855.447	3.91
855.739	11.97
856.032	16.78
856.324	20.07
856.616	3.53
856.909	28.58
857.201	-12.08
857.493	2.79
857.785	12.15
858.077	-4.59
858.369	22.5
858.661	10.25
858.953	1.75
859.245	4.29
859.537	24.84
859.829	33.16
860.12	26.59
860.412	-20.58
860.703	17.83
860.995	12.09
861.286	22.7
861.578	1.52
861.869	6.16
862.16	15.42
862.452	20.5
862.743	6.74
863.034	14.23
863.325	17.58
863.616	6.51
863.907	31.45
864.198	10
864.488	14.34
864.779	1.92
865.07	-24.24
865.36	27.85
865.651	1.48
865.941	-28.93
866.232	13.89
866.522	14.63
866.813	3.61
867.103	8.51
867.393	8.76
867.683	-21.76
867.973	5.04
868.263	-14.19
868.553	14.54
868.843	-9.7
869.133	11.1
869.423	21.08
869.713	10.24
870.002	-4.63
870.292	-5.31
870.582	22.37
870.871	10.96
871.161	7.79
871.45	-6.89
871.739	12.95
872.029	16.15
872.318	0.72
872.607	-9.49
872.896	5.02
873.185	-4.8
873.474	16.64
873.763	15.66
874.052	-4.66
874.341	-12.51
874.63	45.51
874.918	4.67
875.207	12.77
875.496	24.22
875.784	21.27
876.073	-9.9
876.361	6.12
876.649	-1.35
876.938	-5.41
877.226	37.52
877.514	6.07
877.802	-22.66
878.09	13.94
878.378	18.11
878.666	-8.08
878.954	20.8
879.242	19.13
879.53	-8.11
879.817	55.24
880.105	23.4
880.392	4.79
880.68	10.4
880.967	29.95
881.255	12.8
881.542	23.18
881.83	-7.48
882.117	14.67
882.404	2.18
882.691	-19.12
882.978	24.54
883.265	-30.29
883.552	8.19
883.839	-4.24
884.126	3.07
884.413	14.39
884.699	16.89
884.986	9.75
885.273	17.57
885.559	17.57
885.846	17.57
