Data from 815646_forehead_Reflection__1__61.txt Node

Date: Fri Sep 16 15:00:45 CDT 2022
User: ToomeyLab
Spectrometer: FLMS14357
Trigger mode: 0
Integration Time (sec): 1.000000E-2
Scans to average: 100
Electric dark correction enabled: true
Nonlinearity correction enabled: false
Boxcar width: 0
XAxis mode: Wavelengths
Number of Pixels in Spectrum: 2048
>>>>>Begin Spectral Data<<<<<
189.047	282.71
189.435	282.71
189.823	282.71
190.211	120.81
190.599	135.62
190.987	50.01
191.375	187.92
191.763	669.68
192.151	514
192.538	261.73
192.926	-254.9
193.314	43.72
193.702	503.22
194.089	-13.17
194.477	357.82
194.864	-1.58
195.252	-445.99
195.639	4138.06
196.027	111.77
196.414	-46.26
196.801	-29.54
197.189	222.09
197.576	-120.45
197.963	-710.87
198.351	-18.52
198.738	29.63
199.125	26.87
199.512	-119.12
199.899	34.48
200.286	16.92
200.673	47.32
201.06	34.95
201.447	-2.77
201.833	33.3
202.22	7.47
202.607	-8.82
202.994	59.68
203.38	33.51
203.767	35.77
204.154	21.39
204.54	4.3
204.927	-36.94
205.313	51.7
205.699	43.08
206.086	26.98
206.472	26.81
206.858	18.43
207.245	11.45
207.631	28.45
208.017	30.97
208.403	37.03
208.789	-2.96
209.175	51.9
209.561	-9.59
209.947	6.17
210.333	33.94
210.719	-39.31
211.105	11.62
211.491	22.26
211.876	27.28
212.262	34.65
212.648	-4.95
213.034	9.47
213.419	1.75
213.805	16.57
214.19	1.49
214.576	5.18
214.961	7.71
215.346	-5.97
215.732	-35.36
216.117	16.6
216.502	2.95
216.888	-29.31
217.273	-1.7
217.658	30.13
218.043	-44.76
218.428	10.54
218.813	0.52
219.198	4.21
219.583	11.87
219.968	4.38
220.353	-5.03
220.738	21.06
221.122	1.47
221.507	15
221.892	8.67
222.276	20.35
222.661	0.94
223.046	10.79
223.43	12.43
223.815	-6.67
224.199	4.51
224.583	9.17
224.968	13.64
225.352	2.25
225.736	8.81
226.121	10
226.505	7.06
226.889	5.37
227.273	7.48
227.657	6.62
228.041	4.38
228.425	-0.83
228.809	6.53
229.193	2.11
229.577	5.22
229.961	1.77
230.344	2.88
230.728	2.79
231.112	2.59
231.495	1.48
231.879	3.5
232.263	2.4
232.646	1.56
233.03	3.32
233.413	3.72
233.797	1.22
234.18	4.53
234.563	2.06
234.946	-0.52
235.33	3.62
235.713	2.18
236.096	1.81
236.479	2.79
236.862	4.24
237.245	1.93
237.628	4.05
238.011	2.03
238.394	2.98
238.777	3.17
239.16	3.74
239.543	3.09
239.925	2.86
240.308	1.31
240.691	2.67
241.073	2.78
241.456	3.76
241.838	2.1
242.221	1.1
242.603	2.44
242.986	2.16
243.368	2.3
243.75	2.39
244.133	2.66
244.515	2.28
244.897	2.87
245.279	1.64
245.661	2.37
246.043	2.9
246.425	1.69
246.807	3
247.189	2.44
247.571	1.66
247.953	2.54
248.335	2.45
248.717	2.37
249.098	2.42
249.48	2.2
249.862	2.01
250.243	2.71
250.625	2.66
251.006	2.62
251.388	3.29
251.769	2.53
252.151	3.06
252.532	2.4
252.913	2.67
253.295	2.79
253.676	3.13
254.057	2.28
254.438	2.23
254.819	2.03
255.2	1.68
255.581	3.52
255.962	1.78
256.343	3.25
256.724	1.28
257.105	2.02
257.486	3.39
257.867	2.56
258.247	2.31
258.628	2.92
259.009	2.54
259.389	3.2
259.77	2.2
260.15	2.88
260.531	2.14
260.911	2.03
261.292	2.03
261.672	2.21
262.052	1.96
262.432	2.12
262.813	3.15
263.193	2.68
263.573	2.27
263.953	3.06
264.333	2.86
264.713	2.15
265.093	2.53
265.473	2.9
265.853	2.78
266.233	2.09
266.612	3.21
266.992	1.81
267.372	2.13
267.752	2.1
268.131	2.17
268.511	2.88
268.89	2.51
269.27	2.02
269.649	2.3
270.029	2.26
270.408	2.54
270.787	2.14
271.167	2.05
271.546	2.42
271.925	2.14
272.304	2.24
272.683	2.07
273.062	1.81
273.441	2.3
273.82	2.07
274.199	2.16
274.578	2.38
274.957	2.03
275.336	2.2
275.715	2.62
276.093	2.25
276.472	2.14
276.851	2.3
277.229	2.25
277.608	2.23
277.986	2.24
278.365	1.92
278.743	2.34
279.122	2.04
279.5	1.99
279.878	2.21
280.257	2.3
280.635	2.55
281.013	2.06
281.391	2.12
281.769	2.41
282.147	2.73
282.525	2.18
282.903	1.73
283.281	1.98
283.659	2.32
284.037	2.39
284.415	2.36
284.792	2.81
285.17	2.56
285.548	2.05
285.925	2.1
286.303	2.47
286.68	2.02
287.058	2.34
287.435	2.31
287.813	2.58
288.19	2.12
288.567	1.97
288.945	2.38
289.322	2.77
289.699	1.86
290.076	1.82
290.453	2.6
290.83	2.63
291.207	2.26
291.584	1.66
291.961	2.52
292.338	2.35
292.715	2.2
293.092	2.34
293.469	2.67
293.845	2.3
294.222	2.58
294.599	2.18
294.975	2.14
295.352	2.73
295.728	2.85
296.105	2.57
296.481	2.35
296.858	2.17
297.234	2.46
297.61	2.73
297.986	2.57
298.363	2.35
298.739	2.15
299.115	2.76
299.491	2.77
299.867	2.43
300.243	2.67
300.619	3.01
300.995	2.32
301.371	2.81
301.746	2.43
302.122	3.28
302.498	2.68
302.874	2.91
303.249	3.22
303.625	2.89
304	3.31
304.376	2.78
304.751	3.1
305.127	2.82
305.502	3.23
305.878	3.02
306.253	3.07
306.628	2.89
307.003	3.01
307.378	3.32
307.754	3.63
308.129	3.85
308.504	3.35
308.879	3.36
309.254	3.56
309.629	3.04
310.003	3.38
310.378	3.37
310.753	3.24
311.128	3.36
311.502	2.96
311.877	3.19
312.252	3.1
312.626	3.43
313.001	3.47
313.375	3.89
313.75	3.46
314.124	3.26
314.498	3.17
314.873	4.49
315.247	3.79
315.621	3.88
315.995	3.21
316.369	3.91
316.743	4.08
317.117	3.62
317.491	3.83
317.865	3.79
318.239	3.86
318.613	3.61
318.987	3.72
319.361	3.54
319.734	4.22
320.108	3.94
320.482	4.69
320.855	4.05
321.229	4.56
321.602	5.08
321.976	4.84
322.349	4.38
322.723	4.22
323.096	3.75
323.469	4.29
323.843	4.87
324.216	4.78
324.589	4.15
324.962	3.72
325.335	5.12
325.708	4.73
326.081	4.63
326.454	5.01
326.827	4.14
327.2	4.27
327.573	4.76
327.945	4.84
328.318	4.1
328.691	4.7
329.063	4.42
329.436	4.37
329.809	4.14
330.181	5.2
330.553	4.63
330.926	4.71
331.298	4.44
331.671	4.43
332.043	4.44
332.415	4.81
332.787	4.76
333.159	4.71
333.532	5.17
333.904	4.71
334.276	4.96
334.648	4.73
335.02	5.29
335.391	5.06
335.763	4.96
336.135	4.7
336.507	4.82
336.879	5.4
337.25	4.72
337.622	5.31
337.993	5.62
338.365	5.6
338.736	5.32
339.108	5.04
339.479	5
339.851	5.47
340.222	5.04
340.593	5.16
340.964	5.62
341.336	5.47
341.707	5.38
342.078	5.82
342.449	5.79
342.82	5.35
343.191	5.43
343.562	5.82
343.933	5.66
344.303	5.75
344.674	5.41
345.045	6.18
345.416	6.01
345.786	5.83
346.157	5.7
346.527	5.6
346.898	5.34
347.268	6.1
347.639	5.39
348.009	5.93
348.38	6.1
348.75	5.62
349.12	6.03
349.49	5.86
349.861	6.13
350.231	5.58
350.601	6.24
350.971	6.05
351.341	5.98
351.711	5.95
352.081	5.93
352.45	6.4
352.82	6.43
353.19	6.05
353.56	6.14
353.929	6.47
354.299	6.2
354.669	6.44
355.038	6.22
355.408	6.57
355.777	6.18
356.147	6.59
356.516	6.37
356.885	6.1
357.254	6.31
357.624	6.2
357.993	6.35
358.362	6.22
358.731	6.67
359.1	6.55
359.469	6.5
359.838	6.36
360.207	6.59
360.576	6.51
360.945	6.53
361.314	6.52
361.682	6.45
362.051	6.78
362.42	6.85
362.788	7.02
363.157	6.78
363.525	6.83
363.894	6.88
364.262	6.79
364.631	7.26
364.999	6.93
365.367	6.94
365.735	7.21
366.104	7.12
366.472	7.24
366.84	7.15
367.208	7.22
367.576	6.88
367.944	7.03
368.312	6.81
368.68	7.48
369.048	7.62
369.416	7.58
369.783	7.2
370.151	7.49
370.519	7.27
370.886	7.5
371.254	7.71
371.621	7.6
371.989	7.67
372.356	7.84
372.724	7.71
373.091	7.47
373.458	7.51
373.826	7.73
374.193	7.73
374.56	7.41
374.927	7.54
375.294	7.84
375.661	7.71
376.028	8.24
376.395	7.35
376.762	8.12
377.129	7.64
377.496	7.69
377.863	7.79
378.229	8.18
378.596	7.86
378.963	7.98
379.329	8
379.696	8.08
380.062	8.13
380.429	7.97
380.795	8.54
381.161	8.39
381.528	8.4
381.894	8.29
382.26	8.62
382.626	8.52
382.993	8.63
383.359	8.65
383.725	8.48
384.091	8.69
384.457	8.22
384.823	8.36
385.188	8.48
385.554	8.17
385.92	8.74
386.286	8.79
386.651	8.7
387.017	8.75
387.383	8.51
387.748	8.81
388.114	8.62
388.479	9.16
388.845	8.91
389.21	9.07
389.575	9.14
389.94	9.14
390.306	9.24
390.671	9.26
391.036	9.06
391.401	9.29
391.766	9.41
392.131	9.52
392.496	8.96
392.861	9.41
393.226	9.36
393.591	9.33
393.956	9.33
394.32	9.76
394.685	9.25
395.05	9.64
395.414	9.61
395.779	9.65
396.143	9.55
396.508	9.67
396.872	9.67
397.236	9.7
397.601	9.65
397.965	9.68
398.329	9.65
398.694	10.21
399.058	9.94
399.422	9.92
399.786	10.02
400.15	10.09
400.514	9.97
400.878	10.26
401.242	10.05
401.605	9.96
401.969	10.02
402.333	9.98
402.697	10.12
403.06	10.09
403.424	10.33
403.787	10.1
404.151	10.16
404.514	9.98
404.878	10.13
405.241	10.08
405.604	10.53
405.968	10.17
406.331	10.28
406.694	10.31
407.057	10.41
407.42	10.43
407.783	10.47
408.146	10.97
408.509	10.64
408.872	10.77
409.235	10.67
409.598	10.74
409.961	10.79
410.323	10.82
410.686	10.78
411.049	10.67
411.411	10.74
411.774	10.95
412.136	10.77
412.499	10.83
412.861	10.98
413.223	10.93
413.586	10.91
413.948	10.98
414.31	11.24
414.672	10.78
415.035	11.14
415.397	10.9
415.759	11.07
416.121	11.35
416.483	11.49
416.845	11.18
417.206	11.29
417.568	11.21
417.93	11.3
418.292	11.18
418.653	10.96
419.015	11.14
419.377	11.11
419.738	10.98
420.1	11.21
420.461	11.19
420.822	11.21
421.184	11.09
421.545	11.18
421.906	11.22
422.267	11.08
422.629	11.02
422.99	11.09
423.351	11.25
423.712	11.23
424.073	11.31
424.434	11.3
424.795	11.3
425.155	11.4
425.516	11.44
425.877	11.27
426.238	11.34
426.598	11.47
426.959	11.43
427.32	11.37
427.68	11.66
428.041	11.6
428.401	11.77
428.761	12.11
429.122	11.93
429.482	11.72
429.842	11.76
430.202	12.12
430.563	12.16
430.923	12.03
431.283	12.37
431.643	12.32
432.003	12.07
432.363	12.16
432.722	12.22
433.082	12.27
433.442	12.28
433.802	12.43
434.161	12.3
434.521	12.17
434.881	12.12
435.24	12.28
435.6	12.36
435.959	12.52
436.319	12.45
436.678	12.51
437.037	12.38
437.396	12.48
437.756	12.7
438.115	12.56
438.474	12.66
438.833	12.66
439.192	12.66
439.551	12.71
439.91	12.61
440.269	12.77
440.628	12.57
440.987	12.69
441.345	12.72
441.704	12.72
442.063	12.76
442.421	12.7
442.78	12.75
443.138	12.85
443.497	12.89
443.855	12.89
444.214	12.86
444.572	12.99
444.93	13.05
445.288	13.02
445.647	13.14
446.005	12.93
446.363	13.13
446.721	13.18
447.079	13.09
447.437	13.02
447.795	13.04
448.153	13.25
448.51	13.09
448.868	13.04
449.226	13.28
449.584	13.3
449.941	13.28
450.299	13.29
450.656	13.44
451.014	13.57
451.371	13.61
451.729	13.53
452.086	13.68
452.443	13.6
452.801	13.78
453.158	13.95
453.515	13.79
453.872	13.78
454.229	13.67
454.586	13.86
454.943	13.85
455.3	14.11
455.657	13.78
456.014	14.15
456.371	13.98
456.727	14.11
457.084	14.23
457.441	14.08
457.797	14.4
458.154	14.13
458.51	14.24
458.867	14.2
459.223	14.39
459.58	14.39
459.936	14.29
460.292	14.52
460.648	14.32
461.005	14.24
461.361	14.14
461.717	14.13
462.073	14.15
462.429	14.28
462.785	14.47
463.141	14.65
463.496	14.69
463.852	14.64
464.208	14.79
464.564	15.03
464.919	15.08
465.275	15
465.631	14.93
465.986	15.03
466.342	15.03
466.697	14.97
467.052	15.2
467.408	15.2
467.763	15.07
468.118	15.19
468.473	15.17
468.829	15.15
469.184	15.23
469.539	15.16
469.894	15.25
470.249	15.4
470.603	15.5
470.958	15.31
471.313	15.73
471.668	15.42
472.023	15.58
472.377	15.83
472.732	15.49
473.086	15.61
473.441	15.51
473.795	15.78
474.15	15.66
474.504	15.74
474.859	15.76
475.213	15.82
475.567	15.58
475.921	15.98
476.275	16.02
476.63	15.97
476.984	16.16
477.338	16.19
477.692	16.14
478.045	16.08
478.399	16.02
478.753	15.94
479.107	16.16
479.461	16.11
479.814	16.06
480.168	16.04
480.521	16.28
480.875	16.25
481.228	16.2
481.582	16.36
481.935	16.4
482.289	16.33
482.642	16.36
482.995	16.42
483.348	16.43
483.701	16.28
484.055	16.33
484.408	16.26
484.761	16.07
485.114	15.82
485.466	15.68
485.819	15.81
486.172	15.86
486.525	16.01
486.878	16.07
487.23	16.22
487.583	16.44
487.936	16.43
488.288	16.44
488.641	16.33
488.993	16.31
489.345	16.27
489.698	16.29
490.05	16.37
490.402	16.45
490.754	16.68
491.107	16.77
491.459	16.86
491.811	17.01
492.163	16.91
492.515	17
492.866	16.79
493.218	16.69
493.57	16.68
493.922	16.87
494.274	17.02
494.625	17.03
494.977	17.25
495.328	17.55
495.68	17.42
496.031	17.72
496.383	17.89
496.734	17.92
497.086	17.87
497.437	17.92
497.788	17.95
498.139	17.88
498.49	17.9
498.842	17.96
499.193	17.94
499.544	17.82
499.894	17.86
500.245	18.08
500.596	18.18
500.947	18.05
501.298	18.26
501.648	18.44
501.999	18.36
502.35	18.44
502.7	18.63
503.051	18.53
503.401	18.45
503.752	18.54
504.102	18.69
504.452	18.67
504.803	18.73
505.153	19.01
505.503	18.79
505.853	18.69
506.203	18.85
506.553	18.91
506.903	18.82
507.253	18.88
507.603	19.09
507.953	19.17
508.303	19.01
508.652	19.2
509.002	19.01
509.352	19.13
509.701	19.2
510.051	19.04
510.4	19.08
510.75	19.12
511.099	19.03
511.449	19.03
511.798	19.12
512.147	19.07
512.496	19.32
512.846	19.13
513.195	19.23
513.544	19.33
513.893	19.39
514.242	19.47
514.591	19.64
514.939	19.57
515.288	19.57
515.637	19.65
515.986	19.63
516.334	19.71
516.683	19.77
517.032	19.85
517.38	20
517.729	19.89
518.077	19.97
518.426	19.84
518.774	19.95
519.122	19.94
519.47	19.87
519.819	19.7
520.167	19.78
520.515	19.76
520.863	19.79
521.211	19.73
521.559	19.92
521.907	19.9
522.255	20.02
522.602	20.08
522.95	20.33
523.298	20.28
523.645	20.53
523.993	20.37
524.341	20.56
524.688	20.52
525.036	20.59
525.383	20.44
525.73	20.73
526.078	20.5
526.425	20.45
526.772	20.33
527.119	20.35
527.466	20.26
527.814	20.22
528.161	20.23
528.508	20.39
528.854	20.36
529.201	20.34
529.548	20.23
529.895	20.06
530.242	20.06
530.588	19.99
530.935	20.11
531.282	20.2
531.628	20.24
531.975	20.3
532.321	20.49
532.667	20.71
533.014	20.75
533.36	20.81
533.706	20.94
534.052	20.84
534.399	20.72
534.745	20.68
535.091	20.59
535.437	20.57
535.783	20.75
536.129	20.91
536.474	21.04
536.82	21.03
537.166	21.34
537.512	21.42
537.857	21.19
538.203	21.09
538.549	21.17
538.894	21.03
539.239	21.33
539.585	21.42
539.93	21.48
540.276	21.73
540.621	21.78
540.966	21.79
541.311	21.84
541.656	21.75
542.001	21.56
542.346	21.4
542.691	21.25
543.036	21.13
543.381	21.09
543.726	21.2
544.071	21.36
544.415	21.44
544.76	21.47
545.105	21.67
545.449	21.77
545.794	21.89
546.138	21.96
546.483	22.07
546.827	22.1
547.171	22.11
547.516	22.03
547.86	22.11
548.204	22.13
548.548	22.05
548.892	22.04
549.236	22.27
549.58	22.34
549.924	22.36
550.268	22.46
550.612	22.67
550.956	22.68
551.3	22.57
551.643	22.92
551.987	22.78
552.33	22.79
552.674	22.83
553.017	22.92
553.361	22.86
553.704	23.05
554.048	22.97
554.391	23.08
554.734	22.99
555.077	23.06
555.42	23.04
555.764	23.04
556.107	23.24
556.45	23.07
556.793	23.3
557.135	23.28
557.478	23.15
557.821	23.02
558.164	23.59
558.507	23.4
558.849	23.4
559.192	23.46
559.534	23.55
559.877	23.31
560.219	23.35
560.562	23.63
560.904	23.52
561.246	23.73
561.589	23.59
561.931	23.68
562.273	23.71
562.615	23.8
562.957	23.72
563.299	23.65
563.641	23.62
563.983	23.89
564.325	23.88
564.667	23.7
565.008	23.86
565.35	23.9
565.692	23.82
566.033	24.04
566.375	23.81
566.716	23.8
567.058	23.98
567.399	24.08
567.741	23.98
568.082	23.93
568.423	23.75
568.764	23.8
569.105	24.06
569.447	24.16
569.788	24.24
570.129	24.37
570.47	24.4
570.811	24.28
571.151	24.43
571.492	24.24
571.833	24.44
572.174	24.43
572.514	24.54
572.855	24.33
573.195	24.4
573.536	24.41
573.876	24.34
574.217	24.14
574.557	24.38
574.898	24.41
575.238	24.53
575.578	24.54
575.918	24.58
576.258	24.59
576.598	24.63
576.938	24.57
577.278	24.59
577.618	24.64
577.958	24.71
578.298	24.6
578.638	24.76
578.977	24.85
579.317	25.11
579.657	24.99
579.996	25
580.336	25
580.675	24.9
581.014	25.05
581.354	24.88
581.693	24.94
582.032	25.17
582.372	25.4
582.711	25.42
583.05	25.37
583.389	25.2
583.728	25.35
584.067	25.22
584.406	25.09
584.745	25.75
585.083	25.4
585.422	25.61
585.761	25.31
586.1	25.41
586.438	25.65
586.777	25.74
587.115	25.6
587.454	25.61
587.792	25.75
588.13	25.82
588.469	25.66
588.807	25.62
589.145	25.51
589.483	26.01
589.821	25.81
590.159	25.49
590.497	25.59
590.835	25.67
591.173	25.7
591.511	26.08
591.849	25.77
592.187	25.9
592.524	25.59
592.862	26
593.2	25.72
593.537	25.79
593.875	26.18
594.212	26.22
594.55	25.74
594.887	26.4
595.224	26.19
595.561	26.27
595.899	26.19
596.236	26.3
596.573	26.11
596.91	26.12
597.247	25.87
597.584	26.23
597.921	26.16
598.258	25.9
598.594	25.97
598.931	26.05
599.268	26.08
599.604	25.92
599.941	26.22
600.277	26.19
600.614	26.43
600.95	26.33
601.287	26.59
601.623	26.46
601.959	26.8
602.296	26.49
602.632	26.48
602.968	26.59
603.304	26.68
603.64	26.35
603.976	26.46
604.312	26.53
604.648	26.72
604.984	26.73
605.319	26.49
605.655	26.62
605.991	26.34
606.326	26.54
606.662	26.79
606.998	26.61
607.333	26.68
607.668	26.79
608.004	26.79
608.339	26.94
608.674	26.95
609.01	26.81
609.345	27.1
609.68	27.19
610.015	26.94
610.35	27.02
610.685	27.01
611.02	27.01
611.355	27
611.689	26.83
612.024	26.96
612.359	27.22
612.694	26.89
613.028	27.07
613.363	27.08
613.697	27.38
614.032	27.39
614.366	27.54
614.7	27.36
615.035	27.52
615.369	27.27
615.703	27.36
616.037	27.54
616.371	27.36
616.705	27.36
617.039	27.89
617.373	27.41
617.707	27.93
618.041	27.49
618.375	27.58
618.709	27.58
619.042	27.68
619.376	27.75
619.71	27.81
620.043	27.58
620.377	27.58
620.71	28.34
621.043	28
621.377	27.97
621.71	27.7
622.043	27.89
622.376	28.06
622.709	28.25
623.043	27.99
623.376	27.8
623.709	27.47
624.041	28.2
624.374	27.87
624.707	28.58
625.04	28.28
625.373	27.99
625.705	28.34
626.038	28.22
626.37	28.35
626.703	28.26
627.035	28.27
627.368	28.31
627.7	28.84
628.032	27.91
628.365	28.4
628.697	28.47
629.029	28.43
629.361	28.09
629.693	28.08
630.025	28.35
630.357	28.29
630.689	28.36
631.021	28.18
631.353	28.57
631.684	28.48
632.016	28.51
632.348	28.68
632.679	28.53
633.011	28.36
633.342	28.62
633.674	29.02
634.005	28.63
634.336	28.46
634.668	28.29
634.999	28.48
635.33	28.4
635.661	28.68
635.992	28.54
636.323	28.68
636.654	28.47
636.985	29.07
637.316	28.71
637.647	28.72
637.977	28.97
638.308	28.47
638.639	29.22
638.969	29.26
639.3	28.76
639.63	28.79
639.961	29.37
640.291	29.12
640.622	29.16
640.952	28.99
641.282	29.28
641.612	29.07
641.943	28.85
642.273	28.87
642.603	29.1
642.933	29
643.263	29.22
643.592	29.14
643.922	29.05
644.252	29.09
644.582	28.71
644.911	29.39
645.241	29.62
645.571	29.43
645.9	29.53
646.23	29.4
646.559	28.6
646.888	29.35
647.218	29.81
647.547	29.29
647.876	30.02
648.205	29.74
648.534	29.51
648.863	29.57
649.192	30.25
649.521	29.22
649.85	29.3
650.179	30.1
650.508	29.92
650.837	29.75
651.165	29.73
651.494	30.25
651.822	29.39
652.151	29.45
652.479	29.86
652.808	30.11
653.136	29.6
653.465	29.88
653.793	30.14
654.121	30
654.449	29.45
654.777	30.3
655.105	29.91
655.433	29.83
655.761	29.93
656.089	29.9
656.417	29.95
656.745	29.7
657.073	30.29
657.4	29.76
657.728	30.37
658.056	29.79
658.383	29.61
658.711	30.47
659.038	29.52
659.365	30.13
659.693	29.69
660.02	30.36
660.347	30.53
660.674	30.29
661.001	30.38
661.329	30.14
661.656	29.7
661.982	30.23
662.309	30.39
662.636	29.96
662.963	30.29
663.29	30.26
663.616	30.68
663.943	30.33
664.27	30.55
664.596	30.84
664.923	30.84
665.249	30.45
665.576	30.86
665.902	30.46
666.228	30.23
666.554	30.62
666.881	30.56
667.207	30.51
667.533	31.1
667.859	30.91
668.185	30.88
668.511	30.46
668.837	30.71
669.162	31.02
669.488	31.36
669.814	31.1
670.139	30.68
670.465	31.26
670.791	31.06
671.116	30.45
671.442	31.17
671.767	30.91
672.092	30.88
672.418	30.83
672.743	30.91
673.068	30.46
673.393	30.76
673.718	31.13
674.043	30.7
674.368	30.69
674.693	31.37
675.018	31.73
675.343	31.57
675.667	30.59
675.992	30.59
676.317	31.23
676.641	31.1
676.966	31.23
677.29	31.32
677.615	32.08
677.939	31.09
678.264	31.31
678.588	31.76
678.912	31.36
679.236	32.02
679.56	31.93
679.885	31.13
680.209	31.15
680.532	31.85
680.856	30.66
681.18	31.11
681.504	31.47
681.828	31.58
682.152	31.26
682.475	32.03
682.799	30.95
683.122	31.31
683.446	31.57
683.769	31.41
684.093	31.08
684.416	31.57
684.739	31.04
685.062	32.18
685.386	31.48
685.709	31.89
686.032	31.71
686.355	31.26
686.678	32.62
687.001	31.63
687.324	31.88
687.646	31.73
687.969	31.59
688.292	32.01
688.614	30.91
688.937	32.31
689.26	32.27
689.582	31.35
689.904	31.72
690.227	31.9
690.549	31.55
690.871	31.76
691.194	31.64
691.516	31.27
691.838	32.27
692.16	32.21
692.482	32.54
692.804	32.32
693.126	32.01
693.448	32.26
693.769	31.3
694.091	32.43
694.413	33.38
694.735	31.46
695.056	32.51
695.378	32.49
695.699	32.35
696.021	32.12
696.342	32.83
696.663	32.29
696.984	31.13
697.306	31.88
697.627	32.87
697.948	32.2
698.269	32.39
698.59	32.61
698.911	33.23
699.232	32.7
699.553	32.16
699.873	32.51
700.194	32.99
700.515	32.11
700.835	32.37
701.156	32.36
701.477	33.04
701.797	32
702.117	32.31
702.438	31.87
702.758	32.19
703.078	32.05
703.398	32.29
703.719	33.04
704.039	32.18
704.359	32.66
704.679	32.84
704.999	32.62
705.319	33.35
705.638	32.65
705.958	32.62
706.278	32.04
706.597	32.49
706.917	32.08
707.237	33.56
707.556	33.16
707.876	33.29
708.195	32.9
708.514	33.63
708.834	33.05
709.153	32.89
709.472	32.24
709.791	32.83
710.11	33.17
710.429	33.2
710.748	33.15
711.067	32.96
711.386	32.98
711.705	33.09
712.023	33.35
712.342	33.32
712.661	32.88
712.979	33.26
713.298	33.56
713.616	33.91
713.935	33.93
714.253	32.18
714.572	32.81
714.89	33.52
715.208	33.49
715.526	32.09
715.844	33.87
716.162	33.58
716.48	33.38
716.798	33.47
717.116	34.23
717.434	33.19
717.752	33.04
718.069	33.62
718.387	33.38
718.705	34.4
719.022	32.79
719.34	33.61
719.657	33.48
719.975	33.14
720.292	32.75
720.609	33.82
720.927	33.93
721.244	33.2
721.561	33.99
721.878	33.78
722.195	33.29
722.512	33.16
722.829	34.03
723.146	33.26
723.463	34.73
723.779	33.07
724.096	33.63
724.413	34.2
724.729	32.42
725.046	34.17
725.362	35.3
725.679	33.39
725.995	33.42
726.311	32.45
726.628	32.38
726.944	33.47
727.26	33.54
727.576	32.45
727.892	33.2
728.208	33.21
728.524	33.81
728.84	34.07
729.156	34.04
729.472	33.06
729.787	33.92
730.103	33.06
730.419	33.52
730.734	33.95
731.05	34.8
731.365	34.42
731.681	33.75
731.996	33.85
732.311	34.76
732.626	34.33
732.942	33.69
733.257	35.15
733.572	33.86
733.887	33.79
734.202	34.44
734.517	33.86
734.832	34.21
735.146	35.83
735.461	34.57
735.776	33.38
736.091	34.05
736.405	35.06
736.72	34.62
737.034	34.8
737.349	34.7
737.663	36
737.977	34.85
738.292	34.99
738.606	34.55
738.92	33.85
739.234	34.09
739.548	34.52
739.862	34.5
740.176	32.98
740.49	34.8
740.804	35.35
741.117	34.62
741.431	34.95
741.745	36.07
742.058	35.02
742.372	34.31
742.685	33.48
742.999	35
743.312	36.08
743.626	35.1
743.939	35.6
744.252	33.56
744.565	35.85
744.878	33.38
745.191	34.78
745.505	36.25
745.817	34.89
746.13	34.9
746.443	35.08
746.756	34.62
747.069	34.32
747.381	33.41
747.694	34.86
748.007	37.27
748.319	36.14
748.632	33.15
748.944	33.6
749.256	34.34
749.569	34.71
749.881	35.57
750.193	33.04
750.505	34.72
750.817	35.68
751.129	35.18
751.441	34.72
751.753	35.51
752.065	34.62
752.377	34.87
752.689	35.91
753	35.43
753.312	35.16
753.624	35.21
753.935	34.72
754.247	35.89
754.558	36.79
754.869	35.52
755.181	35.97
755.492	35.99
755.803	36.2
756.114	35.5
756.425	34.83
756.736	37.1
757.047	35.26
757.358	33.4
757.669	35
757.98	37.25
758.291	35.66
758.601	36.19
758.912	35.08
759.223	36.87
759.533	36.28
759.844	34.53
760.154	36.03
760.464	33.9
760.775	35.64
761.085	35.82
761.395	35.84
761.705	35.02
762.016	35
762.326	35.84
762.636	35.3
762.945	35.08
763.255	34.47
763.565	35.84
763.875	35.74
764.185	33.88
764.494	36.7
764.804	36.61
765.113	35.84
765.423	35.09
765.732	34.8
766.042	34.96
766.351	35.98
766.66	34.55
766.97	35.45
767.279	36.21
767.588	36.42
767.897	36.47
768.206	34.97
768.515	35.06
768.824	34.72
769.133	37
769.441	34.82
769.75	37.9
770.059	36.47
770.367	36.58
770.676	36.9
770.984	35.63
771.293	36.65
771.601	35.35
771.91	36.17
772.218	35.8
772.526	37.23
772.834	36.19
773.142	35.03
773.45	34.3
773.758	35.88
774.066	37.81
774.374	35.54
774.682	37.73
774.99	35.24
775.298	37.25
775.605	36.98
775.913	40.14
776.22	37.54
776.528	38.11
776.835	35.7
777.143	34.88
777.45	33.53
777.757	36.46
778.065	36.34
778.372	37.61
778.679	34.65
778.986	33.11
779.293	37.22
779.6	35.86
779.907	36.16
780.214	36.75
780.52	34.97
780.827	36.11
781.134	39.31
781.44	36.23
781.747	38.47
782.053	35.78
782.36	37.23
782.666	39.86
782.973	35.56
783.279	32.67
783.585	39.28
783.891	32.92
784.197	38.78
784.503	38.44
784.809	40.94
785.115	33.15
785.421	35.49
785.727	39.5
786.033	33.7
786.339	37.68
786.644	37.06
786.95	35.3
787.255	34.29
787.561	35.37
787.866	38.45
788.172	33.57
788.477	35.97
788.782	37.01
789.088	38.45
789.393	35.73
789.698	35.67
790.003	38.93
790.308	38.31
790.613	36.07
790.918	37.89
791.223	34.63
791.527	35.77
791.832	36.16
792.137	35.73
792.441	37.07
792.746	38.98
793.05	32.71
793.355	38.23
793.659	41.64
793.963	35.93
794.268	36.94
794.572	35.27
794.876	34.93
795.18	33.7
795.484	33.49
795.788	38.52
796.092	39.52
796.396	34.56
796.7	43.5
797.004	40.62
797.307	38.93
797.611	35.44
797.915	33.9
798.218	35.53
798.522	39.39
798.825	40
799.128	36.27
799.432	38.88
799.735	35.8
800.038	36.96
800.341	35.38
800.644	37.43
800.947	37.83
801.25	35.52
801.553	41.61
801.856	39.1
802.159	30.92
802.462	35.33
802.764	37.1
803.067	34.5
803.37	38.38
803.672	37.61
803.975	37.33
804.277	33.28
804.579	40.56
804.882	38.99
805.184	36.86
805.486	39.34
805.788	36.08
806.09	33.8
806.392	43.65
806.694	35.66
806.996	40.53
807.298	37.51
807.6	37.51
807.902	39.08
808.203	34.37
808.505	38.1
808.807	36.6
809.108	40.95
809.409	32.95
809.711	36.52
810.012	37.28
810.313	33.62
810.615	38.45
810.916	38.7
811.217	36.9
811.518	39.42
811.819	35.91
812.12	37.04
812.421	37.46
812.722	36.41
813.023	37.14
813.323	34.47
813.624	42.25
813.925	29.92
814.225	37.23
814.526	34.83
814.826	39.87
815.126	41.78
815.427	38.55
815.727	41.71
816.027	42.73
816.327	39.07
816.627	34.49
816.927	40.85
817.227	32.3
817.527	41.71
817.827	36.65
818.127	39.68
818.427	38.43
818.727	33.66
819.026	36.65
819.326	35.93
819.625	38.89
819.925	33.38
820.224	37.07
820.524	43.21
820.823	35.66
821.122	38.62
821.421	37.46
821.72	39.35
822.019	38.4
822.318	38.54
822.617	42.01
822.916	38.01
823.215	35.8
823.514	39.44
823.813	39.13
824.111	37.15
824.41	38.59
824.709	38.7
825.007	37.92
825.306	38.55
825.604	39.49
825.902	38.7
826.201	38.44
826.499	38.45
826.797	38.49
827.095	38.17
827.393	38.91
827.691	37.57
827.989	38.16
828.287	40.9
828.585	37.57
828.882	39.17
829.18	39.24
829.478	40.31
829.775	38.68
830.073	37.76
830.37	37.7
830.668	38.18
830.965	36.89
831.263	36.57
831.56	38.11
831.857	43.88
832.154	37.06
832.451	37.57
832.748	35.47
833.045	35.43
833.342	38.32
833.639	39.97
833.936	35.04
834.232	45.39
834.529	37.9
834.826	39.98
835.122	35.17
835.419	39.89
835.715	34.77
836.012	37.88
836.308	37.09
836.604	37.65
836.901	40.51
837.197	41.98
837.493	38.96
837.789	38.31
838.085	36.52
838.381	39.56
838.677	41.48
838.972	37.43
839.268	40.71
839.564	40.85
839.86	37.57
840.155	37.42
840.451	41.8
840.746	32.3
841.042	37.67
841.337	36.33
841.632	36.26
841.928	44.37
842.223	34.74
842.518	31.06
842.813	30.63
843.108	44
843.403	42.77
843.698	36.11
843.993	35.9
844.287	35.3
844.582	26.92
844.877	38.4
845.171	50.15
845.466	28.06
845.761	34.48
846.055	38.18
846.349	29.75
846.644	48.77
846.938	27.34
847.232	36.24
847.526	42.52
847.82	40.6
848.114	40.25
848.408	37.01
848.702	36.81
848.996	39.12
849.29	30.32
849.584	37.16
849.877	33.58
850.171	39.83
850.465	35.25
850.758	38.36
851.052	32.98
851.345	47.18
851.638	37
851.932	24.03
852.225	51.49
852.518	35.04
852.811	21.63
853.104	36.53
853.397	33.22
853.69	40.03
853.983	36.82
854.276	37.8
854.569	39.53
854.861	27.03
855.154	27.21
855.447	58.89
855.739	44.79
856.032	61.73
856.324	48.34
856.616	39.09
856.909	35.41
857.201	22.12
857.493	43.91
857.785	29.02
858.077	38.93
858.369	33.39
858.661	51.39
858.953	13.56
859.245	23.94
859.537	65.96
859.829	27.99
860.12	53.41
860.412	32.49
860.703	54.7
860.995	32.48
861.286	23.93
861.578	35.47
861.869	20.25
862.16	27.78
862.452	35.64
862.743	36.32
863.034	69.76
863.325	27.66
863.616	13.98
863.907	43.15
864.198	60.33
864.488	45.71
864.779	27.71
865.07	32.09
865.36	40.55
865.651	17.36
865.941	41.53
866.232	26.22
866.522	32.85
866.813	45.11
867.103	30.66
867.393	46.84
867.683	46.15
867.973	16.47
868.263	19.26
868.553	56.04
868.843	48.7
869.133	40.08
869.423	37.46
869.713	39.33
870.002	30.91
870.292	23.6
870.582	58.41
870.871	61.18
871.161	55.2
871.45	49.64
871.739	44.39
872.029	46.69
872.318	37.55
872.607	13.3
872.896	22.16
873.185	22.9
873.474	48.25
873.763	97.11
874.052	33.54
874.341	19.18
874.63	27.43
874.918	60.72
875.207	39.84
875.496	40.09
875.784	48.3
876.073	44.37
876.361	26.65
876.649	20.08
876.938	34.54
877.226	46.59
877.514	24.79
877.802	22.63
878.09	26.71
878.378	41.92
878.666	9.77
878.954	52.2
879.242	61.74
879.53	28.18
879.817	54.65
880.105	42.24
880.392	5.11
880.68	24.19
880.967	37.85
881.255	48.96
881.542	47.98
881.83	45.01
882.117	32.18
882.404	45.22
882.691	9.3
882.978	41.73
883.265	51.26
883.552	37.47
883.839	31.94
884.126	23.92
884.413	43.98
884.699	41.96
884.986	42.15
885.273	42.66
885.559	42.66
885.846	42.66
