Data from 815646_forehead_Reflection__3__63.txt Node

Date: Fri Sep 16 15:01:09 CDT 2022
User: ToomeyLab
Spectrometer: FLMS14357
Trigger mode: 0
Integration Time (sec): 1.000000E-2
Scans to average: 100
Electric dark correction enabled: true
Nonlinearity correction enabled: false
Boxcar width: 0
XAxis mode: Wavelengths
Number of Pixels in Spectrum: 2048
>>>>>Begin Spectral Data<<<<<
189.047	-49.86
189.435	-49.86
189.823	-49.86
190.211	149.1
190.599	2.52
190.987	97.29
191.375	167.91
191.763	616.77
192.151	-423.67
192.538	-91.34
192.926	208.28
193.314	-11.09
193.702	574.55
194.089	132.18
194.477	386.01
194.864	-76.7
195.252	14.97
195.639	110.97
196.027	32.03
196.414	61.91
196.801	-158.29
197.189	267.44
197.576	220.55
197.963	-189.61
198.351	-35.25
198.738	32.1
199.125	36.88
199.512	-85.46
199.899	24.85
200.286	49.5
200.673	4.57
201.06	15.8
201.447	49.86
201.833	5.7
202.22	-11.36
202.607	-37.99
202.994	41.14
203.38	-10.07
203.767	49.35
204.154	21.02
204.54	-4.75
204.927	-14.58
205.313	36.93
205.699	50.84
206.086	36.87
206.472	32.09
206.858	-2.19
207.245	-11.64
207.631	26.77
208.017	14.14
208.403	-28.34
208.789	-9.15
209.175	12.82
209.561	-20.19
209.947	-7.91
210.333	0.43
210.719	-10.98
211.105	26.96
211.491	23.05
211.876	17.95
212.262	15.94
212.648	4.64
213.034	-14.71
213.419	-18.27
213.805	4.22
214.19	23.68
214.576	1.92
214.961	1.81
215.346	-36.62
215.732	-12.92
216.117	11.89
216.502	3.82
216.888	-8.48
217.273	9.84
217.658	3.03
218.043	-49.82
218.428	15.99
218.813	15.5
219.198	-4.83
219.583	25.77
219.968	-1.68
220.353	12.88
220.738	5.92
221.122	-4.8
221.507	10.95
221.892	-5.88
222.276	8.28
222.661	6.64
223.046	8.61
223.43	3.33
223.815	-0.16
224.199	4.17
224.583	4.02
224.968	9.8
225.352	4.54
225.736	15.43
226.121	7.43
226.505	11.67
226.889	4.83
227.273	9.64
227.657	7.3
228.041	7.07
228.425	-1.77
228.809	6.56
229.193	1.79
229.577	5.66
229.961	3.17
230.344	3.79
230.728	3.1
231.112	2.41
231.495	1.78
231.879	3.75
232.263	2.22
232.646	2.22
233.03	3.81
233.413	4.23
233.797	2.81
234.18	3.51
234.563	0.69
234.946	0.77
235.33	3.21
235.713	2.58
236.096	2.23
236.479	2.88
236.862	2.35
237.245	1.62
237.628	5.27
238.011	2.97
238.394	3.76
238.777	5.13
239.16	3.3
239.543	3.71
239.925	3.87
240.308	2.71
240.691	2.85
241.073	4.21
241.456	3.52
241.838	3.25
242.221	2.98
242.603	2.7
242.986	2.44
243.368	2.84
243.75	2.71
244.133	3.08
244.515	2.33
244.897	2.89
245.279	2.86
245.661	2.64
246.043	2.99
246.425	2.87
246.807	2.61
247.189	2.58
247.571	2.3
247.953	2.61
248.335	2.81
248.717	2.71
249.098	2.79
249.48	2.72
249.862	2.59
250.243	2.94
250.625	3.05
251.006	2.24
251.388	3.29
251.769	2.29
252.151	3.16
252.532	2.42
252.913	3.25
253.295	3.07
253.676	3.25
254.057	2.67
254.438	2.2
254.819	2.09
255.2	2.71
255.581	3.28
255.962	1.98
256.343	3.14
256.724	2.4
257.105	1.85
257.486	3.3
257.867	1.97
258.247	2.77
258.628	2.25
259.009	2.5
259.389	2.94
259.77	2.12
260.15	2.77
260.531	2.68
260.911	2.73
261.292	2.4
261.672	2.61
262.052	2.43
262.432	2.45
262.813	3.29
263.193	2.85
263.573	3.32
263.953	2.52
264.333	2.34
264.713	2.33
265.093	2.79
265.473	2.69
265.853	2.74
266.233	3.04
266.612	2.95
266.992	2.05
267.372	1.97
267.752	2.86
268.131	2.48
268.511	3.05
268.89	2.84
269.27	2.16
269.649	2.67
270.029	2.56
270.408	2.62
270.787	2.49
271.167	1.93
271.546	3.07
271.925	2.6
272.304	2.55
272.683	2.59
273.062	2.26
273.441	2.56
273.82	2.46
274.199	2.41
274.578	2.83
274.957	2.66
275.336	2.48
275.715	2.39
276.093	2.52
276.472	2.65
276.851	2.54
277.229	2.17
277.608	2.95
277.986	2.86
278.365	1.52
278.743	2.91
279.122	2.68
279.5	2.01
279.878	2.38
280.257	3.22
280.635	3.04
281.013	2.42
281.391	2.59
281.769	2.83
282.147	3.04
282.525	2.09
282.903	2.33
283.281	2.23
283.659	2.67
284.037	2.6
284.415	3.25
284.792	2.64
285.17	3.09
285.548	2.42
285.925	2.45
286.303	2.85
286.68	2.4
287.058	2.33
287.435	2.25
287.813	2.86
288.19	2.43
288.567	2.37
288.945	2.48
289.322	2.87
289.699	2.18
290.076	2.37
290.453	2.79
290.83	2.93
291.207	2.38
291.584	2.35
291.961	2.65
292.338	2.66
292.715	2.47
293.092	2.59
293.469	2.85
293.845	2.35
294.222	2.51
294.599	2.84
294.975	2.28
295.352	3.12
295.728	2.83
296.105	2.89
296.481	2.8
296.858	2.94
297.234	2.77
297.61	3.16
297.986	2.87
298.363	2.64
298.739	2.75
299.115	3.28
299.491	3.12
299.867	2.83
300.243	3.06
300.619	2.82
300.995	3.11
301.371	3.28
301.746	2.98
302.122	3.41
302.498	3
302.874	3.34
303.249	3.2
303.625	3.19
304	3.59
304.376	2.84
304.751	3.36
305.127	3.1
305.502	3.69
305.878	3.26
306.253	3.32
306.628	2.93
307.003	3.58
307.378	3.43
307.754	4.11
308.129	3.96
308.504	3.78
308.879	3.77
309.254	3.58
309.629	3.13
310.003	3.68
310.378	3.42
310.753	3.5
311.128	3.67
311.502	3.34
311.877	3.69
312.252	3.69
312.626	3.81
313.001	3.63
313.375	3.81
313.75	3.8
314.124	4.18
314.498	3.41
314.873	4.47
315.247	3.82
315.621	3.82
315.995	3.51
316.369	4.27
316.743	3.93
317.117	4.06
317.491	3.62
317.865	4.57
318.239	4.26
318.613	3.92
318.987	4.28
319.361	4.03
319.734	4.29
320.108	4.27
320.482	4.53
320.855	3.66
321.229	4.3
321.602	5.22
321.976	4.6
322.349	4.63
322.723	4.52
323.096	4.55
323.469	4.69
323.843	4.95
324.216	5.22
324.589	5.16
324.962	4.53
325.335	5.11
325.708	5.08
326.081	4.84
326.454	4.54
326.827	4.97
327.2	4.8
327.573	4.37
327.945	4.78
328.318	4.7
328.691	5.04
329.063	4.95
329.436	4.61
329.809	4.99
330.181	5.46
330.553	5.11
330.926	5.36
331.298	5.14
331.671	4.95
332.043	5.15
332.415	5.11
332.787	4.88
333.159	5.39
333.532	5.97
333.904	5.24
334.276	5.71
334.648	5.31
335.02	5.13
335.391	5.65
335.763	5.31
336.135	4.65
336.507	5.55
336.879	5.23
337.25	5.29
337.622	5.93
337.993	5.69
338.365	5.51
338.736	6.04
339.108	5.69
339.479	6.29
339.851	5.41
340.222	5.62
340.593	5.77
340.964	6.22
341.336	5.88
341.707	5.66
342.078	6.57
342.449	5.26
342.82	5.53
343.191	5.99
343.562	6.15
343.933	5.98
344.303	6.32
344.674	5.5
345.045	6.66
345.416	6.11
345.786	6.47
346.157	6.12
346.527	6.25
346.898	6.3
347.268	6.12
347.639	6
348.009	6.03
348.38	6.35
348.75	6.06
349.12	6.75
349.49	6.43
349.861	6.5
350.231	6.03
350.601	6.54
350.971	6.51
351.341	6.58
351.711	6.12
352.081	6.47
352.45	6.64
352.82	6.83
353.19	6.41
353.56	6.76
353.929	6.99
354.299	6.58
354.669	6.58
355.038	6.81
355.408	7.01
355.777	6.54
356.147	6.99
356.516	6.8
356.885	6.71
357.254	6.81
357.624	6.68
357.993	6.77
358.362	6.62
358.731	7.27
359.1	6.97
359.469	6.88
359.838	6.83
360.207	7.36
360.576	7.07
360.945	6.96
361.314	7.26
361.682	6.66
362.051	7.22
362.42	7.46
362.788	7.45
363.157	7.27
363.525	7.24
363.894	7.33
364.262	7.03
364.631	7.4
364.999	7.29
365.367	7.34
365.735	7.9
366.104	7.7
366.472	7.72
366.84	7.68
367.208	7.73
367.576	7.79
367.944	7.82
368.312	7.17
368.68	7.9
369.048	7.95
369.416	7.79
369.783	7.96
370.151	8.02
370.519	7.71
370.886	7.99
371.254	7.83
371.621	8.37
371.989	7.82
372.356	7.85
372.724	8.44
373.091	7.9
373.458	8.06
373.826	7.95
374.193	8.46
374.56	7.94
374.927	8.21
375.294	8.43
375.661	8.24
376.028	8.45
376.395	8.16
376.762	8.93
377.129	8.26
377.496	8.69
377.863	8.43
378.229	8.68
378.596	8.22
378.963	8.71
379.329	8.49
379.696	8.86
380.062	8.67
380.429	8.83
380.795	8.77
381.161	8.84
381.528	8.89
381.894	9.05
382.26	9.1
382.626	8.81
382.993	9.08
383.359	8.74
383.725	9.02
384.091	9.1
384.457	8.76
384.823	9.02
385.188	8.95
385.554	8.83
385.92	9.18
386.286	8.93
386.651	9.2
387.017	9.51
387.383	9.08
387.748	9.1
388.114	8.85
388.479	9.16
388.845	9.48
389.21	9.53
389.575	9.36
389.94	9.63
390.306	9.45
390.671	9.63
391.036	9.44
391.401	9.89
391.766	9.76
392.131	9.69
392.496	9.47
392.861	9.77
393.226	9.95
393.591	9.94
393.956	9.89
394.32	10.13
394.685	9.88
395.05	10.1
395.414	9.81
395.779	9.87
396.143	9.99
396.508	10.01
396.872	10.16
397.236	9.95
397.601	10.17
397.965	9.92
398.329	9.75
398.694	10.24
399.058	10.57
399.422	10
399.786	10.5
400.15	10.63
400.514	10.43
400.878	10.56
401.242	10.39
401.605	10.45
401.969	10.36
402.333	10.53
402.697	10.38
403.06	10.73
403.424	10.59
403.787	10.5
404.151	10.7
404.514	10.84
404.878	10.79
405.241	10.53
405.604	10.72
405.968	10.78
406.331	10.78
406.694	10.87
407.057	10.81
407.42	10.88
407.783	10.83
408.146	11.15
408.509	11.07
408.872	11.37
409.235	11.31
409.598	10.77
409.961	11.05
410.323	11.39
410.686	11.47
411.049	11.01
411.411	11.04
411.774	11.34
412.136	11.17
412.499	11.54
412.861	11.48
413.223	11.26
413.586	11.52
413.948	11.73
414.31	11.7
414.672	11.58
415.035	11.57
415.397	11.53
415.759	11.66
416.121	11.72
416.483	11.71
416.845	11.72
417.206	11.53
417.568	11.81
417.93	11.98
418.292	11.71
418.653	11.63
419.015	11.79
419.377	11.8
419.738	11.77
420.1	11.79
420.461	11.87
420.822	11.73
421.184	11.89
421.545	11.79
421.906	11.94
422.267	11.93
422.629	11.76
422.99	11.84
423.351	11.95
423.712	11.84
424.073	11.97
424.434	11.98
424.795	12.16
425.155	12.13
425.516	12.18
425.877	12.11
426.238	12.26
426.598	12.17
426.959	12.12
427.32	12.35
427.68	12.59
428.041	12.5
428.401	12.66
428.761	12.97
429.122	12.72
429.482	12.67
429.842	12.86
430.202	12.89
430.563	12.89
430.923	12.93
431.283	13.18
431.643	13.03
432.003	12.93
432.363	13.08
432.722	13.1
433.082	13.09
433.442	13.28
433.802	13.32
434.161	13.18
434.521	13.25
434.881	13.1
435.24	13.28
435.6	13.11
435.959	13.42
436.319	13.28
436.678	13.52
437.037	13.38
437.396	13.7
437.756	13.66
438.115	13.54
438.474	13.72
438.833	13.76
439.192	13.75
439.551	13.58
439.91	13.69
440.269	13.85
440.628	13.85
440.987	13.77
441.345	13.71
441.704	13.85
442.063	13.83
442.421	13.83
442.78	13.9
443.138	13.97
443.497	13.93
443.855	14.06
444.214	14.1
444.572	14.08
444.93	14.13
445.288	14.05
445.647	14.2
446.005	14.21
446.363	14.38
446.721	14.24
447.079	14.17
447.437	14.23
447.795	14.17
448.153	14.21
448.51	14.2
448.868	14.25
449.226	14.22
449.584	14.43
449.941	14.57
450.299	14.45
450.656	14.54
451.014	14.63
451.371	14.86
451.729	14.87
452.086	14.78
452.443	14.89
452.801	14.95
453.158	15
453.515	14.87
453.872	14.87
454.229	14.93
454.586	14.94
454.943	15.01
455.3	15.13
455.657	15
456.014	15.33
456.371	15.23
456.727	15.26
457.084	15.36
457.441	15.32
457.797	15.33
458.154	15.31
458.51	15.46
458.867	15.39
459.223	15.55
459.58	15.65
459.936	15.78
460.292	15.6
460.648	15.4
461.005	15.59
461.361	15.38
461.717	15.45
462.073	15.34
462.429	15.48
462.785	15.58
463.141	15.7
463.496	15.8
463.852	15.89
464.208	16.08
464.564	16.12
464.919	15.94
465.275	16.1
465.631	16.13
465.986	15.94
466.342	16.1
466.697	16.22
467.052	16.23
467.408	16.3
467.763	16.34
468.118	16.4
468.473	16.33
468.829	16.48
469.184	16.39
469.539	16.45
469.894	16.38
470.249	16.52
470.603	16.51
470.958	16.49
471.313	16.74
471.668	16.59
472.023	16.62
472.377	16.77
472.732	16.95
473.086	16.84
473.441	16.7
473.795	16.95
474.15	17
474.504	16.9
474.859	17.01
475.213	16.91
475.567	16.72
475.921	17.09
476.275	17.09
476.63	17.2
476.984	17.27
477.338	17.32
477.692	17.25
478.045	17.23
478.399	17.2
478.753	17.18
479.107	17.07
479.461	17.28
479.814	17.27
480.168	17.2
480.521	17.38
480.875	17.42
481.228	17.5
481.582	17.47
481.935	17.51
482.289	17.53
482.642	17.51
482.995	17.52
483.348	17.4
483.701	17.48
484.055	17.33
484.408	17.33
484.761	17.2
485.114	16.97
485.466	16.8
485.819	16.81
486.172	16.83
486.525	16.97
486.878	16.95
487.23	17.15
487.583	17.25
487.936	17.47
488.288	17.37
488.641	17.37
488.993	17.26
489.345	17.2
489.698	17.3
490.05	17.24
490.402	17.29
490.754	17.48
491.107	17.72
491.459	17.84
491.811	17.83
492.163	17.92
492.515	17.9
492.866	17.79
493.218	17.7
493.57	17.59
493.922	17.73
494.274	17.82
494.625	17.88
494.977	18.06
495.328	18.2
495.68	18.36
496.031	18.63
496.383	18.76
496.734	18.75
497.086	18.76
497.437	18.73
497.788	18.82
498.139	18.63
498.49	18.66
498.842	18.78
499.193	18.79
499.544	18.88
499.894	18.73
500.245	18.88
500.596	18.98
500.947	18.99
501.298	18.92
501.648	19.16
501.999	19.34
502.35	19.28
502.7	19.23
503.051	19.43
503.401	19.05
503.752	19.53
504.102	19.52
504.452	19.58
504.803	19.56
505.153	19.67
505.503	19.59
505.853	19.52
506.203	19.54
506.553	19.41
506.903	19.54
507.253	19.57
507.603	19.8
507.953	19.71
508.303	19.67
508.652	19.88
509.002	19.9
509.352	19.85
509.701	19.79
510.051	19.83
510.4	19.76
510.75	19.87
511.099	19.73
511.449	19.74
511.798	19.8
512.147	19.8
512.496	19.93
512.846	19.97
513.195	20.02
513.544	19.98
513.893	20.01
514.242	19.95
514.591	20.02
514.939	20.14
515.288	20.17
515.637	20.33
515.986	20.47
516.334	20.27
516.683	20.34
517.032	20.52
517.38	20.44
517.729	20.47
518.077	20.53
518.426	20.5
518.774	20.62
519.122	20.54
519.47	20.41
519.819	20.28
520.167	20.24
520.515	20.18
520.863	20.29
521.211	20.35
521.559	20.36
521.907	20.36
522.255	20.54
522.602	20.78
522.95	20.72
523.298	20.96
523.645	20.93
523.993	20.87
524.341	21.03
524.688	21.09
525.036	20.92
525.383	21.02
525.73	21.12
526.078	20.99
526.425	20.87
526.772	20.94
527.119	20.85
527.466	20.87
527.814	20.66
528.161	20.72
528.508	20.84
528.854	20.89
529.201	20.81
529.548	20.72
529.895	20.41
530.242	20.49
530.588	20.52
530.935	20.53
531.282	20.53
531.628	20.59
531.975	20.7
532.321	20.89
532.667	21.01
533.014	21.22
533.36	21.19
533.706	21.27
534.052	21.31
534.399	21.3
534.745	21.16
535.091	20.97
535.437	20.99
535.783	21.04
536.129	21.18
536.474	21.33
536.82	21.48
537.166	21.49
537.512	21.84
537.857	21.58
538.203	21.55
538.549	21.55
538.894	21.48
539.239	21.69
539.585	21.62
539.93	21.68
540.276	22.19
540.621	22.19
540.966	22.13
541.311	22.14
541.656	22.24
542.001	21.91
542.346	21.97
542.691	21.79
543.036	21.57
543.381	21.42
543.726	21.56
544.071	21.57
544.415	21.79
544.76	21.88
545.105	21.96
545.449	22.09
545.794	22.09
546.138	22.24
546.483	22.36
546.827	22.61
547.171	22.37
547.516	22.38
547.86	22.44
548.204	22.52
548.548	22.41
548.892	22.39
549.236	22.56
549.58	22.86
549.924	22.85
550.268	22.8
550.612	22.96
550.956	22.94
551.3	23.11
551.643	23.19
551.987	23.27
552.33	23.07
552.674	23.19
553.017	23.27
553.361	23.19
553.704	23.19
554.048	23.3
554.391	23.22
554.734	23.21
555.077	23.39
555.42	23.42
555.764	23.32
556.107	23.63
556.45	23.39
556.793	23.69
557.135	23.57
557.478	23.81
557.821	23.77
558.164	24
558.507	23.57
558.849	23.38
559.192	23.8
559.534	23.84
559.877	23.81
560.219	23.91
560.562	23.74
560.904	23.78
561.246	24.02
561.589	24.02
561.931	24.02
562.273	24.08
562.615	24.03
562.957	24.05
563.299	24.16
563.641	24.09
563.983	23.99
564.325	24.04
564.667	23.93
565.008	24.17
565.35	24.04
565.692	24.21
566.033	24.33
566.375	24.27
566.716	24.29
567.058	24.3
567.399	24.46
567.741	24.12
568.082	24.34
568.423	24.13
568.764	24.17
569.105	24.38
569.447	24.27
569.788	24.32
570.129	24.63
570.47	24.57
570.811	24.51
571.151	24.51
571.492	24.54
571.833	24.68
572.174	24.63
572.514	24.66
572.855	24.55
573.195	24.71
573.536	24.58
573.876	24.64
574.217	24.66
574.557	24.62
574.898	24.87
575.238	24.92
575.578	24.93
575.918	24.89
576.258	24.86
576.598	24.97
576.938	24.84
577.278	24.92
577.618	24.88
577.958	24.94
578.298	24.84
578.638	24.95
578.977	25.19
579.317	25.42
579.657	25.14
579.996	25.21
580.336	25.33
580.675	25.37
581.014	25.31
581.354	25.25
581.693	25.31
582.032	25.69
582.372	25.81
582.711	26.01
583.05	25.77
583.389	25.77
583.728	25.4
584.067	25.59
584.406	25.53
584.745	25.85
585.083	25.74
585.422	25.88
585.761	26.02
586.1	25.27
586.438	25.95
586.777	25.44
587.115	25.95
587.454	25.72
587.792	26.06
588.13	26.24
588.469	26.06
588.807	25.83
589.145	26.01
589.483	25.94
589.821	26.01
590.159	25.87
590.497	25.73
590.835	26.27
591.173	26
591.511	26.04
591.849	26.18
592.187	26.15
592.524	26.02
592.862	26.3
593.2	25.91
593.537	26.13
593.875	25.93
594.212	26.38
594.55	26.09
594.887	26.58
595.224	26.43
595.561	26.44
595.899	26.45
596.236	26.55
596.573	26.32
596.91	26.22
597.247	26.48
597.584	26.6
597.921	26.5
598.258	26.34
598.594	26.23
598.931	26.43
599.268	26.64
599.604	26.22
599.941	26.64
600.277	26.67
600.614	26.76
600.95	26.83
601.287	26.69
601.623	26.84
601.959	26.97
602.296	26.84
602.632	26.85
602.968	27.06
603.304	26.87
603.64	26.44
603.976	27.08
604.312	26.96
604.648	27.03
604.984	26.88
605.319	27.12
605.655	27.1
605.991	26.79
606.326	26.92
606.662	26.91
606.998	27.11
607.333	26.91
607.668	27.27
608.004	27.19
608.339	27.27
608.674	26.95
609.01	27.24
609.345	27.5
609.68	27.32
610.015	27.12
610.35	27.33
610.685	27.43
611.02	27.5
611.355	27.18
611.689	27.34
612.024	27.5
612.359	27.26
612.694	27.62
613.028	27.49
613.363	27.42
613.697	27.69
614.032	27.48
614.366	27.42
614.7	27.48
615.035	27.67
615.369	27.49
615.703	27.63
616.037	27.63
616.371	27.69
616.705	27.78
617.039	27.8
617.373	27.57
617.707	28.01
618.041	27.81
618.375	27.79
618.709	28.07
619.042	28.03
619.376	27.83
619.71	28.39
620.043	27.93
620.377	28.69
620.71	28.34
621.043	27.9
621.377	28.2
621.71	28.07
622.043	27.95
622.376	27.85
622.709	28.14
623.043	28.16
623.376	28.14
623.709	27.58
624.041	28.52
624.374	28.13
624.707	28.5
625.04	28.2
625.373	28.11
625.705	28.69
626.038	28.74
626.37	28.41
626.703	28.33
627.035	28.13
627.368	28.59
627.7	28.89
628.032	28.21
628.365	28.48
628.697	28.65
629.029	28.49
629.361	28.31
629.693	28.53
630.025	28.46
630.357	28.6
630.689	28.5
631.021	28.54
631.353	29.11
631.684	28.72
632.016	28.42
632.348	29.09
632.679	28.48
633.011	28.68
633.342	28.82
633.674	29.22
634.005	28.95
634.336	28.86
634.668	29.08
634.999	28.81
635.33	29.1
635.661	29.14
635.992	28.95
636.323	28.99
636.654	28.92
636.985	29.44
637.316	29.17
637.647	29.26
637.977	28.83
638.308	29.29
638.639	29.42
638.969	29.28
639.3	29.39
639.63	29.03
639.961	29.03
640.291	28.9
640.622	29.07
640.952	29.37
641.282	29.25
641.612	29.57
641.943	28.96
642.273	29.57
642.603	29.63
642.933	29.08
643.263	29.6
643.592	29.19
643.922	29.16
644.252	29.68
644.582	29.1
644.911	29.25
645.241	29.21
645.571	29.59
645.9	29.72
646.23	29.5
646.559	29.09
646.888	29.9
647.218	29.48
647.547	29.84
647.876	30.21
648.205	29.89
648.534	29.75
648.863	29.68
649.192	30.05
649.521	30.02
649.85	29.97
650.179	29.85
650.508	30.19
650.837	29.86
651.165	29.79
651.494	30.39
651.822	29.66
652.151	29.68
652.479	30
652.808	30.22
653.136	30.27
653.465	29.98
653.793	30.03
654.121	30.22
654.449	29.74
654.777	30.51
655.105	30.14
655.433	29.86
655.761	29.92
656.089	30.39
656.417	30.74
656.745	30.14
657.073	30.56
657.4	30.47
657.728	29.9
658.056	29.74
658.383	29.86
658.711	30.13
659.038	30.09
659.365	30.49
659.693	29.96
660.02	30.35
660.347	30.52
660.674	30.09
661.001	30.26
661.329	30.17
661.656	30.45
661.982	30.42
662.309	30.42
662.636	30.54
662.963	30.67
663.29	30.44
663.616	30.77
663.943	30.75
664.27	30.37
664.596	30.51
664.923	30.62
665.249	30.98
665.576	30.35
665.902	31.33
666.228	30.51
666.554	31.28
666.881	31.05
667.207	30.9
667.533	30.55
667.859	31.06
668.185	30.52
668.511	31.36
668.837	30.47
669.162	30.4
669.488	31.32
669.814	30.63
670.139	31.24
670.465	30.87
670.791	31.13
671.116	31
671.442	31.27
671.767	30.98
672.092	30.69
672.418	30.87
672.743	31.18
673.068	31.35
673.393	30.13
673.718	31.33
674.043	30.5
674.368	31.14
674.693	31.69
675.018	31.42
675.343	31.13
675.667	30.71
675.992	31.45
676.317	30.86
676.641	31.01
676.966	30.94
677.29	31.72
677.615	31.62
677.939	31.45
678.264	30.93
678.588	31.45
678.912	31.35
679.236	31.44
679.56	31.58
679.885	31.43
680.209	31.15
680.532	31.59
680.856	31.14
681.18	31.23
681.504	31.63
681.828	31.91
682.152	31.63
682.475	31.55
682.799	31.48
683.122	31.43
683.446	31.97
683.769	31.62
684.093	31.54
684.416	30.77
684.739	31.49
685.062	32.12
685.386	31.6
685.709	31.78
686.032	31.85
686.355	31.75
686.678	31.88
687.001	31.84
687.324	31.6
687.646	31.95
687.969	31.67
688.292	32.25
688.614	31.48
688.937	32.96
689.26	31.73
689.582	31.72
689.904	31.7
690.227	32.18
690.549	31.87
690.871	31.27
691.194	32.21
691.516	31.85
691.838	32.18
692.16	32.98
692.482	32.82
692.804	32.03
693.126	32.99
693.448	31.72
693.769	32.47
694.091	32.14
694.413	32.14
694.735	32.81
695.056	32.55
695.378	32.78
695.699	32.28
696.021	32.5
696.342	32.72
696.663	32.15
696.984	32.37
697.306	32.35
697.627	32.9
697.948	32.37
698.269	32.37
698.59	32.55
698.911	31.48
699.232	32.56
699.553	32.39
699.873	32.58
700.194	32.59
700.515	32.29
700.835	32.64
701.156	32.37
701.477	32.67
701.797	32.37
702.117	31.96
702.438	32.53
702.758	31.76
703.078	31.66
703.398	32.52
703.719	33.08
704.039	31.49
704.359	32.86
704.679	32.8
704.999	31.68
705.319	31.87
705.638	32.37
705.958	32.48
706.278	32.33
706.597	32.54
706.917	31.85
707.237	33.89
707.556	32.32
707.876	32.07
708.195	32.71
708.514	32.88
708.834	32.41
709.153	33.12
709.472	33.3
709.791	31.97
710.11	32.73
710.429	33.17
710.748	32.87
711.067	33.36
711.386	32.35
711.705	32.85
712.023	33.44
712.342	33.03
712.661	32.84
712.979	32.7
713.298	32.59
713.616	32.75
713.935	33.9
714.253	33.14
714.572	32.63
714.89	33.92
715.208	34.73
715.526	33.52
715.844	32.98
716.162	34.14
716.48	32.87
716.798	32.43
717.116	33.01
717.434	33.84
717.752	33.43
718.069	33.47
718.387	33.27
718.705	33.74
719.022	31.96
719.34	32.42
719.657	32.65
719.975	33.65
720.292	33.81
720.609	33.74
720.927	33.76
721.244	33.44
721.561	33.91
721.878	34.25
722.195	33.35
722.512	33.67
722.829	33.91
723.146	33.46
723.463	33.14
723.779	31.91
724.096	33.14
724.413	33.11
724.729	32.29
725.046	33.52
725.362	34.14
725.679	33.19
725.995	33.86
726.311	32.64
726.628	32.79
726.944	33.78
727.26	32.7
727.576	32.85
727.892	32.9
728.208	32.92
728.524	33.55
728.84	33.48
729.156	32.34
729.472	34.81
729.787	34.6
730.103	33.79
730.419	32.81
730.734	33.34
731.05	33.62
731.365	33.26
731.681	33.51
731.996	34.91
732.311	33.27
732.626	32.47
732.942	34.55
733.257	34.55
733.572	32.4
733.887	33.72
734.202	33.11
734.517	34.65
734.832	33.68
735.146	35.65
735.461	34.57
735.776	34.65
736.091	33.46
736.405	33.17
736.72	33.41
737.034	34.51
737.349	33.34
737.663	34.86
737.977	32.5
738.292	35.51
738.606	33.13
738.92	33.2
739.234	33.75
739.548	32.95
739.862	34
740.176	32.81
740.49	33.61
740.804	34
741.117	32.2
741.431	34.36
741.745	35.14
742.058	33.69
742.372	33.46
742.685	32.98
742.999	34.35
743.312	36.62
743.626	34.55
743.939	33.94
744.252	33.05
744.565	34.7
744.878	32.47
745.191	32.57
745.505	33.39
745.817	34.06
746.13	34.54
746.443	33.59
746.756	34.36
747.069	34.04
747.381	35.11
747.694	34.58
748.007	35.06
748.319	36.01
748.632	34.28
748.944	31.96
749.256	33.07
749.569	34.33
749.881	34.65
750.193	34.7
750.505	35.8
750.817	35.07
751.129	32.83
751.441	35.94
751.753	35.36
752.065	32.4
752.377	34.77
752.689	34.65
753	35.18
753.312	36.02
753.624	33.62
753.935	34.2
754.247	33.43
754.558	34.39
754.869	34.78
755.181	34.71
755.492	35.61
755.803	35.33
756.114	34.42
756.425	34.74
756.736	36.05
757.047	36.13
757.358	33.78
757.669	34.55
757.98	36.61
758.291	35.38
758.601	33.62
758.912	33.61
759.223	35.69
759.533	34.46
759.844	34.98
760.154	35.24
760.464	32.92
760.775	34.78
761.085	35.72
761.395	34.43
761.705	34.79
762.016	33.38
762.326	35.81
762.636	34.6
762.945	33.98
763.255	33.86
763.565	34.77
763.875	35.28
764.185	34.02
764.494	35.6
764.804	36.23
765.113	35.77
765.423	35.06
765.732	33.6
766.042	34.17
766.351	34.7
766.66	34.67
766.97	35.85
767.279	35.11
767.588	34.04
767.897	35.87
768.206	32.81
768.515	33.01
768.824	34.47
769.133	35.27
769.441	34.27
769.75	36.47
770.059	35.69
770.367	36.19
770.676	37.25
770.984	34.03
771.293	36.23
771.601	33.12
771.91	36.06
772.218	36.6
772.526	36.08
772.834	34.97
773.142	36.73
773.45	34.82
773.758	36.06
774.066	35.6
774.374	34.64
774.682	35.48
774.99	33.78
775.298	35.03
775.605	35.56
775.913	34.33
776.22	34.29
776.528	35.1
776.835	34.96
777.143	33.15
777.45	35.94
777.757	35.35
778.065	36.85
778.372	32.77
778.679	37.01
778.986	33.59
779.293	33.48
779.6	34.45
779.907	36.57
780.214	36.24
780.52	35.95
780.827	34.15
781.134	39.14
781.44	36.88
781.747	36.18
782.053	32.93
782.36	36.96
782.666	32.94
782.973	34.75
783.279	36.16
783.585	35.89
783.891	31.5
784.197	37.05
784.503	35.25
784.809	37.28
785.115	32.5
785.421	37.34
785.727	34.47
786.033	32.76
786.339	34.92
786.644	34.45
786.95	33.83
787.255	33.74
787.561	34.61
787.866	34.25
788.172	33.97
788.477	37.38
788.782	37.31
789.088	34.83
789.393	33.86
789.698	32.34
790.003	38.17
790.308	35.44
790.613	35.18
790.918	33.91
791.223	33.19
791.527	36.31
791.832	36.71
792.137	35.72
792.441	34.63
792.746	34.27
793.05	35.6
793.355	35.89
793.659	39.8
793.963	35.13
794.268	35.76
794.572	33.23
794.876	32.87
795.18	35.84
795.484	39.55
795.788	40.28
796.092	37.84
796.396	36.64
796.7	38.04
797.004	39.98
797.307	36.5
797.611	31.06
797.915	29.27
798.218	34.69
798.522	34.56
798.825	36.22
799.128	36.47
799.432	38.44
799.735	33.61
800.038	33.12
800.341	33.86
800.644	34.97
800.947	37.49
801.25	33.37
801.553	39.72
801.856	35.6
802.159	31.73
802.462	33.28
802.764	35.63
803.067	34.29
803.37	38.08
803.672	38
803.975	36.96
804.277	36.44
804.579	35.46
804.882	37.78
805.184	36.7
805.486	35.67
805.788	33.84
806.09	36.66
806.392	39.48
806.694	37.16
806.996	35.61
807.298	34.73
807.6	35.98
807.902	36.88
808.203	33.52
808.505	35.5
808.807	36.99
809.108	39.42
809.409	28.95
809.711	35.92
810.012	35.27
810.313	33.61
810.615	34.82
810.916	39.46
811.217	37.05
811.518	34.27
811.819	38.98
812.12	40.56
812.421	36.93
812.722	35.16
813.023	33.73
813.323	38.29
813.624	37.01
813.925	32.09
814.225	37.16
814.526	33.46
814.826	39.51
815.126	37.09
815.427	28.83
815.727	37.1
816.027	36.36
816.327	34.86
816.627	34.75
816.927	31.52
817.227	30.33
817.527	39.26
817.827	35.77
818.127	39.88
818.427	33
818.727	31.37
819.026	36.5
819.326	33.93
819.625	33.85
819.925	36.14
820.224	33.31
820.524	40.75
820.823	38.14
821.122	35.15
821.421	34.73
821.72	32.89
822.019	33.76
822.318	37.83
822.617	37.95
822.916	36.49
823.215	33
823.514	39.99
823.813	38.23
824.111	36.68
824.41	36.03
824.709	37.14
825.007	36.39
825.306	37.59
825.604	37.27
825.902	36.72
826.201	37.76
826.499	37.73
826.797	38.62
827.095	36.69
827.393	37.53
827.691	37.16
827.989	36.77
828.287	38.76
828.585	35.36
828.882	35.89
829.18	35.07
829.478	37.35
829.775	36.55
830.073	34.2
830.37	36.15
830.668	35.96
830.965	38.1
831.263	36.55
831.56	35.89
831.857	40.08
832.154	35.99
832.451	35.61
832.748	34.19
833.045	34.42
833.342	39.95
833.639	32.89
833.936	32.34
834.232	39.23
834.529	38.01
834.826	40.35
835.122	34.29
835.419	38.03
835.715	32.73
836.012	35.88
836.308	33.17
836.604	35.73
836.901	38.58
837.197	39.21
837.493	35.76
837.789	38.59
838.085	39
838.381	33.72
838.677	38.82
838.972	38.39
839.268	39.35
839.564	36.14
839.86	35.35
840.155	35.52
840.451	35.8
840.746	38.58
841.042	38.37
841.337	36.65
841.632	36.62
841.928	34.12
842.223	34.71
842.518	33.36
842.813	35.57
843.108	36.42
843.403	40.41
843.698	37.59
843.993	35.77
844.287	44.02
844.582	34.22
844.877	37.03
845.171	36.49
845.466	34.5
845.761	37.75
846.055	40.6
846.349	21.74
846.644	29.96
846.938	16.18
847.232	35.19
847.526	44.26
847.82	38.94
848.114	50.83
848.408	29.21
848.702	31.52
848.996	26.41
849.29	34.77
849.584	22.37
849.877	31.06
850.171	32.19
850.465	38.31
850.758	18.81
851.052	21.29
851.345	27.32
851.638	33.93
851.932	19.97
852.225	31.9
852.518	59.37
852.811	44.25
853.104	40.12
853.397	9.46
853.69	15.7
853.983	30.74
854.276	53.38
854.569	51.63
854.861	26.25
855.154	47.35
855.447	49.06
855.739	30.37
856.032	45.42
856.324	33.74
856.616	28.54
856.909	34.22
857.201	23.56
857.493	20.84
857.785	31.71
858.077	28.19
858.369	24.9
858.661	41.93
858.953	16.99
859.245	33.64
859.537	50.18
859.829	43.34
860.12	37.74
860.412	24.58
860.703	33.03
860.995	40.19
861.286	25.1
861.578	21.83
861.869	26.2
862.16	37.15
862.452	40.23
862.743	54.89
863.034	34.9
863.325	33.76
863.616	41.53
863.907	28.17
864.198	51.11
864.488	53.05
864.779	34.58
865.07	21.3
865.36	37.54
865.651	31.57
865.941	33.5
866.232	24.66
866.522	23.68
866.813	27.37
867.103	35.22
867.393	54.59
867.683	30.21
867.973	15.91
868.263	27.67
868.553	22.64
868.843	9.24
869.133	36.6
869.423	28.35
869.713	11.01
870.002	33.15
870.292	33.9
870.582	42.16
870.871	30.95
871.161	22.06
871.45	-6.81
871.739	14.25
872.029	45.54
872.318	52.85
872.607	5.72
872.896	26.06
873.185	30.3
873.474	36.21
873.763	56.82
874.052	42.12
874.341	23.57
874.63	39.68
874.918	23.13
875.207	35.26
875.496	46
875.784	62.52
876.073	20.26
876.361	50.83
876.649	28.55
876.938	37.72
877.226	47.14
877.514	43.57
877.802	21.62
878.09	17.35
878.378	34.26
878.666	21.33
878.954	58.06
879.242	35.28
879.53	43.25
879.817	38.76
880.105	39.95
880.392	32.26
880.68	44.36
880.967	51.55
881.255	41.8
881.542	39.43
881.83	14.32
882.117	29.62
882.404	37.91
882.691	19.39
882.978	52.57
883.265	36.3
883.552	32.71
883.839	21.28
884.126	16.64
884.413	44.09
884.699	41.27
884.986	34.45
885.273	35.62
885.559	35.62
885.846	35.62
