Data from 0034_forehead_Reflection__4__196.txt Node

Date: Thu Oct 20 22:25:27 CDT 2022
User: ToomeyLab
Spectrometer: FLMS14357
Trigger mode: 0
Integration Time (sec): 1.000000E-2
Scans to average: 100
Electric dark correction enabled: true
Nonlinearity correction enabled: false
Boxcar width: 0
XAxis mode: Wavelengths
Number of Pixels in Spectrum: 2048
>>>>>Begin Spectral Data<<<<<
189.047	117.65
189.435	117.65
189.823	117.65
190.211	236.33
190.599	-62
190.987	-26.89
191.375	260.01
191.763	-210.46
192.151	35.8
192.538	81.07
192.926	79.24
193.314	672.67
193.702	-3.69
194.089	36.6
194.477	-191.65
194.864	398.56
195.252	58.71
195.639	138.1
196.027	94.72
196.414	125.02
196.801	783.36
197.189	712.52
197.576	80.55
197.963	307.04
198.351	7.13
198.738	-124.74
199.125	54.29
199.512	21.25
199.899	78.51
200.286	51.86
200.673	31.28
201.06	59.97
201.447	64.13
201.833	-60.13
202.22	25.35
202.607	-1.21
202.994	37.04
203.38	-38.18
203.767	13.95
204.154	-9.09
204.54	-52.34
204.927	27.13
205.313	34.25
205.699	22.66
206.086	-7.67
206.472	7.46
206.858	-15.34
207.245	18.24
207.631	30.62
208.017	3.74
208.403	-78.13
208.789	-44.62
209.175	33.39
209.561	38
209.947	12.94
210.333	3.02
210.719	17.14
211.105	28.63
211.491	-64.65
211.876	-36.67
212.262	26.33
212.648	16.21
213.034	-5.35
213.419	-14.24
213.805	-9.91
214.19	5.57
214.576	1.59
214.961	17.65
215.346	-49.13
215.732	17.92
216.117	-21.14
216.502	0.03
216.888	-13.09
217.273	-40.92
217.658	28
218.043	18.79
218.428	-7.57
218.813	29.96
219.198	3.93
219.583	29.08
219.968	31.84
220.353	11.01
220.738	21.34
221.122	15.57
221.507	-3.01
221.892	8.08
222.276	6.95
222.661	12.22
223.046	22.68
223.43	-0.21
223.815	9.58
224.199	-7.58
224.583	2.15
224.968	8.43
225.352	15.08
225.736	0.86
226.121	5.63
226.505	6.37
226.889	1.04
227.273	-3.84
227.657	2.48
228.041	-3
228.425	2.46
228.809	6.02
229.193	3.93
229.577	1.87
229.961	3.72
230.344	3.22
230.728	3.01
231.112	3.22
231.495	4.05
231.879	4.18
232.263	1.53
232.646	2.87
233.03	2.26
233.413	1.77
233.797	1.68
234.18	4.38
234.563	5.77
234.946	5.1
235.33	4.31
235.713	3.43
236.096	1.57
236.479	3.87
236.862	4.13
237.245	3.41
237.628	3.42
238.011	3.98
238.394	3.22
238.777	4.31
239.16	1.85
239.543	2.34
239.925	2.65
240.308	4.59
240.691	4.75
241.073	2.91
241.456	2.5
241.838	3.33
242.221	2.66
242.603	4.01
242.986	2.94
243.368	3.35
243.75	3.17
244.133	3.57
244.515	2.78
244.897	3.06
245.279	2.04
245.661	4.61
246.043	3.71
246.425	4.23
246.807	3.06
247.189	4.05
247.571	3.24
247.953	3.37
248.335	3.33
248.717	3.17
249.098	3.1
249.48	3.48
249.862	3.36
250.243	3.4
250.625	3.69
251.006	4.02
251.388	3.99
251.769	3.46
252.151	3.8
252.532	2.65
252.913	2.93
253.295	3.52
253.676	3.62
254.057	2.72
254.438	3.12
254.819	3.1
255.2	3.85
255.581	3.93
255.962	4.3
256.343	2.64
256.724	3.41
257.105	3.65
257.486	3.28
257.867	4.09
258.247	4.52
258.628	4.35
259.009	2.37
259.389	3.83
259.77	3.45
260.15	3.39
260.531	3.52
260.911	3.05
261.292	3.47
261.672	3.38
262.052	3.55
262.432	3.6
262.813	3.17
263.193	3.84
263.573	3.57
263.953	3.45
264.333	3.64
264.713	4.23
265.093	3.96
265.473	4.56
265.853	4.88
266.233	3.28
266.612	3.88
266.992	2.71
267.372	3.73
267.752	3.66
268.131	3.76
268.511	3.64
268.89	3.17
269.27	3.31
269.649	3.62
270.029	3.28
270.408	2.89
270.787	3.29
271.167	2.84
271.546	3.81
271.925	4.21
272.304	3.59
272.683	3.29
273.062	2.81
273.441	3.46
273.82	3.61
274.199	3.4
274.578	3.14
274.957	3.07
275.336	3.24
275.715	2.79
276.093	3.94
276.472	3.86
276.851	3.3
277.229	3.35
277.608	2.93
277.986	3.81
278.365	3.22
278.743	3.66
279.122	3.79
279.5	3.93
279.878	3.87
280.257	3.88
280.635	3.91
281.013	3.72
281.391	3.72
281.769	3.86
282.147	2.82
282.525	2.7
282.903	3.56
283.281	3.19
283.659	2.88
284.037	2.81
284.415	3.3
284.792	3.16
285.17	4.42
285.548	2.83
285.925	3.28
286.303	3.62
286.68	3.63
287.058	3.03
287.435	3.44
287.813	3.39
288.19	3.28
288.567	3.1
288.945	3.2
289.322	3.48
289.699	2.81
290.076	3.68
290.453	3.23
290.83	3.49
291.207	3.5
291.584	3.71
291.961	3.45
292.338	3.14
292.715	3.85
293.092	4.77
293.469	3.47
293.845	3.68
294.222	3.99
294.599	4.8
294.975	3.8
295.352	4.44
295.728	3.86
296.105	4.21
296.481	3.73
296.858	4.61
297.234	4.23
297.61	4.05
297.986	4.07
298.363	4.04
298.739	4.1
299.115	4.32
299.491	4.22
299.867	4.29
300.243	4.34
300.619	4.08
300.995	3.95
301.371	4.58
301.746	4.7
302.122	5.31
302.498	4.3
302.874	4.68
303.249	4.83
303.625	4.68
304	5.13
304.376	4.79
304.751	4.48
305.127	4.69
305.502	5.04
305.878	5.11
306.253	4.86
306.628	5.42
307.003	5.13
307.378	4.61
307.754	5.36
308.129	5.17
308.504	4.82
308.879	5.65
309.254	5.52
309.629	5.34
310.003	5.04
310.378	5.21
310.753	5.99
311.128	5.36
311.502	5.68
311.877	5.51
312.252	5.31
312.626	5.44
313.001	5.7
313.375	6.05
313.75	5.25
314.124	5.7
314.498	5.75
314.873	6.14
315.247	6.5
315.621	6.17
315.995	6.35
316.369	6.44
316.743	6.3
317.117	6.51
317.491	6.37
317.865	6.13
318.239	6.42
318.613	7.1
318.987	6.3
319.361	7.2
319.734	6.34
320.108	6.75
320.482	6.55
320.855	7.51
321.229	7.24
321.602	6.32
321.976	7.35
322.349	7.31
322.723	7.84
323.096	6.92
323.469	7.67
323.843	7.65
324.216	7.44
324.589	7.51
324.962	7.17
325.335	7.87
325.708	7.7
326.081	7.7
326.454	7.69
326.827	7.78
327.2	8.42
327.573	7.95
327.945	7.74
328.318	7.68
328.691	8.29
329.063	8.44
329.436	7.84
329.809	8.91
330.181	8.13
330.553	7.86
330.926	8.59
331.298	8.33
331.671	8.89
332.043	8.31
332.415	8.39
332.787	9.11
333.159	8.88
333.532	9.12
333.904	8.68
334.276	8.6
334.648	8.3
335.02	9.24
335.391	8.7
335.763	9.07
336.135	9.12
336.507	8.77
336.879	9.41
337.25	8.93
337.622	9.42
337.993	9.14
338.365	9.61
338.736	9.07
339.108	9.48
339.479	9.62
339.851	9.26
340.222	9.3
340.593	9.4
340.964	10.23
341.336	9.55
341.707	9.74
342.078	9.76
342.449	9.53
342.82	10.32
343.191	9.7
343.562	9.95
343.933	9.88
344.303	9.58
344.674	9.76
345.045	10.44
345.416	9.94
345.786	10.21
346.157	10.44
346.527	10.36
346.898	10.41
347.268	10.25
347.639	10.84
348.009	10.78
348.38	10.78
348.75	10.28
349.12	10.83
349.49	10.62
349.861	10.96
350.231	10.59
350.601	11.22
350.971	11.24
351.341	11.28
351.711	11.14
352.081	10.7
352.45	10.85
352.82	10.97
353.19	11.04
353.56	11.34
353.929	11.29
354.299	11.28
354.669	11.3
355.038	11.55
355.408	11.55
355.777	11.83
356.147	11.98
356.516	11.71
356.885	11.77
357.254	12.07
357.624	11.76
357.993	11.93
358.362	12.14
358.731	11.96
359.1	11.59
359.469	12.12
359.838	11.89
360.207	12.88
360.576	12.07
360.945	12.42
361.314	12.15
361.682	12.05
362.051	12.28
362.42	12.2
362.788	12.36
363.157	12.37
363.525	12.42
363.894	12.38
364.262	12.73
364.631	12.7
364.999	12.75
365.367	12.95
365.735	13.1
366.104	12.88
366.472	12.83
366.84	13.52
367.208	13.04
367.576	12.96
367.944	13.44
368.312	13.15
368.68	13.42
369.048	13.04
369.416	13.26
369.783	13.45
370.151	13.59
370.519	13.57
370.886	13.58
371.254	13.92
371.621	13.83
371.989	14.16
372.356	13.57
372.724	14.12
373.091	13.87
373.458	13.9
373.826	14.05
374.193	14.43
374.56	13.84
374.927	13.81
375.294	14.13
375.661	14.49
376.028	14.26
376.395	14.97
376.762	14.64
377.129	14.39
377.496	14.54
377.863	14.59
378.229	14.55
378.596	14.7
378.963	14.45
379.329	14.71
379.696	14.76
380.062	14.62
380.429	15.48
380.795	14.73
381.161	15.02
381.528	15
381.894	15.18
382.26	15.25
382.626	15.44
382.993	15.27
383.359	15.48
383.725	15.22
384.091	15.45
384.457	15.47
384.823	15.6
385.188	15.41
385.554	15.47
385.92	15.72
386.286	15.77
386.651	15.76
387.017	15.87
387.383	15.98
387.748	16.08
388.114	16.05
388.479	16.21
388.845	16.43
389.21	16.1
389.575	16.13
389.94	16.37
390.306	16.5
390.671	16.37
391.036	16.44
391.401	16.14
391.766	16.59
392.131	16.57
392.496	16.36
392.861	16.47
393.226	16.74
393.591	16.82
393.956	16.87
394.32	16.82
394.685	17.24
395.05	16.98
395.414	16.88
395.779	16.95
396.143	17.16
396.508	17.14
396.872	17.28
397.236	17.39
397.601	17.7
397.965	17.38
398.329	17.44
398.694	17.24
399.058	17.65
399.422	17.68
399.786	17.77
400.15	17.6
400.514	17.92
400.878	17.81
401.242	18.06
401.605	18.05
401.969	17.76
402.333	18.06
402.697	18.24
403.06	18.35
403.424	18.09
403.787	18.36
404.151	18.46
404.514	18.36
404.878	18.3
405.241	18.13
405.604	18.35
405.968	18.5
406.331	18.5
406.694	18.59
407.057	18.65
407.42	18.79
407.783	18.64
408.146	18.85
408.509	18.98
408.872	19.15
409.235	18.8
409.598	19.13
409.961	19.28
410.323	19.5
410.686	19.4
411.049	19.22
411.411	19.26
411.774	19.25
412.136	19.48
412.499	19.54
412.861	19.67
413.223	19.41
413.586	19.68
413.948	19.67
414.31	19.66
414.672	19.81
415.035	19.91
415.397	19.93
415.759	19.71
416.121	20.08
416.483	19.95
416.845	19.92
417.206	20.07
417.568	19.93
417.93	19.8
418.292	20.15
418.653	20.17
419.015	20.15
419.377	20.23
419.738	20.16
420.1	20.02
420.461	20.08
420.822	20.16
421.184	20.06
421.545	20.11
421.906	20.09
422.267	20.21
422.629	20.08
422.99	20.16
423.351	20.26
423.712	20.42
424.073	20.65
424.434	20.56
424.795	20.48
425.155	20.41
425.516	20.52
425.877	20.52
426.238	20.78
426.598	20.75
426.959	20.79
427.32	20.96
427.68	21.03
428.041	21.11
428.401	21.5
428.761	21.54
429.122	21.49
429.482	21.65
429.842	21.57
430.202	21.88
430.563	21.75
430.923	22
431.283	21.82
431.643	21.87
432.003	21.86
432.363	22.18
432.722	22.33
433.082	22.19
433.442	21.98
433.802	22.01
434.161	22.25
434.521	22.01
434.881	21.99
435.24	22.08
435.6	22.23
435.959	22.31
436.319	22.6
436.678	22.41
437.037	22.65
437.396	22.62
437.756	22.92
438.115	22.83
438.474	22.58
438.833	23.01
439.192	22.58
439.551	22.81
439.91	22.84
440.269	22.87
440.628	22.88
440.987	22.68
441.345	22.87
441.704	22.93
442.063	23.02
442.421	22.96
442.78	23.04
443.138	23.12
443.497	23.21
443.855	23.23
444.214	23.43
444.572	23.57
444.93	23.43
445.288	23.45
445.647	23.39
446.005	23.49
446.363	23.53
446.721	23.41
447.079	23.44
447.437	23.3
447.795	23.25
448.153	23.32
448.51	23.49
448.868	23.77
449.226	23.75
449.584	23.89
449.941	24.04
450.299	24.09
450.656	24.26
451.014	24.23
451.371	24.51
451.729	24.46
452.086	24.68
452.443	24.44
452.801	24.58
453.158	24.72
453.515	24.65
453.872	24.69
454.229	24.76
454.586	24.79
454.943	24.77
455.3	25
455.657	25.11
456.014	25.08
456.371	25.02
456.727	25.24
457.084	25.1
457.441	25.32
457.797	25.29
458.154	25.27
458.51	25.19
458.867	25.55
459.223	25.57
459.58	25.45
459.936	25.61
460.292	25.22
460.648	25.27
461.005	24.94
461.361	25.01
461.717	25.08
462.073	25.43
462.429	25.55
462.785	25.8
463.141	25.9
463.496	25.93
463.852	25.99
464.208	26.33
464.564	26.44
464.919	26.25
465.275	26.26
465.631	26.17
465.986	26.43
466.342	26.51
466.697	26.43
467.052	26.4
467.408	26.5
467.763	26.68
468.118	26.81
468.473	26.79
468.829	26.68
469.184	26.89
469.539	26.99
469.894	26.92
470.249	26.95
470.603	27.08
470.958	27.18
471.313	26.9
471.668	27.2
472.023	27.37
472.377	27.33
472.732	27.47
473.086	27.51
473.441	27.33
473.795	27.69
474.15	27.51
474.504	27.42
474.859	27.74
475.213	27.65
475.567	27.8
475.921	27.9
476.275	28.04
476.63	28.12
476.984	28.03
477.338	27.96
477.692	27.82
478.045	27.97
478.399	28.07
478.753	28
479.107	28.07
479.461	28.05
479.814	28.03
480.168	28.23
480.521	28.22
480.875	28.36
481.228	28.47
481.582	28.51
481.935	28.26
482.289	28.08
482.642	28.17
482.995	28.16
483.348	28.22
483.701	28.19
484.055	27.96
484.408	27.77
484.761	27.51
485.114	27.27
485.466	27.37
485.819	27.51
486.172	27.71
486.525	28.07
486.878	28.27
487.23	28.47
487.583	28.39
487.936	28.37
488.288	28.22
488.641	28.08
488.993	28.08
489.345	28.04
489.698	28.12
490.05	28.29
490.402	28.67
490.754	28.84
491.107	29.11
491.459	29.31
491.811	29.23
492.163	29.17
492.515	28.74
492.866	28.6
493.218	28.65
493.57	28.79
493.922	29.12
494.274	29.38
494.625	29.66
494.977	29.85
495.328	29.91
495.68	30.17
496.031	30.29
496.383	30.27
496.734	30.36
497.086	30.35
497.437	30.4
497.788	30.25
498.139	30.02
498.49	30.06
498.842	30.14
499.193	30.39
499.544	30.4
499.894	30.53
500.245	30.7
500.596	30.8
500.947	30.88
501.298	30.8
501.648	30.9
501.999	31.03
502.35	31.17
502.7	31.3
503.051	31.4
503.401	31.07
503.752	31.36
504.102	31.53
504.452	31.49
504.803	31.54
505.153	31.5
505.503	31.61
505.853	31.47
506.203	31.58
506.553	31.69
506.903	31.63
507.253	31.59
507.603	31.78
507.953	32.09
508.303	31.85
508.652	32
509.002	31.78
509.352	31.91
509.701	31.73
510.051	31.67
510.4	31.82
510.75	31.81
511.099	31.93
511.449	31.86
511.798	32.1
512.147	32.15
512.496	32.16
512.846	32.32
513.195	32.23
513.544	32.17
513.893	32.27
514.242	32.37
514.591	32.51
514.939	32.59
515.288	32.74
515.637	32.75
515.986	32.84
516.334	32.82
516.683	33.11
517.032	32.8
517.38	33.04
517.729	33.19
518.077	33.11
518.426	32.87
518.774	32.91
519.122	32.77
519.47	32.64
519.819	32.52
520.167	32.42
520.515	32.72
520.863	32.85
521.211	33.15
521.559	33.02
521.907	33.31
522.255	33.57
522.602	33.42
522.95	33.75
523.298	33.63
523.645	33.79
523.993	33.73
524.341	33.84
524.688	33.99
525.036	33.97
525.383	34.13
525.73	33.84
526.078	33.92
526.425	33.75
526.772	33.45
527.119	33.37
527.466	33.55
527.814	33.74
528.161	33.67
528.508	33.78
528.854	33.74
529.201	33.42
529.548	33.16
529.895	32.9
530.242	33.06
530.588	33.21
530.935	33.43
531.282	33.54
531.628	33.7
531.975	33.84
532.321	34.21
532.667	34.26
533.014	34.23
533.36	34.31
533.706	34.2
534.052	34.17
534.399	33.96
534.745	33.85
535.091	34.01
535.437	34.21
535.783	34.44
536.129	34.78
536.474	34.89
536.82	34.95
537.166	34.99
537.512	34.87
537.857	34.79
538.203	34.64
538.549	34.66
538.894	35.04
539.239	35.31
539.585	35.47
539.93	35.75
540.276	35.85
540.621	35.76
540.966	35.95
541.311	35.74
541.656	35.54
542.001	35.27
542.346	35.01
542.691	34.55
543.036	34.66
543.381	34.96
543.726	35.1
544.071	35.42
544.415	35.62
544.76	35.45
545.105	35.79
545.449	35.84
545.794	35.98
546.138	36.29
546.483	36.17
546.827	36.13
547.171	36.26
547.516	36.27
547.86	36.18
548.204	36.33
548.548	36.22
548.892	36.41
549.236	36.53
549.58	36.63
549.924	37.25
550.268	37.02
550.612	37.28
550.956	37.18
551.3	37.28
551.643	37.18
551.987	37.31
552.33	37.57
552.674	37.52
553.017	37.46
553.361	37.35
553.704	37.51
554.048	37.62
554.391	37.4
554.734	37.61
555.077	37.71
555.42	37.61
555.764	37.72
556.107	37.78
556.45	37.81
556.793	38.02
557.135	38.23
557.478	38.04
557.821	38.26
558.164	38.11
558.507	38.22
558.849	38.47
559.192	38.29
559.534	38.56
559.877	38.45
560.219	38.47
560.562	38.6
560.904	38.38
561.246	38.75
561.589	38.69
561.931	38.53
562.273	38.7
562.615	38.65
562.957	38.67
563.299	38.89
563.641	38.78
563.983	39.37
564.325	38.95
564.667	39.31
565.008	38.88
565.35	39.14
565.692	39.09
566.033	39.21
566.375	39.33
566.716	39.2
567.058	39.1
567.399	38.92
567.741	38.86
568.082	38.8
568.423	39.24
568.764	39.27
569.105	39.47
569.447	39.56
569.788	39.49
570.129	39.55
570.47	39.58
570.811	39.73
571.151	39.67
571.492	39.76
571.833	39.88
572.174	40.08
572.514	39.68
572.855	39.89
573.195	39.64
573.536	39.51
573.876	39.34
574.217	39.4
574.557	39.75
574.898	39.76
575.238	40.13
575.578	40.06
575.918	40.16
576.258	40.1
576.598	40.03
576.938	40.15
577.278	40.25
577.618	40.3
577.958	40.33
578.298	40.5
578.638	40.34
578.977	40.63
579.317	40.82
579.657	40.92
579.996	40.99
580.336	40.89
580.675	41.09
581.014	40.87
581.354	41.31
581.693	41.09
582.032	40.94
582.372	41.41
582.711	41.31
583.05	41.4
583.389	41.48
583.728	41.37
584.067	41.73
584.406	41.52
584.745	41.6
585.083	41.57
585.422	41.39
585.761	41.79
586.1	41.77
586.438	41.69
586.777	41.91
587.115	41.93
587.454	42.23
587.792	41.89
588.13	42.33
588.469	42.04
588.807	42.08
589.145	42.16
589.483	42.17
589.821	41.72
590.159	42.19
590.497	42
590.835	41.86
591.173	42.04
591.511	41.95
591.849	42.07
592.187	42.04
592.524	42.1
592.862	42.3
593.2	42.04
593.537	42.54
593.875	42.64
594.212	42.32
594.55	42.74
594.887	42.47
595.224	42.62
595.561	42.18
595.899	42.5
596.236	42.32
596.573	43
596.91	42.86
597.247	42.57
597.584	42.76
597.921	42.54
598.258	42.58
598.594	42.36
598.931	42.42
599.268	42.38
599.604	42.86
599.941	42.89
600.277	43.18
600.614	43.11
600.95	43.27
601.287	43.16
601.623	43.45
601.959	43.13
602.296	43.41
602.632	43.15
602.968	43.47
603.304	43.61
603.64	43.16
603.976	43.38
604.312	42.98
604.648	43.14
604.984	42.87
605.319	43.23
605.655	43.26
605.991	42.97
606.326	43.22
606.662	43.19
606.998	43.36
607.333	43.33
607.668	43.62
608.004	43.99
608.339	43.81
608.674	44.32
609.01	43.86
609.345	43.9
609.68	43.95
610.015	44.4
610.35	44.01
610.685	43.24
611.02	43.72
611.355	43.74
611.689	43.94
612.024	44.06
612.359	44.46
612.694	44.44
613.028	44.45
613.363	44.54
613.697	44.43
614.032	44.77
614.366	44.67
614.7	44.66
615.035	44.74
615.369	44.46
615.703	44.74
616.037	45.15
616.371	44.85
616.705	44.77
617.039	44.64
617.373	44.92
617.707	44.99
618.041	44.99
618.375	44.91
618.709	44.8
619.042	45.1
619.376	45.29
619.71	45.44
620.043	45.27
620.377	44.97
620.71	45.34
621.043	45.6
621.377	44.95
621.71	45.47
622.043	45.61
622.376	45.53
622.709	45.66
623.043	45.64
623.376	45.74
623.709	45.69
624.041	45.83
624.374	46.07
624.707	45.57
625.04	46.19
625.373	46.16
625.705	45.71
626.038	45.92
626.37	45.42
626.703	45.84
627.035	45.66
627.368	45.45
627.7	45.57
628.032	45.82
628.365	45.86
628.697	46.12
629.029	46.18
629.361	45.89
629.693	45.7
630.025	46.4
630.357	46.24
630.689	46.17
631.021	46.22
631.353	46.29
631.684	46.1
632.016	46.04
632.348	46.52
632.679	46.38
633.011	46.66
633.342	46.64
633.674	46.57
634.005	46.27
634.336	46.97
634.668	46.33
634.999	46.46
635.33	46.56
635.661	46.88
635.992	46.55
636.323	46.83
636.654	46.18
636.985	46.91
637.316	46.42
637.647	46.99
637.977	47.32
638.308	46.83
638.639	47.05
638.969	47.18
639.3	47.04
639.63	47.37
639.961	47.06
640.291	47.15
640.622	47.06
640.952	46.86
641.282	47.18
641.612	47.32
641.943	47.06
642.273	47.51
642.603	47.23
642.933	47.13
643.263	47.59
643.592	47.67
643.922	47.34
644.252	46.86
644.582	47.67
644.911	47.39
645.241	47.4
645.571	47.71
645.9	47.89
646.23	47.73
646.559	48.48
646.888	47.82
647.218	47.07
647.547	47.81
647.876	47.6
648.205	47.76
648.534	47.91
648.863	47.8
649.192	47.99
649.521	48.28
649.85	47.72
650.179	48.43
650.508	48.2
650.837	48.01
651.165	47.85
651.494	47.75
651.822	48.63
652.151	48.17
652.479	48.53
652.808	47.92
653.136	48.09
653.465	48.51
653.793	48.65
654.121	48.29
654.449	48.25
654.777	48.41
655.105	49.03
655.433	48.37
655.761	48.59
656.089	48.2
656.417	48.51
656.745	48.04
657.073	48.74
657.4	48.79
657.728	49.12
658.056	48.92
658.383	48.31
658.711	48.23
659.038	48.41
659.365	48.58
659.693	48.9
660.02	48.74
660.347	48.6
660.674	49.12
661.001	48.36
661.329	48.73
661.656	48.74
661.982	48.83
662.309	49.07
662.636	48.83
662.963	48.95
663.29	48.68
663.616	48.76
663.943	49.42
664.27	48.72
664.596	48.68
664.923	49.3
665.249	49.33
665.576	49.68
665.902	49.33
666.228	49.67
666.554	49.08
666.881	49.78
667.207	49.94
667.533	49.31
667.859	49.02
668.185	50.37
668.511	50.1
668.837	49
669.162	49.35
669.488	49
669.814	49.86
670.139	49.7
670.465	49.19
670.791	49.61
671.116	49.99
671.442	49.58
671.767	49.19
672.092	49.44
672.418	50.25
672.743	50.1
673.068	49.73
673.393	49.25
673.718	49.84
674.043	49.53
674.368	49.81
674.693	50.1
675.018	50.23
675.343	49.72
675.667	49.77
675.992	50.82
676.317	50.44
676.641	50.1
676.966	49.79
677.29	50
677.615	50.75
677.939	49.54
678.264	50.75
678.588	50.49
678.912	51.28
679.236	49.89
679.56	50.38
679.885	50.22
680.209	50.01
680.532	50.45
680.856	50.85
681.18	50.4
681.504	49.98
681.828	50.09
682.152	50.47
682.475	50.43
682.799	50.78
683.122	51.11
683.446	50.2
683.769	51.19
684.093	50.61
684.416	51.08
684.739	50.39
685.062	50.68
685.386	51.2
685.709	50.63
686.032	51.33
686.355	50.71
686.678	51.06
687.001	50.77
687.324	51.49
687.646	50.81
687.969	51.34
688.292	51.9
688.614	51.44
688.937	50.67
689.26	51.02
689.582	50.57
689.904	51.83
690.227	50.75
690.549	51.04
690.871	51.17
691.194	51.4
691.516	50.6
691.838	50.41
692.16	50.07
692.482	50.93
692.804	51.83
693.126	51.46
693.448	51.39
693.769	50.86
694.091	51.13
694.413	50.65
694.735	51.5
695.056	52.12
695.378	50.99
695.699	50.8
696.021	50.44
696.342	50.69
696.663	51.39
696.984	51.39
697.306	51.87
697.627	52.26
697.948	51.82
698.269	51.98
698.59	51.43
698.911	51.2
699.232	51.8
699.553	51.17
699.873	50.9
700.194	51.2
700.515	51.25
700.835	51.07
701.156	51.76
701.477	51.85
701.797	51.18
702.117	51.2
702.438	51.74
702.758	51.03
703.078	51.61
703.398	51.14
703.719	52.41
704.039	52.46
704.359	52.18
704.679	52.13
704.999	52.05
705.319	52.01
705.638	51.65
705.958	51.82
706.278	52.82
706.597	52.18
706.917	51.9
707.237	52.29
707.556	53.15
707.876	52.62
708.195	52.52
708.514	52.46
708.834	52.49
709.153	53.38
709.472	52.06
709.791	52.49
710.11	52.74
710.429	53.17
710.748	52.29
711.067	52.08
711.386	51.97
711.705	52.55
712.023	52.28
712.342	51.54
712.661	52.82
712.979	53.5
713.298	52.89
713.616	51.6
713.935	52.84
714.253	52.28
714.572	53.2
714.89	53.39
715.208	52.48
715.526	52.34
715.844	53.35
716.162	51.37
716.48	53
716.798	53.59
717.116	53.02
717.434	52.14
717.752	52.44
718.069	52.97
718.387	52.43
718.705	51.97
719.022	52.35
719.34	53.51
719.657	53.94
719.975	52.91
720.292	52.16
720.609	52.62
720.927	53.51
721.244	51.97
721.561	53.55
721.878	53.76
722.195	52.45
722.512	53.32
722.829	52.8
723.146	52.41
723.463	52.89
723.779	51.54
724.096	51.98
724.413	53.88
724.729	53.42
725.046	53.7
725.362	54.18
725.679	52.72
725.995	52.96
726.311	53.52
726.628	53.91
726.944	53.36
727.26	53.42
727.576	53.46
727.892	54.06
728.208	53.3
728.524	52.63
728.84	53.95
729.156	53.83
729.472	52.97
729.787	52.16
730.103	53.67
730.419	53.42
730.734	54.01
731.05	52.84
731.365	54.55
731.681	53.78
731.996	53.72
732.311	53.14
732.626	53.44
732.942	53.55
733.257	53.07
733.572	53.79
733.887	54.42
734.202	53.04
734.517	54.17
734.832	54.35
735.146	53.71
735.461	53.39
735.776	53.74
736.091	53.48
736.405	53.25
736.72	54.25
737.034	53.74
737.349	53.6
737.663	52.76
737.977	52.48
738.292	54.93
738.606	53.52
738.92	54.44
739.234	53.12
739.548	54.67
739.862	52.8
740.176	54.21
740.49	56.15
740.804	55.21
741.117	53.74
741.431	54.41
741.745	55.03
742.058	54.19
742.372	53.31
742.685	53.75
742.999	53.28
743.312	56.1
743.626	54.71
743.939	53.92
744.252	54.39
744.565	53.05
744.878	53.59
745.191	54.95
745.505	54.89
745.817	53.53
746.13	55.35
746.443	54.83
746.756	53.42
747.069	55.61
747.381	52.29
747.694	54.99
748.007	54.84
748.319	55.22
748.632	55.07
748.944	54.67
749.256	53.32
749.569	55.47
749.881	53.61
750.193	55.09
750.505	52.56
750.817	54.64
751.129	54.38
751.441	53.12
751.753	53.43
752.065	53.9
752.377	55.12
752.689	55.75
753	56.57
753.312	55.25
753.624	53.83
753.935	54.96
754.247	55.47
754.558	56.17
754.869	55.73
755.181	53.95
755.492	54.59
755.803	55.67
756.114	55.16
756.425	54.2
756.736	54.07
757.047	53.51
757.358	54.45
757.669	54.06
757.98	55.16
758.291	55.38
758.601	53.79
758.912	54.56
759.223	55.06
759.533	52.76
759.844	54.88
760.154	55.68
760.464	54.74
760.775	55.35
761.085	53.42
761.395	55.19
761.705	54.8
762.016	55.7
762.326	54.35
762.636	56.04
762.945	54.04
763.255	55.44
763.565	55.95
763.875	55.41
764.185	54.97
764.494	53.78
764.804	54.38
765.113	55.39
765.423	55.2
765.732	55.03
766.042	55.78
766.351	55.15
766.66	56.25
766.97	54.69
767.279	56.03
767.588	55.89
767.897	56.29
768.206	54.07
768.515	55.92
768.824	56.85
769.133	53.72
769.441	54.35
769.75	55.29
770.059	55.5
770.367	55.48
770.676	53.1
770.984	55.44
771.293	55.5
771.601	53.99
771.91	54.28
772.218	53.7
772.526	53.93
772.834	56.75
773.142	57.37
773.45	55.13
773.758	57.19
774.066	55.07
774.374	55.08
774.682	56.57
774.99	56.7
775.298	55.19
775.605	56.23
775.913	52.19
776.22	54.24
776.528	55.08
776.835	53.67
777.143	55.6
777.45	54.88
777.757	56.02
778.065	56.17
778.372	55.41
778.679	58.59
778.986	56.01
779.293	55.95
779.6	53.97
779.907	56.22
780.214	54.92
780.52	54.52
780.827	52.78
781.134	57.52
781.44	54.5
781.747	57.35
782.053	56.38
782.36	56.33
782.666	52.26
782.973	54.26
783.279	55.87
783.585	55.38
783.891	55.75
784.197	54.88
784.503	55.67
784.809	56.08
785.115	55.07
785.421	58.49
785.727	55.07
786.033	54
786.339	56.47
786.644	54.37
786.95	55.87
787.255	57.65
787.561	52.97
787.866	56.66
788.172	56.72
788.477	53.5
788.782	55.86
789.088	52.94
789.393	56.43
789.698	55.84
790.003	53.16
790.308	58.71
790.613	55.51
790.918	54.92
791.223	54.56
791.527	56.91
791.832	57.26
792.137	54.66
792.441	56.09
792.746	53.55
793.05	55.22
793.355	55.9
793.659	56.34
793.963	53.32
794.268	56.7
794.572	52.15
794.876	59.13
795.18	58.3
795.484	56.44
795.788	54.99
796.092	55.34
796.396	54.77
796.7	55.94
797.004	56.27
797.307	55.17
797.611	55.45
797.915	57.02
798.218	57.13
798.522	55.32
798.825	56.45
799.128	54.14
799.432	55.03
799.735	60.46
800.038	60.07
800.341	55.24
800.644	56.07
800.947	56.78
801.25	54.57
801.553	59.05
801.856	56.54
802.159	59.75
802.462	58.44
802.764	55.94
803.067	56.5
803.37	55.16
803.672	52.31
803.975	56.38
804.277	54.5
804.579	56.04
804.882	56.07
805.184	58.56
805.486	55.4
805.788	57.77
806.09	54.79
806.392	58.94
806.694	52.84
806.996	56.98
807.298	56.26
807.6	59.94
807.902	57.55
808.203	54.84
808.505	51.45
808.807	58.38
809.108	57.05
809.409	60.84
809.711	57.15
810.012	56.85
810.313	55.48
810.615	55.64
810.916	60.04
811.217	55.59
811.518	55.5
811.819	53.9
812.12	59.09
812.421	56.42
812.722	58.31
813.023	59.38
813.323	57.44
813.624	51.63
813.925	59.6
814.225	55.93
814.526	55.21
814.826	56.24
815.126	60.21
815.427	56.62
815.727	54.16
816.027	54.88
816.327	61.87
816.627	59.44
816.927	53.91
817.227	52.17
817.527	51.57
817.827	55.42
818.127	55.93
818.427	54.27
818.727	61.75
819.026	58.87
819.326	51.9
819.625	58.84
819.925	62.45
820.224	52.83
820.524	61.39
820.823	57.47
821.122	60.26
821.421	57.64
821.72	60.88
822.019	61.6
822.318	56.68
822.617	57.28
822.916	58.58
823.215	54.87
823.514	57.49
823.813	57.33
824.111	58.01
824.41	59.28
824.709	58.24
825.007	58.81
825.306	57.61
825.604	57.46
825.902	58.42
826.201	58.27
826.499	56.8
826.797	57.88
827.095	58.72
827.393	57.7
827.691	58.9
827.989	56.61
828.287	57.52
828.585	58.41
828.882	57.58
829.18	58.06
829.478	59.16
829.775	57.66
830.073	57.45
830.37	59.29
830.668	60.14
830.965	55.96
831.263	56.85
831.56	59.77
831.857	61.56
832.154	58.27
832.451	59.9
832.748	57.32
833.045	55.96
833.342	58.77
833.639	52.77
833.936	58.13
834.232	60.37
834.529	53.37
834.826	51.55
835.122	60.86
835.419	57.77
835.715	60.89
836.012	55.49
836.308	58.17
836.604	58.34
836.901	57.3
837.197	57.02
837.493	61.34
837.789	57.07
838.085	58.46
838.381	55.78
838.677	60.84
838.972	58.83
839.268	59.17
839.564	54.64
839.86	55.75
840.155	58.33
840.451	63.57
840.746	58.9
841.042	57.38
841.337	57.1
841.632	60.07
841.928	57.72
842.223	55.96
842.518	48.36
842.813	62.2
843.108	54.57
843.403	60.4
843.698	57.66
843.993	59.62
844.287	57.75
844.582	62.02
844.877	54.14
845.171	51.63
845.466	51.85
845.761	51.25
846.055	52.35
846.349	58.29
846.644	59.14
846.938	61.33
847.232	54.08
847.526	58.85
847.82	63.45
848.114	54.28
848.408	64.55
848.702	49.24
848.996	58.69
849.29	55.95
849.584	47.07
849.877	49.76
850.171	49.48
850.465	66.88
850.758	63.67
851.052	48.9
851.345	57.21
851.638	74.49
851.932	49.31
852.225	47.87
852.518	58.75
852.811	43.46
853.104	71.16
853.397	56.43
853.69	55.09
853.983	67.84
854.276	48.53
854.569	58.95
854.861	46.81
855.154	36.27
855.447	45.75
855.739	39.46
856.032	64.41
856.324	66.14
856.616	48.44
856.909	55.02
857.201	65.52
857.493	55.21
857.785	58.13
858.077	54.89
858.369	76.65
858.661	53.36
858.953	38.95
859.245	41.69
859.537	66.73
859.829	54.31
860.12	62.85
860.412	53.34
860.703	58.95
860.995	66.05
861.286	60.58
861.578	73.89
861.869	53.16
862.16	44.05
862.452	58.95
862.743	80.49
863.034	79.96
863.325	43.36
863.616	38.74
863.907	70.35
864.198	57.52
864.488	56.09
864.779	53.08
865.07	47.52
865.36	47.42
865.651	66.21
865.941	54.95
866.232	62.14
866.522	63.58
866.813	31.47
867.103	64.89
867.393	61.99
867.683	57.31
867.973	56.17
868.263	56.62
868.553	58.47
868.843	56.05
869.133	44.16
869.423	56.93
869.713	28.06
870.002	75.51
870.292	53.69
870.582	55.28
870.871	50.03
871.161	74.74
871.45	50.93
871.739	77.46
872.029	46.56
872.318	35.43
872.607	53.03
872.896	56.98
873.185	45.85
873.474	76.39
873.763	62.22
874.052	51.94
874.341	61.08
874.63	28.3
874.918	55.29
875.207	50.26
875.496	59.82
875.784	44.46
876.073	65.83
876.361	48.11
876.649	38.74
876.938	28.72
877.226	81.71
877.514	53.42
877.802	54.04
878.09	42.94
878.378	68.98
878.666	58.16
878.954	67.61
879.242	54.54
879.53	51.1
879.817	51.61
880.105	47.12
880.392	37.39
880.68	54.51
880.967	72.66
881.255	61.95
881.542	80.65
881.83	64
882.117	38.72
882.404	58.48
882.691	55.68
882.978	53.05
883.265	63.91
883.552	61.72
883.839	51.66
884.126	61.1
884.413	57.2
884.699	66.16
884.986	62.03
885.273	63.13
885.559	63.13
885.846	63.13
