Data from 0061_crown_Reflection__3__186.txt Node

Date: Fri Dec 16 15:27:30 CST 2022
User: ToomeyLab
Spectrometer: FLMS14357
Trigger mode: 0
Integration Time (sec): 1.000000E-2
Scans to average: 100
Electric dark correction enabled: true
Nonlinearity correction enabled: false
Boxcar width: 0
XAxis mode: Wavelengths
Number of Pixels in Spectrum: 2048
>>>>>Begin Spectral Data<<<<<
189.047	60.37
189.435	60.37
189.823	60.37
190.211	-79.57
190.599	877.72
190.987	-0.14
191.375	-260.36
191.763	80.81
192.151	247.02
192.538	193.03
192.926	-95.28
193.314	89.58
193.702	45.24
194.089	-2801.14
194.477	-4.23
194.864	50.54
195.252	27.61
195.639	69.14
196.027	-85.37
196.414	-87.32
196.801	-47.26
197.189	66.9
197.576	-37.56
197.963	-618.65
198.351	0.65
198.738	-33.2
199.125	24.84
199.512	-3.8
199.899	-35.59
200.286	-29.97
200.673	43.75
201.06	44.57
201.447	5.07
201.833	-5.7
202.22	-0.43
202.607	12.34
202.994	-5.53
203.38	12.37
203.767	-2.85
204.154	-5.43
204.54	27.54
204.927	18.08
205.313	31.73
205.699	18.2
206.086	-3
206.472	-5.82
206.858	6.06
207.245	-6.34
207.631	-49.56
208.017	30.42
208.403	-1.96
208.789	4.77
209.175	46.71
209.561	26.79
209.947	-17.85
210.333	-24.14
210.719	2.2
211.105	-46.63
211.491	5.19
211.876	-0.11
212.262	-7.16
212.648	-54.76
213.034	9.77
213.419	40.4
213.805	-10.34
214.19	-31.87
214.576	-53.16
214.961	-7.01
215.346	-41.08
215.732	4.84
216.117	-18.12
216.502	-29.66
216.888	-64.92
217.273	-2.15
217.658	-35.29
218.043	-18.85
218.428	-19.02
218.813	-18.38
219.198	-22.5
219.583	-1.42
219.968	-23.08
220.353	27.19
220.738	-25.83
221.122	3.46
221.507	-5.98
221.892	-17.17
222.276	-0.24
222.661	-3.85
223.046	-1.32
223.43	-4.86
223.815	-3.66
224.199	0.57
224.583	0.41
224.968	5.73
225.352	4.29
225.736	15.36
226.121	0.57
226.505	0.94
226.889	10.87
227.273	8.58
227.657	6.12
228.041	6.65
228.425	4.23
228.809	3.31
229.193	4.69
229.577	5.98
229.961	6.18
230.344	6.07
230.728	5.5
231.112	6
231.495	5.59
231.879	5.14
232.263	4.63
232.646	4.47
233.03	4.56
233.413	4.65
233.797	9.01
234.18	3.36
234.563	3.66
234.946	5.61
235.33	5.97
235.713	5.35
236.096	4.37
236.479	7.32
236.862	6.05
237.245	5.06
237.628	6.07
238.011	4.16
238.394	5.7
238.777	5.19
239.16	3.09
239.543	4.5
239.925	5.67
240.308	6.65
240.691	5.1
241.073	5.49
241.456	5.2
241.838	4.67
242.221	5.8
242.603	5.92
242.986	6.28
243.368	5.58
243.75	5.23
244.133	5.58
244.515	5.42
244.897	5.51
245.279	5.48
245.661	5.93
246.043	5.6
246.425	5.73
246.807	5.35
247.189	5.54
247.571	5.48
247.953	5.47
248.335	5.59
248.717	5.37
249.098	5.66
249.48	5.07
249.862	5.6
250.243	5.56
250.625	5.41
251.006	5.52
251.388	5.62
251.769	5.09
252.151	4.37
252.532	5.29
252.913	5.75
253.295	5.72
253.676	5.64
254.057	5.03
254.438	5.13
254.819	5.38
255.2	5.32
255.581	5.46
255.962	4.9
256.343	6.09
256.724	5.07
257.105	4.76
257.486	4.83
257.867	3.1
258.247	5.46
258.628	5.5
259.009	5.44
259.389	5.71
259.77	4.85
260.15	5.31
260.531	4.92
260.911	5.34
261.292	5.2
261.672	5.29
262.052	5.26
262.432	5.06
262.813	5.03
263.193	4.79
263.573	5.09
263.953	4.93
264.333	5.18
264.713	4.59
265.093	4.56
265.473	5.56
265.853	4.86
266.233	4.31
266.612	4.7
266.992	5.1
267.372	5.26
267.752	4.84
268.131	5.49
268.511	5.41
268.89	5.52
269.27	5.3
269.649	5.24
270.029	5.31
270.408	4.67
270.787	4.59
271.167	5.61
271.546	4.74
271.925	5.13
272.304	5.37
272.683	4.77
273.062	4.99
273.441	5.1
273.82	5.12
274.199	5.15
274.578	4.79
274.957	5.08
275.336	5.13
275.715	5.17
276.093	5.59
276.472	5.07
276.851	5.31
277.229	5.38
277.608	4.82
277.986	5.33
278.365	4.87
278.743	5.34
279.122	4.66
279.5	4.21
279.878	4.35
280.257	5.08
280.635	4.34
281.013	5.38
281.391	4.97
281.769	4.54
282.147	5.38
282.525	4.7
282.903	4.75
283.281	4.96
283.659	4.89
284.037	4.68
284.415	5.04
284.792	4.7
285.17	4.56
285.548	4.86
285.925	4.68
286.303	4.81
286.68	5.31
287.058	5.02
287.435	4.73
287.813	4.84
288.19	5.14
288.567	4.83
288.945	4.86
289.322	4.23
289.699	4.86
290.076	4.74
290.453	4.7
290.83	5.02
291.207	4.72
291.584	4.58
291.961	5.07
292.338	4.76
292.715	4.8
293.092	4.45
293.469	5.22
293.845	5.19
294.222	4.59
294.599	4.67
294.975	4.7
295.352	4.54
295.728	4.69
296.105	4.73
296.481	5.38
296.858	4.61
297.234	4.64
297.61	4.72
297.986	4.93
298.363	4.42
298.739	5.06
299.115	4.66
299.491	4.87
299.867	4.83
300.243	4.9
300.619	4.83
300.995	4.75
301.371	5.2
301.746	4.73
302.122	4.69
302.498	4.66
302.874	4.75
303.249	4.88
303.625	5.3
304	4.25
304.376	4.96
304.751	4.48
305.127	4.89
305.502	5.05
305.878	4.38
306.253	4.19
306.628	5.05
307.003	4.89
307.378	4.53
307.754	4.58
308.129	4.64
308.504	4.63
308.879	4.8
309.254	4.93
309.629	4.74
310.003	5.14
310.378	4.87
310.753	4.67
311.128	4.93
311.502	4.57
311.877	4.62
312.252	4.38
312.626	4.57
313.001	4.87
313.375	4.6
313.75	4.8
314.124	5.17
314.498	4.28
314.873	4.86
315.247	4.44
315.621	4.8
315.995	4.38
316.369	4.66
316.743	4.85
317.117	4.64
317.491	4.61
317.865	4.06
318.239	5.04
318.613	4.43
318.987	5.39
319.361	4.5
319.734	4.67
320.108	4.97
320.482	5.03
320.855	4.98
321.229	5.03
321.602	4.93
321.976	4.76
322.349	3.69
322.723	4.71
323.096	3.91
323.469	4.19
323.843	4.65
324.216	4.72
324.589	5.08
324.962	4.72
325.335	4.65
325.708	4.49
326.081	4.88
326.454	4.76
326.827	4.43
327.2	4.79
327.573	5.08
327.945	4.58
328.318	4.6
328.691	4.35
329.063	4.35
329.436	4.51
329.809	4.31
330.181	4.34
330.553	4.57
330.926	5.03
331.298	4.16
331.671	4.7
332.043	4.38
332.415	4.59
332.787	5.34
333.159	4.71
333.532	4.64
333.904	4.52
334.276	4.74
334.648	4.78
335.02	4.3
335.391	5.6
335.763	4.34
336.135	4.42
336.507	4.98
336.879	4.12
337.25	4.46
337.622	4.66
337.993	5.04
338.365	4.55
338.736	5.11
339.108	4.52
339.479	4.85
339.851	4.65
340.222	4.88
340.593	4.49
340.964	4.54
341.336	4.12
341.707	4.59
342.078	4.08
342.449	5.08
342.82	4.63
343.191	4.49
343.562	4.62
343.933	4.52
344.303	4.94
344.674	4.54
345.045	4.74
345.416	4.81
345.786	4.14
346.157	4.74
346.527	4.27
346.898	4.36
347.268	4.17
347.639	4.28
348.009	5.25
348.38	4.77
348.75	4.85
349.12	4.91
349.49	4.02
349.861	4.56
350.231	4.96
350.601	4.53
350.971	4.8
351.341	4.71
351.711	4.31
352.081	4.72
352.45	4.56
352.82	4.6
353.19	4.2
353.56	4.45
353.929	5.03
354.299	4.69
354.669	5.06
355.038	4.72
355.408	5.12
355.777	4.59
356.147	4.79
356.516	4.99
356.885	4.6
357.254	5.04
357.624	4.72
357.993	4.48
358.362	4.99
358.731	4.38
359.1	4.9
359.469	4.82
359.838	4.39
360.207	4.35
360.576	4.77
360.945	4.65
361.314	5.03
361.682	4.31
362.051	4.62
362.42	4.77
362.788	4.59
363.157	4.68
363.525	4.63
363.894	4.49
364.262	4.59
364.631	5.19
364.999	4.52
365.367	5.08
365.735	4.24
366.104	4.63
366.472	4.65
366.84	4.77
367.208	4.39
367.576	4.85
367.944	5.03
368.312	4.23
368.68	4.68
369.048	5.07
369.416	4.79
369.783	4.72
370.151	4.73
370.519	4.75
370.886	4.77
371.254	4.57
371.621	4.81
371.989	4.73
372.356	4.82
372.724	4.88
373.091	4.85
373.458	4.82
373.826	4.7
374.193	5.51
374.56	4.79
374.927	4.83
375.294	5.18
375.661	4.84
376.028	4.62
376.395	4.8
376.762	4.83
377.129	5.11
377.496	5.1
377.863	4.84
378.229	4.72
378.596	4.68
378.963	4.86
379.329	4.79
379.696	4.93
380.062	5.04
380.429	4.98
380.795	4.61
381.161	5.04
381.528	4.4
381.894	5.08
382.26	4.99
382.626	4.75
382.993	4.81
383.359	4.69
383.725	5.18
384.091	4.91
384.457	5.27
384.823	4.96
385.188	5.16
385.554	5.02
385.92	5.22
386.286	4.97
386.651	4.74
387.017	4.88
387.383	5.03
387.748	4.68
388.114	5
388.479	5.24
388.845	4.95
389.21	5.04
389.575	4.91
389.94	4.95
390.306	4.99
390.671	4.95
391.036	5.23
391.401	5.27
391.766	4.98
392.131	4.98
392.496	4.95
392.861	4.83
393.226	4.99
393.591	5.04
393.956	5.13
394.32	4.99
394.685	5.21
395.05	4.76
395.414	5
395.779	4.9
396.143	5.13
396.508	5.15
396.872	5.08
397.236	4.8
397.601	5.1
397.965	4.95
398.329	5.03
398.694	5.26
399.058	4.96
399.422	5.35
399.786	5.4
400.15	4.98
400.514	5.02
400.878	4.97
401.242	4.99
401.605	5.03
401.969	5.21
402.333	5.15
402.697	5.22
403.06	5.04
403.424	5.09
403.787	5.39
404.151	5.05
404.514	5.32
404.878	5.09
405.241	5.12
405.604	5.12
405.968	5.17
406.331	5.33
406.694	5.08
407.057	5.4
407.42	5.19
407.783	5.08
408.146	4.97
408.509	4.95
408.872	4.97
409.235	5.26
409.598	5.37
409.961	5.11
410.323	5.28
410.686	5.07
411.049	5.05
411.411	4.98
411.774	5.15
412.136	5.29
412.499	5.27
412.861	5.14
413.223	5.4
413.586	5.2
413.948	5.42
414.31	5.53
414.672	5.12
415.035	5.41
415.397	5.29
415.759	5.12
416.121	5.55
416.483	5.29
416.845	5.34
417.206	5.31
417.568	5.35
417.93	5.16
418.292	5.21
418.653	5.47
419.015	5.22
419.377	5.22
419.738	5.15
420.1	5.29
420.461	5.21
420.822	5.27
421.184	5.22
421.545	5.18
421.906	5.18
422.267	5.12
422.629	5.14
422.99	5.23
423.351	5.16
423.712	5.19
424.073	5.24
424.434	5.1
424.795	5.04
425.155	5.17
425.516	5.21
425.877	5.23
426.238	5.1
426.598	5.21
426.959	5.22
427.32	5.28
427.68	5.25
428.041	5.18
428.401	5.18
428.761	5.38
429.122	5.25
429.482	5.16
429.842	5.3
430.202	5.34
430.563	5.23
430.923	5.16
431.283	5.4
431.643	5.29
432.003	5.53
432.363	5.59
432.722	5.52
433.082	5.35
433.442	5.3
433.802	5.49
434.161	5.24
434.521	5.42
434.881	5.6
435.24	5.32
435.6	5.42
435.959	5.31
436.319	5.28
436.678	5.38
437.037	5.43
437.396	5.4
437.756	5.53
438.115	5.36
438.474	5.55
438.833	5.56
439.192	5.57
439.551	5.56
439.91	5.45
440.269	5.58
440.628	5.37
440.987	5.39
441.345	5.33
441.704	5.41
442.063	5.41
442.421	5.37
442.78	5.34
443.138	5.43
443.497	5.35
443.855	5.51
444.214	5.53
444.572	5.44
444.93	5.6
445.288	5.51
445.647	5.59
446.005	5.41
446.363	5.48
446.721	5.35
447.079	5.47
447.437	5.41
447.795	5.49
448.153	5.37
448.51	5.44
448.868	5.51
449.226	5.5
449.584	5.38
449.941	5.63
450.299	5.49
450.656	5.59
451.014	5.52
451.371	5.6
451.729	5.56
452.086	5.5
452.443	5.54
452.801	5.77
453.158	5.69
453.515	5.56
453.872	5.66
454.229	5.54
454.586	5.55
454.943	5.61
455.3	5.62
455.657	5.54
456.014	5.63
456.371	5.63
456.727	5.52
457.084	5.6
457.441	5.59
457.797	5.61
458.154	5.54
458.51	5.72
458.867	5.42
459.223	5.59
459.58	5.64
459.936	5.53
460.292	5.61
460.648	5.51
461.005	5.46
461.361	5.54
461.717	5.5
462.073	5.53
462.429	5.56
462.785	5.64
463.141	5.76
463.496	5.51
463.852	5.84
464.208	5.69
464.564	5.58
464.919	5.59
465.275	5.63
465.631	5.75
465.986	5.7
466.342	5.54
466.697	5.52
467.052	5.77
467.408	5.75
467.763	5.64
468.118	5.81
468.473	5.84
468.829	5.83
469.184	5.75
469.539	5.63
469.894	5.67
470.249	5.75
470.603	5.64
470.958	5.71
471.313	5.75
471.668	5.81
472.023	5.85
472.377	5.73
472.732	5.76
473.086	5.7
473.441	5.78
473.795	6
474.15	5.66
474.504	5.73
474.859	5.75
475.213	5.87
475.567	5.66
475.921	5.9
476.275	5.75
476.63	5.82
476.984	5.75
477.338	5.96
477.692	5.81
478.045	5.82
478.399	5.85
478.753	5.77
479.107	5.7
479.461	5.89
479.814	5.8
480.168	5.89
480.521	5.76
480.875	5.92
481.228	5.79
481.582	5.62
481.935	5.79
482.289	5.8
482.642	5.81
482.995	5.81
483.348	5.63
483.701	5.75
484.055	5.7
484.408	5.63
484.761	5.57
485.114	5.47
485.466	5.45
485.819	5.46
486.172	5.5
486.525	5.62
486.878	5.63
487.23	5.74
487.583	5.74
487.936	5.75
488.288	5.64
488.641	5.63
488.993	5.56
489.345	5.55
489.698	5.63
490.05	5.66
490.402	5.73
490.754	5.8
491.107	5.81
491.459	5.83
491.811	5.92
492.163	5.84
492.515	5.78
492.866	5.62
493.218	5.64
493.57	5.7
493.922	5.72
494.274	5.85
494.625	5.75
494.977	5.92
495.328	6.01
495.68	6.09
496.031	6
496.383	5.92
496.734	6.04
497.086	5.93
497.437	6.07
497.788	5.9
498.139	5.97
498.49	5.89
498.842	5.98
499.193	5.95
499.544	6.11
499.894	6.07
500.245	6.01
500.596	5.92
500.947	5.83
501.298	5.86
501.648	5.99
501.999	6.17
502.35	6.08
502.7	6.07
503.051	6.16
503.401	6.13
503.752	6.04
504.102	6.19
504.452	6.02
504.803	5.87
505.153	6.18
505.503	6.09
505.853	6.05
506.203	6.07
506.553	6.23
506.903	6.12
507.253	6.13
507.603	6.05
507.953	6.31
508.303	6.19
508.652	6.17
509.002	6.16
509.352	6.03
509.701	6.17
510.051	6.16
510.4	6.09
510.75	6.11
511.099	6.07
511.449	6.14
511.798	6.17
512.147	6.25
512.496	6.1
512.846	6.07
513.195	6.18
513.544	6.18
513.893	6.11
514.242	6.13
514.591	6.22
514.939	6.12
515.288	6.2
515.637	6.28
515.986	6.19
516.334	6.34
516.683	6.28
517.032	6.24
517.38	6.22
517.729	6.19
518.077	6.28
518.426	6.21
518.774	6.18
519.122	6.2
519.47	6.22
519.819	6.15
520.167	6.14
520.515	6.21
520.863	6.18
521.211	6.16
521.559	6.19
521.907	6.24
522.255	6.31
522.602	6.43
522.95	6.23
523.298	6.19
523.645	6.27
523.993	6.42
524.341	6.3
524.688	6.26
525.036	6.39
525.383	6.48
525.73	6.33
526.078	6.35
526.425	6.19
526.772	6.16
527.119	6.21
527.466	6.18
527.814	6.27
528.161	6.29
528.508	6.21
528.854	6.06
529.201	6.13
529.548	6.06
529.895	5.99
530.242	5.98
530.588	6.04
530.935	6.04
531.282	6.14
531.628	6.19
531.975	6.26
532.321	6.22
532.667	6.29
533.014	6.23
533.36	6.28
533.706	6.29
534.052	6.26
534.399	6.15
534.745	6.12
535.091	6.15
535.437	6.19
535.783	6.32
536.129	6.29
536.474	6.37
536.82	6.39
537.166	6.38
537.512	6.4
537.857	6.26
538.203	6.33
538.549	6.32
538.894	6.31
539.239	6.52
539.585	6.44
539.93	6.51
540.276	6.45
540.621	6.44
540.966	6.6
541.311	6.49
541.656	6.42
542.001	6.44
542.346	6.35
542.691	6.18
543.036	6.23
543.381	6.3
543.726	6.3
544.071	6.39
544.415	6.44
544.76	6.27
545.105	6.43
545.449	6.35
545.794	6.48
546.138	6.53
546.483	6.54
546.827	6.4
547.171	6.51
547.516	6.6
547.86	6.53
548.204	6.52
548.548	6.58
548.892	6.48
549.236	6.7
549.58	6.6
549.924	6.53
550.268	6.77
550.612	6.66
550.956	6.56
551.3	6.59
551.643	6.8
551.987	6.58
552.33	6.5
552.674	6.66
553.017	6.8
553.361	6.67
553.704	6.56
554.048	6.78
554.391	6.62
554.734	6.68
555.077	6.76
555.42	6.69
555.764	6.65
556.107	6.8
556.45	6.66
556.793	6.96
557.135	6.87
557.478	6.86
557.821	6.75
558.164	6.9
558.507	6.79
558.849	6.75
559.192	6.83
559.534	6.69
559.877	6.87
560.219	7.05
560.562	6.83
560.904	6.85
561.246	6.93
561.589	6.91
561.931	7.12
562.273	6.75
562.615	6.92
562.957	6.95
563.299	6.78
563.641	6.84
563.983	6.84
564.325	6.68
564.667	6.76
565.008	6.83
565.35	7.05
565.692	7.06
566.033	6.92
566.375	6.66
566.716	6.94
567.058	7.02
567.399	6.84
567.741	7.03
568.082	6.91
568.423	6.76
568.764	7.1
569.105	6.98
569.447	6.76
569.788	6.95
570.129	6.96
570.47	6.96
570.811	7.14
571.151	7.07
571.492	7.17
571.833	6.91
572.174	7.01
572.514	6.85
572.855	6.89
573.195	6.91
573.536	6.88
573.876	6.95
574.217	6.99
574.557	7.1
574.898	6.96
575.238	6.93
575.578	7.05
575.918	6.91
576.258	7.07
576.598	7.02
576.938	7.21
577.278	7.03
577.618	6.94
577.958	6.94
578.298	6.98
578.638	6.94
578.977	7.15
579.317	7.29
579.657	7.11
579.996	7.19
580.336	6.96
580.675	7.3
581.014	7.19
581.354	7.23
581.693	7.12
582.032	7.03
582.372	7.33
582.711	7.09
583.05	7.31
583.389	7.12
583.728	7.25
584.067	7.22
584.406	7.23
584.745	7.11
585.083	7.33
585.422	7.29
585.761	7.21
586.1	7.36
586.438	7.3
586.777	7.34
587.115	7.22
587.454	7.17
587.792	7.21
588.13	7.4
588.469	7.36
588.807	7.12
589.145	7.3
589.483	7.05
589.821	7.37
590.159	7.1
590.497	7
590.835	7.2
591.173	7.45
591.511	7.3
591.849	7.48
592.187	7.38
592.524	7.33
592.862	7.29
593.2	7.27
593.537	7.33
593.875	7.17
594.212	7.35
594.55	7.2
594.887	7.6
595.224	7.37
595.561	7.41
595.899	7.29
596.236	7.46
596.573	7.07
596.91	7.2
597.247	7.22
597.584	7.33
597.921	7.59
598.258	7.46
598.594	7.25
598.931	7.23
599.268	7.25
599.604	7.38
599.941	7.18
600.277	7.38
600.614	7.4
600.95	7.48
601.287	7.62
601.623	7.52
601.959	7.28
602.296	7.42
602.632	7.57
602.968	7.43
603.304	7.3
603.64	7.45
603.976	7.15
604.312	7.56
604.648	7.55
604.984	7.41
605.319	7.3
605.655	7.3
605.991	7.48
606.326	7.3
606.662	7.25
606.998	7.57
607.333	7.43
607.668	7.61
608.004	7.53
608.339	7.8
608.674	7.57
609.01	7.51
609.345	7.81
609.68	7.48
610.015	7.71
610.35	7.73
610.685	7.34
611.02	7.65
611.355	7.56
611.689	7.39
612.024	7.66
612.359	7.67
612.694	7.83
613.028	7.91
613.363	7.42
613.697	7.75
614.032	7.76
614.366	7.61
614.7	8.31
615.035	7.4
615.369	7.72
615.703	7.99
616.037	7.69
616.371	7.71
616.705	7.67
617.039	7.69
617.373	7.7
617.707	7.89
618.041	7.87
618.375	7.72
618.709	7.84
619.042	7.75
619.376	7.55
619.71	7.62
620.043	7.69
620.377	7.68
620.71	7.67
621.043	7.51
621.377	7.68
621.71	8.01
622.043	8.07
622.376	7.42
622.709	7.93
623.043	8.13
623.376	7.95
623.709	7.7
624.041	7.75
624.374	7.7
624.707	7.81
625.04	7.73
625.373	7.65
625.705	7.77
626.038	7.86
626.37	8.01
626.703	7.89
627.035	8.25
627.368	7.97
627.7	8.04
628.032	7.96
628.365	7.84
628.697	7.76
629.029	8.18
629.361	7.92
629.693	8.04
630.025	7.83
630.357	7.68
630.689	8.3
631.021	8.17
631.353	7.84
631.684	8.03
632.016	7.72
632.348	8.09
632.679	7.66
633.011	7.97
633.342	7.77
633.674	8.11
634.005	8.05
634.336	7.83
634.668	7.66
634.999	8.13
635.33	8.04
635.661	7.87
635.992	8
636.323	8.11
636.654	8.35
636.985	8.05
637.316	8.46
637.647	8.45
637.977	8.07
638.308	8.02
638.639	7.86
638.969	8.18
639.3	8.25
639.63	8.15
639.961	8.01
640.291	8.37
640.622	7.78
640.952	7.9
641.282	7.58
641.612	8.16
641.943	8.38
642.273	8.09
642.603	8.13
642.933	8.48
643.263	8.57
643.592	8.08
643.922	8.41
644.252	8.1
644.582	8.46
644.911	7.77
645.241	8.2
645.571	7.96
645.9	8.57
646.23	8.23
646.559	7.91
646.888	8.3
647.218	8.58
647.547	8.34
647.876	8.1
648.205	8.21
648.534	8.19
648.863	8.34
649.192	8.06
649.521	7.89
649.85	8.19
650.179	7.66
650.508	8.49
650.837	8.66
651.165	8.57
651.494	8.35
651.822	8.88
652.151	8.69
652.479	8.56
652.808	8.17
653.136	8.08
653.465	8.69
653.793	8.63
654.121	8.79
654.449	8.22
654.777	8.45
655.105	8.36
655.433	8.36
655.761	8.2
656.089	8.61
656.417	8.31
656.745	9.16
657.073	8.7
657.4	8.73
657.728	8.53
658.056	8.24
658.383	8.83
658.711	8.45
659.038	8.51
659.365	8.7
659.693	8.55
660.02	8.16
660.347	8.5
660.674	8.46
661.001	8.15
661.329	8.37
661.656	8.14
661.982	8.69
662.309	8.65
662.636	8.61
662.963	8.54
663.29	8.42
663.616	8.73
663.943	9.02
664.27	8.71
664.596	8.39
664.923	9.05
665.249	8.85
665.576	8.55
665.902	8.72
666.228	8.41
666.554	8.36
666.881	8.83
667.207	8.23
667.533	8.82
667.859	8.29
668.185	8.83
668.511	8.61
668.837	7.7
669.162	9.03
669.488	8.75
669.814	9.11
670.139	9.23
670.465	8.9
670.791	8.89
671.116	8.27
671.442	9.04
671.767	8.4
672.092	8.83
672.418	9.27
672.743	8.6
673.068	8.37
673.393	9.08
673.718	8.71
674.043	9.14
674.368	8.78
674.693	8.17
675.018	8.85
675.343	9.15
675.667	8.78
675.992	8.06
676.317	9.13
676.641	9.07
676.966	8.8
677.29	8.81
677.615	9.05
677.939	8.52
678.264	8.73
678.588	9.15
678.912	9.26
679.236	8.7
679.56	8.93
679.885	8.74
680.209	8.59
680.532	9.43
680.856	9.47
681.18	9.32
681.504	8.42
681.828	8.43
682.152	9.11
682.475	9.17
682.799	8.98
683.122	8.48
683.446	8.94
683.769	9.15
684.093	9.18
684.416	9.28
684.739	8.88
685.062	9.52
685.386	9.2
685.709	8.97
686.032	8.97
686.355	8.99
686.678	9.24
687.001	8.55
687.324	8.97
687.646	8.92
687.969	8.28
688.292	9.48
688.614	9.95
688.937	9.28
689.26	8.86
689.582	8.86
689.904	8.93
690.227	9.68
690.549	9.34
690.871	8.95
691.194	9.24
691.516	9.39
691.838	9.52
692.16	9.73
692.482	9.43
692.804	8.91
693.126	9.56
693.448	9.28
693.769	9.38
694.091	9.55
694.413	9.55
694.735	9.63
695.056	9.73
695.378	9.93
695.699	10.25
696.021	9.75
696.342	9.08
696.663	9.19
696.984	9.22
697.306	9.7
697.627	9.59
697.948	10.17
698.269	9.15
698.59	9.94
698.911	8.96
699.232	10.34
699.553	9.43
699.873	9.61
700.194	9.26
700.515	9.19
700.835	9.95
701.156	9.45
701.477	9.52
701.797	8.95
702.117	9.62
702.438	9.93
702.758	9.39
703.078	9.4
703.398	9.81
703.719	9.18
704.039	9.31
704.359	8.64
704.679	9.35
704.999	9.14
705.319	8.89
705.638	9.13
705.958	9.41
706.278	9.45
706.597	10.58
706.917	10.53
707.237	9.34
707.556	9.86
707.876	9.49
708.195	9.83
708.514	9.56
708.834	9.9
709.153	10.39
709.472	9.89
709.791	10.41
710.11	9.85
710.429	8.84
710.748	10.04
711.067	8.85
711.386	11.2
711.705	8.87
712.023	10
712.342	8.98
712.661	10.22
712.979	10.18
713.298	10.27
713.616	10.35
713.935	9.88
714.253	10.1
714.572	9.78
714.89	9.91
715.208	10.51
715.526	10.53
715.844	10.59
716.162	9.38
716.48	9.58
716.798	10.29
717.116	10.16
717.434	10.51
717.752	9.39
718.069	9.48
718.387	10.48
718.705	9.87
719.022	10.94
719.34	9.54
719.657	10.73
719.975	9.74
720.292	9.88
720.609	9.85
720.927	10.19
721.244	9.53
721.561	10.22
721.878	10.66
722.195	10.25
722.512	10.65
722.829	11.03
723.146	10.07
723.463	9.12
723.779	9.55
724.096	9.62
724.413	10.58
724.729	10.84
725.046	10.2
725.362	8.89
725.679	9.9
725.995	10.32
726.311	11.02
726.628	10.36
726.944	9.62
727.26	9.96
727.576	10.47
727.892	9.69
728.208	10.85
728.524	10.94
728.84	9.72
729.156	10.92
729.472	10.92
729.787	10.7
730.103	9.81
730.419	11.56
730.734	9.81
731.05	11.06
731.365	10.76
731.681	9.91
731.996	10.14
732.311	10.28
732.626	10.16
732.942	10.99
733.257	10.04
733.572	10.85
733.887	10.67
734.202	10.26
734.517	9.94
734.832	11.14
735.146	10.41
735.461	10.13
735.776	9.43
736.091	11.04
736.405	11.08
736.72	10.68
737.034	9.09
737.349	9.45
737.663	9.59
737.977	10.92
738.292	11.24
738.606	10.91
738.92	10.62
739.234	11.1
739.548	10.88
739.862	10.12
740.176	9.49
740.49	11.07
740.804	9.91
741.117	10.74
741.431	11.56
741.745	8.38
742.058	9.29
742.372	10.93
742.685	9.03
742.999	10.2
743.312	10.42
743.626	8.96
743.939	10.11
744.252	11.15
744.565	9.35
744.878	11
745.191	10.52
745.505	9.84
745.817	9.11
746.13	10.5
746.443	9.87
746.756	11
747.069	10.16
747.381	10.42
747.694	8.75
748.007	10.82
748.319	11.68
748.632	10.94
748.944	10.34
749.256	11.66
749.569	10.39
749.881	10.76
750.193	11.15
750.505	11.59
750.817	10.62
751.129	10.9
751.441	10.3
751.753	11.64
752.065	12.25
752.377	10.36
752.689	11.45
753	8.82
753.312	9.86
753.624	13.42
753.935	10.16
754.247	11.29
754.558	12.67
754.869	11.57
755.181	12.54
755.492	11.67
755.803	10.69
756.114	9.89
756.425	11.37
756.736	10.9
757.047	12.68
757.358	11.94
757.669	10.17
757.98	12.07
758.291	10.97
758.601	11.63
758.912	10.16
759.223	12.74
759.533	12.34
759.844	11.16
760.154	12.19
760.464	11.92
760.775	12.95
761.085	10.33
761.395	13.01
761.705	12
762.016	12.71
762.326	12.84
762.636	11.52
762.945	11.31
763.255	12.19
763.565	10.46
763.875	13.34
764.185	12.21
764.494	9.97
764.804	10.85
765.113	12.14
765.423	11.5
765.732	12.45
766.042	12.82
766.351	11.94
766.66	10.42
766.97	11.57
767.279	12.63
767.588	11.84
767.897	12.01
768.206	11.05
768.515	11.11
768.824	12.59
769.133	10.65
769.441	11.74
769.75	11.91
770.059	10.49
770.367	10.61
770.676	10.41
770.984	12.92
771.293	10.5
771.601	10.95
771.91	13.5
772.218	10.97
772.526	12.57
772.834	13.7
773.142	10.78
773.45	9.7
773.758	10.48
774.066	9.77
774.374	10.56
774.682	9.93
774.99	11.41
775.298	11.37
775.605	8.59
775.913	10.81
776.22	13.76
776.528	10.76
776.835	12.04
777.143	11.79
777.45	14.26
777.757	8.43
778.065	13.13
778.372	9.21
778.679	12.81
778.986	10.65
779.293	10.65
779.6	10.47
779.907	10.14
780.214	8.97
780.52	14.41
780.827	12.31
781.134	13.33
781.44	11.47
781.747	13.63
782.053	11.7
782.36	12.85
782.666	12.41
782.973	7.18
783.279	13.43
783.585	11.04
783.891	11.67
784.197	9.84
784.503	16.17
784.809	13.97
785.115	9.55
785.421	13.08
785.727	6.36
786.033	8.92
786.339	16.18
786.644	13.05
786.95	14.52
787.255	11.3
787.561	12.56
787.866	7.11
788.172	14.36
788.477	8.41
788.782	10.94
789.088	13.12
789.393	11.33
789.698	12.39
790.003	13.33
790.308	9.67
790.613	14.18
790.918	12.07
791.223	14.14
791.527	12.41
791.832	13.41
792.137	13.09
792.441	12.35
792.746	10.8
793.05	11.79
793.355	16.2
793.659	11.49
793.963	11.23
794.268	9.77
794.572	15.72
794.876	14.67
795.18	7.53
795.484	12.55
795.788	10.97
796.092	12.09
796.396	12.87
796.7	13.92
797.004	14.48
797.307	11.16
797.611	13.67
797.915	10.56
798.218	11.88
798.522	9.81
798.825	13.25
799.128	13.96
799.432	11.85
799.735	10.48
800.038	7.37
800.341	9.98
800.644	13.32
800.947	12.18
801.25	9.02
801.553	17.11
801.856	15.82
802.159	11.73
802.462	11.06
802.764	13.07
803.067	9.29
803.37	9.45
803.672	13.95
803.975	11.36
804.277	14.06
804.579	14.76
804.882	10.73
805.184	8.93
805.486	12.78
805.788	11.83
806.09	9.3
806.392	14.46
806.694	12.91
806.996	13.42
807.298	12.77
807.6	10.66
807.902	12.68
808.203	10.16
808.505	7.73
808.807	14.77
809.108	11.32
809.409	11.41
809.711	14.72
810.012	10.3
810.313	13.79
810.615	14.55
810.916	12.65
811.217	12.95
811.518	14.7
811.819	8.13
812.12	17.1
812.421	10.75
812.722	7.59
813.023	15.07
813.323	16.23
813.624	17.66
813.925	15.34
814.225	10.28
814.526	15.1
814.826	10.49
815.126	15.21
815.427	13.51
815.727	7.74
816.027	20.37
816.327	7.51
816.627	6.45
816.927	8.2
817.227	7.19
817.527	14.36
817.827	16.39
818.127	16.38
818.427	6.22
818.727	12.2
819.026	17.24
819.326	14.03
819.625	16.41
819.925	11.88
820.224	12.14
820.524	15.76
820.823	8.7
821.122	10.93
821.421	13.88
821.72	10.17
822.019	12.55
822.318	11.83
822.617	16.29
822.916	13.71
823.215	14.35
823.514	14.13
823.813	13.83
824.111	15.04
824.41	15
824.709	15.58
825.007	15.1
825.306	15.27
825.604	16.21
825.902	14.22
826.201	15.49
826.499	15.69
826.797	15.37
827.095	12.61
827.393	13.79
827.691	15.5
827.989	14.61
828.287	15.91
828.585	13.95
828.882	13.08
829.18	12.96
829.478	13.79
829.775	15.29
830.073	16.19
830.37	13.85
830.668	16.59
830.965	14.94
831.263	13.91
831.56	16.72
831.857	14.9
832.154	16.94
832.451	15.28
832.748	11.34
833.045	19.69
833.342	12.06
833.639	16.34
833.936	9.72
834.232	14.84
834.529	13.09
834.826	17.41
835.122	13.47
835.419	10.31
835.715	13.98
836.012	10.98
836.308	17.42
836.604	15.92
836.901	20.98
837.197	16.56
837.493	14.45
837.789	17.55
838.085	13.52
838.381	10.05
838.677	11.56
838.972	13.72
839.268	12.84
839.564	14.16
839.86	14.07
840.155	11.35
840.451	13.54
840.746	13.56
841.042	7.56
841.337	6.87
841.632	15.43
841.928	18.57
842.223	10.16
842.518	15.74
842.813	9.21
843.108	8.15
843.403	20.67
843.698	3.21
843.993	8.17
844.287	15.96
844.582	12.99
844.877	7.63
845.171	9.68
845.466	5.41
845.761	16.45
846.055	19.36
846.349	-8.58
846.644	14.01
846.938	18.57
847.232	14.43
847.526	22.32
847.82	-0.24
848.114	4.23
848.408	18.66
848.702	23.94
848.996	11.66
849.29	24.19
849.584	4.62
849.877	33.75
850.171	1.05
850.465	5.4
850.758	11.59
851.052	8.15
851.345	19.48
851.638	27.4
851.932	-12.88
852.225	9.27
852.518	14.42
852.811	-3.14
853.104	16.94
853.397	8.98
853.69	15.12
853.983	14.38
854.276	5.14
854.569	12.85
854.861	19.91
855.154	3.88
855.447	-8.84
855.739	4.25
856.032	-0.91
856.324	-5.9
856.616	18.66
856.909	8.2
857.201	11.99
857.493	8.94
857.785	-3.47
858.077	1.96
858.369	7.06
858.661	21.69
858.953	-7.13
859.245	12.61
859.537	26.12
859.829	15.6
860.12	-0.53
860.412	-4.08
860.703	27.97
860.995	-8.37
861.286	38.82
861.578	-19.16
861.869	17.54
862.16	11.18
862.452	-5.04
862.743	32.59
863.034	12.21
863.325	-8.64
863.616	16.61
863.907	2.56
864.198	20.48
864.488	-14.35
864.779	23.28
865.07	6.15
865.36	15.25
865.651	22.43
865.941	28.78
866.232	-29.74
866.522	16.75
866.813	22
867.103	4.98
867.393	7.23
867.683	-3.11
867.973	-20.88
868.263	6.67
868.553	15.16
868.843	-15.9
869.133	17.92
869.423	26.69
869.713	-4.36
870.002	-7.33
870.292	-32.01
870.582	18.56
870.871	18.54
871.161	-17.66
871.45	6.41
871.739	-19.97
872.029	-22.52
872.318	0.35
872.607	12.68
872.896	3.78
873.185	16.52
873.474	6.73
873.763	-15.8
874.052	5.13
874.341	-60.9
874.63	-20.78
874.918	11.57
875.207	18.71
875.496	20.11
875.784	26.82
876.073	-4.05
876.361	-3.2
876.649	10.95
876.938	27.68
877.226	5.37
877.514	-4.54
877.802	28.39
878.09	24.87
878.378	7.71
878.666	2.44
878.954	47.24
879.242	-5.73
879.53	7.6
879.817	19.73
880.105	-4.91
880.392	15.21
880.68	9.21
880.967	39.16
881.255	-0.28
881.542	20.91
881.83	-0.92
882.117	6.38
882.404	-6.26
882.691	-2.27
882.978	-13.24
883.265	11.3
883.552	3.75
883.839	14.24
884.126	0.8
884.413	12.5
884.699	18.87
884.986	13.64
885.273	12.06
885.559	12.06
885.846	12.06
