Data from 20-11_forehead_Reflection__4__59.txt Node

Date: Fri Nov 11 20:38:00 CST 2022
User: ToomeyLab
Spectrometer: FLMS14357
Trigger mode: 0
Integration Time (sec): 1.000000E-2
Scans to average: 100
Electric dark correction enabled: true
Nonlinearity correction enabled: false
Boxcar width: 0
XAxis mode: Wavelengths
Number of Pixels in Spectrum: 2048
>>>>>Begin Spectral Data<<<<<
189.047	-547.25
189.435	-547.25
189.823	-547.25
190.211	-71.25
190.599	-177.86
190.987	-525.7
191.375	-31266.67
191.763	749.66
192.151	55.56
192.538	29.55
192.926	331.6
193.314	310.18
193.702	11.89
194.089	-32.21
194.477	-7.53
194.864	106.79
195.252	95.06
195.639	36.74
196.027	340.76
196.414	-80.8
196.801	-251.13
197.189	-16.44
197.576	-26.64
197.963	-40.86
198.351	-20.85
198.738	22.19
199.125	99.88
199.512	101.59
199.899	-71.14
200.286	8.18
200.673	65.72
201.06	59.79
201.447	42.18
201.833	31.21
202.22	32.26
202.607	42.47
202.994	30.38
203.38	55.08
203.767	34.48
204.154	46.62
204.54	5.23
204.927	17.7
205.313	13.56
205.699	-23.05
206.086	61.35
206.472	26.96
206.858	61.07
207.245	52.1
207.631	10.86
208.017	47.25
208.403	-2.44
208.789	23.2
209.175	17.64
209.561	54.26
209.947	25.72
210.333	16.63
210.719	22.22
211.105	63.92
211.491	-6.16
211.876	28.18
212.262	42
212.648	6.66
213.034	20.69
213.419	-10.66
213.805	24.44
214.19	21.28
214.576	45.78
214.961	-37.73
215.346	12.99
215.732	7.49
216.117	37.46
216.502	37.62
216.888	4.01
217.273	33.46
217.658	35.06
218.043	52.33
218.428	2.96
218.813	5.21
219.198	12.41
219.583	36.38
219.968	-4.27
220.353	10.43
220.738	-0.27
221.122	9.35
221.507	-23.67
221.892	6.71
222.276	8.34
222.661	24.18
223.046	-6.88
223.43	2.62
223.815	6.92
224.199	24.92
224.583	5.18
224.968	12.07
225.352	9.43
225.736	5.66
226.121	8.33
226.505	7.33
226.889	-3.21
227.273	1.9
227.657	-3.06
228.041	-0.46
228.425	4.16
228.809	3.6
229.193	8.49
229.577	5.03
229.961	4.43
230.344	4.07
230.728	2.29
231.112	2.75
231.495	3.69
231.879	3.16
232.263	2.56
232.646	2.78
233.03	3.95
233.413	4.12
233.797	4.25
234.18	1.84
234.563	6.35
234.946	3.96
235.33	3.97
235.713	2.97
236.096	2.21
236.479	3.13
236.862	4.28
237.245	4.94
237.628	3.48
238.011	5.17
238.394	3.1
238.777	3.29
239.16	3.52
239.543	3.46
239.925	2.9
240.308	2.69
240.691	5.67
241.073	4.13
241.456	2.64
241.838	5.17
242.221	2.87
242.603	3.58
242.986	2.1
243.368	3.03
243.75	3.04
244.133	2.5
244.515	2.67
244.897	3.14
245.279	2.51
245.661	2.33
246.043	3.58
246.425	4.02
246.807	2.59
247.189	2.59
247.571	2.84
247.953	2.45
248.335	2.67
248.717	2.77
249.098	2.56
249.48	2.34
249.862	3.01
250.243	2.7
250.625	2.68
251.006	3.4
251.388	3.06
251.769	3.52
252.151	2.8
252.532	3.56
252.913	3.12
253.295	3.08
253.676	1.82
254.057	2.88
254.438	2.57
254.819	2.17
255.2	3.28
255.581	2.92
255.962	2.27
256.343	1.84
256.724	2.16
257.105	2.46
257.486	3.41
257.867	4.21
258.247	3
258.628	2.1
259.009	2.96
259.389	2.35
259.77	3.18
260.15	2.29
260.531	2.66
260.911	2.4
261.292	2.68
261.672	2.17
262.052	2.42
262.432	2.71
262.813	2.45
263.193	2.26
263.573	2.76
263.953	3.84
264.333	2.5
264.713	2.85
265.093	3
265.473	2.94
265.853	2.29
266.233	3.37
266.612	2.39
266.992	1.96
267.372	3.34
267.752	2.91
268.131	2.75
268.511	2.45
268.89	2.28
269.27	2.84
269.649	2.56
270.029	3.08
270.408	2.84
270.787	2.98
271.167	2.1
271.546	2.57
271.925	2.44
272.304	3
272.683	2.34
273.062	2.18
273.441	2.06
273.82	2.66
274.199	2.5
274.578	2.29
274.957	2.78
275.336	2.46
275.715	2.66
276.093	2.32
276.472	2.55
276.851	2.09
277.229	2.34
277.608	2.57
277.986	2.45
278.365	2.39
278.743	2.91
279.122	2.83
279.5	2.3
279.878	2.54
280.257	2.51
280.635	2.38
281.013	2.76
281.391	2.54
281.769	2.72
282.147	2.27
282.525	2.13
282.903	2.26
283.281	2.64
283.659	2.79
284.037	2.48
284.415	2.32
284.792	2.53
285.17	2.86
285.548	2.55
285.925	2.02
286.303	2.29
286.68	2.65
287.058	2.87
287.435	2.52
287.813	2.43
288.19	2.38
288.567	2.64
288.945	2.67
289.322	3.07
289.699	2.59
290.076	2.88
290.453	2.66
290.83	2.51
291.207	2.51
291.584	3.19
291.961	2.8
292.338	2.83
292.715	2.96
293.092	2.76
293.469	2.45
293.845	3.18
294.222	2.84
294.599	3.11
294.975	3.11
295.352	2.96
295.728	2.74
296.105	2.74
296.481	2.84
296.858	2.55
297.234	3.06
297.61	2.69
297.986	2.96
298.363	3.27
298.739	3
299.115	3.5
299.491	3.23
299.867	2.84
300.243	3.46
300.619	3.29
300.995	2.92
301.371	4.03
301.746	4.06
302.122	3.53
302.498	3.62
302.874	3.42
303.249	3.18
303.625	3.14
304	3.32
304.376	3.77
304.751	3.31
305.127	3.26
305.502	3.42
305.878	3.59
306.253	3.84
306.628	4.33
307.003	3.97
307.378	3.84
307.754	4.54
308.129	3.8
308.504	4.07
308.879	4.22
309.254	4.25
309.629	3.5
310.003	4.29
310.378	4.48
310.753	4.27
311.128	4.21
311.502	4.62
311.877	4.33
312.252	4.36
312.626	4.68
313.001	4.54
313.375	4.33
313.75	4.35
314.124	4.61
314.498	4.38
314.873	4.88
315.247	4.63
315.621	5.15
315.995	5.06
316.369	5.03
316.743	4.86
317.117	5.06
317.491	4.67
317.865	4.82
318.239	5.12
318.613	5.47
318.987	5.18
319.361	5.39
319.734	5.64
320.108	5.16
320.482	5.44
320.855	5.76
321.229	5.48
321.602	5.52
321.976	5.56
322.349	5.88
322.723	5.82
323.096	5.7
323.469	6.11
323.843	5.92
324.216	6.13
324.589	5.95
324.962	6.21
325.335	5.73
325.708	6.81
326.081	6.32
326.454	6.07
326.827	5.98
327.2	6.59
327.573	6.91
327.945	6.28
328.318	6.24
328.691	6.36
329.063	6.51
329.436	6.42
329.809	6.44
330.181	6.31
330.553	6.37
330.926	6.43
331.298	6.48
331.671	6.18
332.043	6.59
332.415	6.73
332.787	7.16
333.159	6.76
333.532	6.93
333.904	7.19
334.276	6.66
334.648	7.04
335.02	6.69
335.391	7.4
335.763	7.45
336.135	6.93
336.507	6.86
336.879	7.19
337.25	7.17
337.622	7.64
337.993	6.9
338.365	7.6
338.736	7.54
339.108	7.6
339.479	7.29
339.851	7.63
340.222	7.7
340.593	8.26
340.964	7.62
341.336	8.07
341.707	7.65
342.078	7.19
342.449	7.79
342.82	8.09
343.191	8.2
343.562	8.11
343.933	7.63
344.303	8.02
344.674	7.82
345.045	8.12
345.416	8.12
345.786	8.08
346.157	8.05
346.527	8.19
346.898	7.79
347.268	7.85
347.639	8.57
348.009	7.9
348.38	8.82
348.75	8.41
349.12	8.79
349.49	8.72
349.861	8.24
350.231	8.5
350.601	8.65
350.971	8.77
351.341	8.9
351.711	8.53
352.081	8.87
352.45	8.85
352.82	8.33
353.19	9.21
353.56	8.71
353.929	8.82
354.299	9.08
354.669	9.12
355.038	8.72
355.408	9.15
355.777	9.13
356.147	9.65
356.516	9.36
356.885	9.42
357.254	9.13
357.624	9.01
357.993	9.69
358.362	9.33
358.731	8.96
359.1	9.19
359.469	9.13
359.838	9.44
360.207	9.57
360.576	9.83
360.945	9.79
361.314	9.72
361.682	9.63
362.051	9.5
362.42	9.9
362.788	9.97
363.157	9.72
363.525	9.69
363.894	9.82
364.262	10.03
364.631	10.23
364.999	10.08
365.367	10.04
365.735	10.15
366.104	10.05
366.472	10.3
366.84	10.05
367.208	10.35
367.576	10.49
367.944	10.75
368.312	10.52
368.68	10.77
369.048	10.71
369.416	10.49
369.783	10.61
370.151	11.05
370.519	10.78
370.886	10.9
371.254	11.35
371.621	10.63
371.989	10.81
372.356	11.18
372.724	11.4
373.091	11.21
373.458	11.05
373.826	11.04
374.193	10.92
374.56	11.09
374.927	11.47
375.294	11.38
375.661	11.9
376.028	11.41
376.395	11.51
376.762	11.59
377.129	11.53
377.496	11.45
377.863	11.88
378.229	12.01
378.596	11.65
378.963	11.94
379.329	11.85
379.696	11.8
380.062	11.77
380.429	12.07
380.795	12.3
381.161	12.4
381.528	11.87
381.894	12.27
382.26	12.55
382.626	12.32
382.993	12.4
383.359	12.59
383.725	12.23
384.091	12.62
384.457	12.52
384.823	12.29
385.188	12.47
385.554	12.66
385.92	12.5
386.286	12.49
386.651	12.63
387.017	12.79
387.383	12.9
387.748	12.77
388.114	12.68
388.479	12.78
388.845	12.71
389.21	12.71
389.575	13.22
389.94	12.93
390.306	12.92
390.671	13.45
391.036	13.33
391.401	13.02
391.766	13.26
392.131	13.28
392.496	13.31
392.861	13.36
393.226	13.22
393.591	13.31
393.956	13.48
394.32	13.47
394.685	13.44
395.05	13.76
395.414	13.73
395.779	13.62
396.143	13.58
396.508	14.01
396.872	13.84
397.236	13.63
397.601	13.91
397.965	14.01
398.329	13.96
398.694	14.15
399.058	14.29
399.422	14.28
399.786	14.02
400.15	14.39
400.514	14.19
400.878	14.23
401.242	14.32
401.605	14.45
401.969	14.56
402.333	14.31
402.697	14.83
403.06	14.78
403.424	14.5
403.787	14.63
404.151	14.71
404.514	14.73
404.878	14.73
405.241	14.63
405.604	14.88
405.968	14.89
406.331	14.61
406.694	14.93
407.057	14.88
407.42	15.2
407.783	15.14
408.146	15.28
408.509	15.38
408.872	15.27
409.235	15.38
409.598	15.49
409.961	15.64
410.323	15.33
410.686	15.4
411.049	15.28
411.411	15.72
411.774	15.5
412.136	15.57
412.499	15.7
412.861	15.8
413.223	15.64
413.586	15.89
413.948	16.06
414.31	16.04
414.672	15.99
415.035	16.04
415.397	15.83
415.759	16.04
416.121	16.2
416.483	15.96
416.845	16.43
417.206	16.14
417.568	16.22
417.93	16.24
418.292	16
418.653	16.33
419.015	16.21
419.377	16.22
419.738	16.5
420.1	16.33
420.461	16.36
420.822	16.34
421.184	16.44
421.545	16.45
421.906	16.56
422.267	16.26
422.629	16.33
422.99	16.48
423.351	16.45
423.712	16.46
424.073	16.63
424.434	16.69
424.795	16.86
425.155	16.86
425.516	16.73
425.877	16.81
426.238	16.75
426.598	16.72
426.959	16.88
427.32	17.09
427.68	17.34
428.041	17.4
428.401	17.43
428.761	17.72
429.122	17.49
429.482	17.59
429.842	17.76
430.202	17.7
430.563	18.04
430.923	17.93
431.283	17.68
431.643	17.89
432.003	17.97
432.363	18.09
432.722	18.05
433.082	18.23
433.442	18.1
433.802	18.18
434.161	18.23
434.521	18.24
434.881	18.2
435.24	18.29
435.6	18.26
435.959	18.29
436.319	18.37
436.678	18.5
437.037	18.48
437.396	18.56
437.756	18.68
438.115	18.7
438.474	18.78
438.833	18.76
439.192	18.95
439.551	18.82
439.91	19.02
440.269	18.94
440.628	19.1
440.987	19.02
441.345	19.08
441.704	19.1
442.063	19.1
442.421	19.16
442.78	18.96
443.138	19.24
443.497	19.22
443.855	19.27
444.214	19.47
444.572	19.49
444.93	19.65
445.288	19.59
445.647	19.67
446.005	19.75
446.363	19.8
446.721	19.66
447.079	19.63
447.437	19.55
447.795	19.43
448.153	19.47
448.51	19.55
448.868	19.63
449.226	19.57
449.584	19.79
449.941	20.06
450.299	20.02
450.656	20.24
451.014	20.31
451.371	20.28
451.729	20.36
452.086	20.44
452.443	20.56
452.801	20.75
453.158	20.74
453.515	20.69
453.872	20.66
454.229	20.72
454.586	20.64
454.943	20.93
455.3	20.85
455.657	20.99
456.014	21.05
456.371	21.08
456.727	21.28
457.084	20.92
457.441	21.38
457.797	21.26
458.154	21.14
458.51	21.39
458.867	21.29
459.223	21.51
459.58	21.46
459.936	21.36
460.292	21.51
460.648	21.4
461.005	21.33
461.361	21.1
461.717	21.11
462.073	21.36
462.429	21.23
462.785	21.58
463.141	21.8
463.496	21.71
463.852	21.98
464.208	22.02
464.564	22.01
464.919	22.16
465.275	21.95
465.631	22.3
465.986	22.54
466.342	22.25
466.697	22.36
467.052	22.3
467.408	22.56
467.763	22.46
468.118	22.51
468.473	22.41
468.829	22.59
469.184	22.61
469.539	22.77
469.894	22.76
470.249	22.89
470.603	22.83
470.958	22.98
471.313	22.91
471.668	22.96
472.023	23.03
472.377	23.17
472.732	23.17
473.086	23.14
473.441	23.25
473.795	23.16
474.15	23.43
474.504	23.37
474.859	23.19
475.213	23.63
475.567	23.53
475.921	23.43
476.275	23.56
476.63	23.38
476.984	23.81
477.338	23.73
477.692	23.6
478.045	23.53
478.399	23.67
478.753	23.69
479.107	23.81
479.461	23.77
479.814	23.88
480.168	23.89
480.521	24.05
480.875	24.01
481.228	23.96
481.582	24.06
481.935	24.03
482.289	24.08
482.642	24.12
482.995	24
483.348	23.97
483.701	23.86
484.055	24.01
484.408	23.8
484.761	23.56
485.114	23.36
485.466	23.25
485.819	23.26
486.172	23.34
486.525	23.58
486.878	23.7
487.23	23.81
487.583	24.05
487.936	24.01
488.288	24.13
488.641	23.9
488.993	23.85
489.345	23.87
489.698	23.92
490.05	23.99
490.402	24.09
490.754	24.27
491.107	24.43
491.459	24.64
491.811	24.91
492.163	24.84
492.515	24.58
492.866	24.51
493.218	24.41
493.57	24.43
493.922	24.61
494.274	24.76
494.625	25
494.977	25.25
495.328	25.28
495.68	25.57
496.031	25.83
496.383	25.95
496.734	25.7
497.086	25.87
497.437	26.07
497.788	25.8
498.139	25.7
498.49	25.81
498.842	25.8
499.193	25.78
499.544	25.96
499.894	25.96
500.245	26.05
500.596	26.24
500.947	26.1
501.298	26.25
501.648	26.29
501.999	26.45
502.35	26.5
502.7	26.66
503.051	26.6
503.401	26.6
503.752	26.74
504.102	26.6
504.452	27.05
504.803	26.64
505.153	26.81
505.503	26.96
505.853	26.88
506.203	26.83
506.553	26.94
506.903	27.05
507.253	27.02
507.603	26.96
507.953	27.35
508.303	27.12
508.652	27.33
509.002	27.29
509.352	27.42
509.701	27.4
510.051	27.31
510.4	27.39
510.75	27.24
511.099	27.13
511.449	27.49
511.798	27.42
512.147	27.36
512.496	27.35
512.846	27.67
513.195	27.67
513.544	27.55
513.893	27.62
514.242	27.68
514.591	27.85
514.939	27.78
515.288	27.99
515.637	28.04
515.986	28.07
516.334	28.08
516.683	28.27
517.032	28.21
517.38	28.2
517.729	28.34
518.077	28.43
518.426	28.24
518.774	28.28
519.122	28.39
519.47	28.1
519.819	28.26
520.167	27.86
520.515	28.07
520.863	28.18
521.211	28.18
521.559	28.29
521.907	28.49
522.255	28.53
522.602	28.61
522.95	28.71
523.298	28.85
523.645	29.03
523.993	29.1
524.341	29.19
524.688	28.98
525.036	29.2
525.383	29.25
525.73	29.23
526.078	29.21
526.425	29.05
526.772	28.91
527.119	28.73
527.466	28.76
527.814	28.8
528.161	28.97
528.508	29
528.854	28.82
529.201	28.97
529.548	28.75
529.895	28.48
530.242	28.4
530.588	28.5
530.935	28.73
531.282	28.8
531.628	28.85
531.975	29.06
532.321	29.21
532.667	29.51
533.014	29.52
533.36	29.55
533.706	29.66
534.052	29.53
534.399	29.56
534.745	29.27
535.091	29.2
535.437	29.43
535.783	29.51
536.129	29.68
536.474	29.86
536.82	30.12
537.166	30.14
537.512	30.24
537.857	30.04
538.203	29.97
538.549	30.01
538.894	30.28
539.239	30.33
539.585	30.48
539.93	30.76
540.276	30.93
540.621	31.04
540.966	30.86
541.311	30.89
541.656	30.72
542.001	30.76
542.346	30.45
542.691	30.17
543.036	30.12
543.381	30.1
543.726	30.16
544.071	30.41
544.415	30.52
544.76	30.6
545.105	30.68
545.449	30.83
545.794	31.14
546.138	31.17
546.483	31.32
546.827	31.34
547.171	31.38
547.516	31.36
547.86	31.52
548.204	31.5
548.548	31.55
548.892	31.47
549.236	31.65
549.58	31.68
549.924	31.99
550.268	32.13
550.612	32.06
550.956	32.31
551.3	32.26
551.643	32.41
551.987	32.57
552.33	32.35
552.674	32.53
553.017	32.77
553.361	32.66
553.704	32.62
554.048	32.51
554.391	32.34
554.734	32.48
555.077	32.51
555.42	32.68
555.764	32.78
556.107	32.84
556.45	33.02
556.793	33.21
557.135	32.95
557.478	33.24
557.821	33.13
558.164	33.11
558.507	33.06
558.849	33.53
559.192	33.24
559.534	33.22
559.877	33.4
560.219	33.69
560.562	33.7
560.904	33.65
561.246	33.48
561.589	33.47
561.931	33.65
562.273	33.83
562.615	33.63
562.957	33.72
563.299	33.7
563.641	33.8
563.983	33.8
564.325	33.62
564.667	34.02
565.008	33.99
565.35	34.09
565.692	33.92
566.033	34.02
566.375	34.22
566.716	34.21
567.058	34.13
567.399	34.34
567.741	34.22
568.082	34.06
568.423	34.17
568.764	34.17
569.105	34.11
569.447	34.39
569.788	34.51
570.129	34.56
570.47	34.52
570.811	34.41
571.151	34.71
571.492	34.86
571.833	34.87
572.174	34.65
572.514	34.76
572.855	34.85
573.195	34.8
573.536	34.51
573.876	34.81
574.217	35.05
574.557	34.87
574.898	34.92
575.238	35.09
575.578	35.07
575.918	35.31
576.258	34.92
576.598	35.19
576.938	35.14
577.278	35.23
577.618	35.38
577.958	35.4
578.298	35.22
578.638	35.41
578.977	35.52
579.317	35.58
579.657	35.71
579.996	35.92
580.336	35.65
580.675	36.06
581.014	36.05
581.354	36.21
581.693	35.9
582.032	35.9
582.372	36.22
582.711	36.2
583.05	36.09
583.389	36.33
583.728	36.43
584.067	36.23
584.406	35.88
584.745	36.34
585.083	36.45
585.422	36.2
585.761	36.46
586.1	36.58
586.438	36.48
586.777	36.67
587.115	36.59
587.454	36.75
587.792	36.48
588.13	36.87
588.469	36.59
588.807	36.84
589.145	37.13
589.483	36.89
589.821	37.18
590.159	36.82
590.497	37.3
590.835	37.15
591.173	36.99
591.511	37
591.849	37.18
592.187	37.28
592.524	37.21
592.862	37.16
593.2	37.32
593.537	37.42
593.875	37.65
594.212	37.45
594.55	37.39
594.887	37.24
595.224	37.44
595.561	37.32
595.899	37.3
596.236	37.62
596.573	37.64
596.91	37.69
597.247	37.87
597.584	37.45
597.921	37.68
598.258	37.39
598.594	37.32
598.931	37.43
599.268	37.43
599.604	37.56
599.941	37.6
600.277	37.81
600.614	38.11
600.95	37.96
601.287	38.16
601.623	38.53
601.959	38.14
602.296	38.08
602.632	38.58
602.968	38.54
603.304	38.43
603.64	38.47
603.976	38.68
604.312	38.5
604.648	38.09
604.984	38.26
605.319	38.47
605.655	38.17
605.991	38.01
606.326	38.2
606.662	38.22
606.998	38.17
607.333	38.35
607.668	38.69
608.004	38.33
608.339	38.71
608.674	38.79
609.01	39.05
609.345	39.03
609.68	38.96
610.015	38.67
610.35	38.9
610.685	38.87
611.02	38.88
611.355	39
611.689	38.78
612.024	38.9
612.359	38.87
612.694	39.36
613.028	39.06
613.363	39.55
613.697	39.55
614.032	39.54
614.366	39.48
614.7	39.42
615.035	39.67
615.369	39.39
615.703	39.63
616.037	39.87
616.371	39.9
616.705	39.71
617.039	39.86
617.373	39.38
617.707	39.92
618.041	39.91
618.375	39.82
618.709	40.05
619.042	40.19
619.376	40.2
619.71	40.2
620.043	40.06
620.377	40.34
620.71	40.05
621.043	40.17
621.377	40.47
621.71	40.21
622.043	40.64
622.376	40.53
622.709	40.05
623.043	40.44
623.376	40.59
623.709	40.16
624.041	40.35
624.374	40.68
624.707	40.61
625.04	40.57
625.373	40.42
625.705	40.24
626.038	40.86
626.37	40.69
626.703	40.27
627.035	40.85
627.368	40.48
627.7	40.79
628.032	40.61
628.365	41.07
628.697	40.83
629.029	40.62
629.361	41.1
629.693	40.75
630.025	41.05
630.357	40.81
630.689	41.29
631.021	41.15
631.353	41.33
631.684	41.35
632.016	41.28
632.348	41.39
632.679	41.59
633.011	41.8
633.342	41.73
633.674	41.23
634.005	41.16
634.336	41.29
634.668	41.52
634.999	41.51
635.33	41.44
635.661	41.67
635.992	41.37
636.323	41.73
636.654	41.68
636.985	41.89
637.316	42.04
637.647	42.09
637.977	41.6
638.308	41.96
638.639	42.21
638.969	41.86
639.3	42.28
639.63	42.5
639.961	42.2
640.291	42.61
640.622	42.23
640.952	42.42
641.282	41.98
641.612	41.82
641.943	42.56
642.273	42.21
642.603	42.36
642.933	42.36
643.263	42.2
643.592	42.73
643.922	42.89
644.252	42.85
644.582	42.75
644.911	42.37
645.241	42.3
645.571	42.56
645.9	43.34
646.23	43.18
646.559	42.35
646.888	42.84
647.218	42.6
647.547	42.71
647.876	43.68
648.205	43.12
648.534	42.81
648.863	42.79
649.192	43.17
649.521	42.76
649.85	43.69
650.179	43.04
650.508	42.67
650.837	43.21
651.165	43.39
651.494	44.16
651.822	43.17
652.151	42.97
652.479	43.12
652.808	43.46
653.136	42.93
653.465	43.35
653.793	43.73
654.121	43.17
654.449	42.94
654.777	44.08
655.105	43.19
655.433	43.36
655.761	43.99
656.089	43.93
656.417	43.42
656.745	43.46
657.073	44.11
657.4	43.41
657.728	43.7
658.056	43.94
658.383	43.55
658.711	43.57
659.038	43.8
659.365	43.44
659.693	43.69
660.02	44.31
660.347	44.16
660.674	43.75
661.001	43.84
661.329	44.12
661.656	44.17
661.982	44.11
662.309	43.59
662.636	44.3
662.963	43.8
663.29	44.27
663.616	44.17
663.943	44.05
664.27	44.46
664.596	44.01
664.923	44.51
665.249	44.54
665.576	44.62
665.902	44.64
666.228	44.69
666.554	44.46
666.881	44.76
667.207	44.89
667.533	45.12
667.859	45.68
668.185	45.5
668.511	44.63
668.837	45.03
669.162	45.27
669.488	44.59
669.814	44.69
670.139	44.46
670.465	45.32
670.791	44.78
671.116	44.85
671.442	45.01
671.767	45.62
672.092	45.06
672.418	45.11
672.743	44.85
673.068	45.2
673.393	45.75
673.718	45.33
674.043	45.87
674.368	45.17
674.693	45.04
675.018	45.7
675.343	45.35
675.667	45.64
675.992	46.18
676.317	45.38
676.641	45.02
676.966	46.21
677.29	45.37
677.615	45.66
677.939	45.29
678.264	45.66
678.588	45.43
678.912	45.41
679.236	45.12
679.56	45.95
679.885	45.19
680.209	45.3
680.532	45.68
680.856	46.04
681.18	45.56
681.504	45.4
681.828	46.05
682.152	45.96
682.475	45.72
682.799	45.82
683.122	45.38
683.446	46.22
683.769	46.69
684.093	46.13
684.416	46.16
684.739	45.74
685.062	46.12
685.386	46.03
685.709	46.72
686.032	45.87
686.355	46.84
686.678	45.88
687.001	46.11
687.324	46.21
687.646	45.94
687.969	47.38
688.292	46.33
688.614	46.29
688.937	45.62
689.26	46.38
689.582	46.14
689.904	47.31
690.227	46.32
690.549	46.52
690.871	46.79
691.194	46.68
691.516	46.87
691.838	47.42
692.16	46.97
692.482	46.6
692.804	46.45
693.126	46.82
693.448	45.97
693.769	46.6
694.091	46.28
694.413	47.03
694.735	46.73
695.056	46.52
695.378	47.83
695.699	46.5
696.021	46.29
696.342	46.27
696.663	47.1
696.984	46.44
697.306	46.5
697.627	46.66
697.948	47.46
698.269	47.21
698.59	46.37
698.911	47.06
699.232	47.69
699.553	47.84
699.873	46.95
700.194	46.98
700.515	47.01
700.835	47.18
701.156	47.62
701.477	47.42
701.797	47.77
702.117	47.81
702.438	46.99
702.758	47.78
703.078	47.2
703.398	47.4
703.719	47.2
704.039	47.17
704.359	48.19
704.679	47.65
704.999	47.07
705.319	47.72
705.638	48
705.958	47.5
706.278	48.19
706.597	47.58
706.917	48.07
707.237	48.6
707.556	48.05
707.876	48.05
708.195	48.35
708.514	47.64
708.834	48.92
709.153	48.51
709.472	47.9
709.791	48.51
710.11	48.2
710.429	49.06
710.748	47.82
711.067	48.91
711.386	48.69
711.705	48.79
712.023	48.12
712.342	48.47
712.661	48.04
712.979	49.08
713.298	49.58
713.616	49.14
713.935	47.91
714.253	48.3
714.572	49.14
714.89	49.15
715.208	48.82
715.526	47.41
715.844	48.21
716.162	48.3
716.48	49.44
716.798	48.31
717.116	48.86
717.434	49.05
717.752	48.34
718.069	48.08
718.387	49.39
718.705	48.9
719.022	48.89
719.34	48.81
719.657	48.8
719.975	48.31
720.292	49.03
720.609	49.29
720.927	48.74
721.244	50.04
721.561	48.77
721.878	48.64
722.195	49.04
722.512	50.14
722.829	51.35
723.146	48.83
723.463	48.8
723.779	49.28
724.096	48.67
724.413	49.41
724.729	49.31
725.046	50.43
725.362	48.7
725.679	50.62
725.995	48.91
726.311	49.13
726.628	49.58
726.944	49.54
727.26	49
727.576	48.81
727.892	50.79
728.208	49.97
728.524	49.53
728.84	49.73
729.156	50.66
729.472	50.7
729.787	49.79
730.103	50.2
730.419	49.74
730.734	50.21
731.05	49.78
731.365	50.66
731.681	49.82
731.996	50.27
732.311	48.98
732.626	49.89
732.942	49.74
733.257	51.17
733.572	50.16
733.887	49.56
734.202	49.5
734.517	49.34
734.832	50.2
735.146	49.49
735.461	49.61
735.776	51.01
736.091	49.77
736.405	49.25
736.72	50.46
737.034	50.48
737.349	50.58
737.663	49.21
737.977	49.73
738.292	50.13
738.606	48.89
738.92	49.87
739.234	49.31
739.548	50.5
739.862	51.83
740.176	49.83
740.49	48.85
740.804	50.94
741.117	50.36
741.431	49.14
741.745	49.67
742.058	49.55
742.372	49.63
742.685	50.09
742.999	52.79
743.312	51.55
743.626	49.5
743.939	49.1
744.252	50.8
744.565	48.79
744.878	51.36
745.191	51.07
745.505	50.13
745.817	49.35
746.13	52.44
746.443	51.05
746.756	50.13
747.069	49.09
747.381	51.86
747.694	51.29
748.007	50.81
748.319	49.88
748.632	50.04
748.944	50.45
749.256	50.9
749.569	49.75
749.881	51.5
750.193	52.56
750.505	52.55
750.817	51.38
751.129	51.48
751.441	50.5
751.753	52.05
752.065	53.39
752.377	53.34
752.689	51.39
753	51.01
753.312	50.99
753.624	51.19
753.935	51.15
754.247	51.46
754.558	50.16
754.869	50.41
755.181	51.27
755.492	51.55
755.803	49.01
756.114	50.74
756.425	51.09
756.736	50.12
757.047	49.78
757.358	53.65
757.669	51.62
757.98	51.26
758.291	51.62
758.601	52.49
758.912	51.13
759.223	52.51
759.533	50.42
759.844	52.15
760.154	51.04
760.464	51.02
760.775	50.67
761.085	50.74
761.395	52.86
761.705	53.26
762.016	53.61
762.326	53.39
762.636	50.86
762.945	52.53
763.255	50.66
763.565	51.68
763.875	51.17
764.185	51.97
764.494	52.75
764.804	51.5
765.113	51.18
765.423	50.78
765.732	51.72
766.042	53.14
766.351	52.66
766.66	52.28
766.97	52.25
767.279	49.75
767.588	50.95
767.897	51.11
768.206	53.23
768.515	50.38
768.824	52.2
769.133	51.67
769.441	52.84
769.75	53.74
770.059	52.04
770.367	51.57
770.676	52.64
770.984	51.3
771.293	53.77
771.601	54.18
771.91	54.79
772.218	52.31
772.526	51.84
772.834	51.84
773.142	50.98
773.45	49.47
773.758	53.25
774.066	53.36
774.374	53.95
774.682	50.53
774.99	50.6
775.298	52.36
775.605	52.27
775.913	53.15
776.22	51.6
776.528	55.07
776.835	51.8
777.143	55.5
777.45	50.76
777.757	54.43
778.065	52.84
778.372	50.74
778.679	52.65
778.986	52.18
779.293	52.47
779.6	52.56
779.907	52.89
780.214	54.39
780.52	51.05
780.827	54.77
781.134	55.31
781.44	51.1
781.747	55.37
782.053	55.13
782.36	53.81
782.666	53.81
782.973	54.01
783.279	52.13
783.585	55.15
783.891	52.7
784.197	51.69
784.503	54.36
784.809	51.41
785.115	51.71
785.421	52.71
785.727	58.33
786.033	52.83
786.339	54.09
786.644	51.34
786.95	52.91
787.255	50.44
787.561	54.12
787.866	53.34
788.172	56.17
788.477	52.58
788.782	56.1
789.088	52.19
789.393	52.53
789.698	53.1
790.003	52.47
790.308	52.1
790.613	52.12
790.918	53.96
791.223	53.95
791.527	55.57
791.832	54.32
792.137	58.1
792.441	51.6
792.746	49.42
793.05	55.34
793.355	54.43
793.659	56.48
793.963	53.56
794.268	54.46
794.572	54.69
794.876	55.42
795.18	54.3
795.484	51.28
795.788	50.13
796.092	52.88
796.396	59.21
796.7	52.37
797.004	57.05
797.307	55.36
797.611	54.99
797.915	55.78
798.218	55.12
798.522	53.84
798.825	54.72
799.128	51.76
799.432	53.62
799.735	53.04
800.038	54.33
800.341	54.05
800.644	56.52
800.947	51.83
801.25	54.94
801.553	55.2
801.856	53.53
802.159	52.78
802.462	53.83
802.764	54.38
803.067	57.58
803.37	57.22
803.672	55.6
803.975	55.96
804.277	53.11
804.579	55.75
804.882	54.43
805.184	56.26
805.486	53.11
805.788	54.79
806.09	51.32
806.392	55.28
806.694	52.78
806.996	56.38
807.298	52.9
807.6	56.86
807.902	58.05
808.203	55.23
808.505	52.93
808.807	51.73
809.108	52.86
809.409	54.68
809.711	57.29
810.012	62.47
810.313	54.92
810.615	56.64
810.916	54.9
811.217	54.2
811.518	50.9
811.819	55.78
812.12	51.6
812.421	57.2
812.722	56.61
813.023	48.04
813.323	54.87
813.624	56.63
813.925	49.28
814.225	50
814.526	51.39
814.826	53.26
815.126	59.85
815.427	59.7
815.727	53.84
816.027	55.05
816.327	54.6
816.627	57.18
816.927	58.86
817.227	53.46
817.527	50.5
817.827	55.55
818.127	58.85
818.427	56.43
818.727	57.16
819.026	54.08
819.326	51.47
819.625	48.96
819.925	55.78
820.224	55.24
820.524	51.72
820.823	48.99
821.122	54.87
821.421	55.56
821.72	53.86
822.019	61.78
822.318	54.86
822.617	53.61
822.916	56.76
823.215	55.3
823.514	55.7
823.813	56.33
824.111	56.91
824.41	56.55
824.709	54.85
825.007	55.08
825.306	54.72
825.604	56.25
825.902	56.13
826.201	55.84
826.499	55.72
826.797	54.97
827.095	56.33
827.393	56.23
827.691	57.57
827.989	56.41
828.287	57.57
828.585	56.75
828.882	56.52
829.18	55.96
829.478	55
829.775	55.93
830.073	57.14
830.37	57.04
830.668	57.07
830.965	57.87
831.263	55.23
831.56	57.85
831.857	56.46
832.154	55.3
832.451	53.6
832.748	55.68
833.045	55.76
833.342	55.15
833.639	54.37
833.936	53.8
834.232	57.36
834.529	59.53
834.826	57.66
835.122	54.54
835.419	57.29
835.715	56.79
836.012	54.64
836.308	53.16
836.604	55.34
836.901	56.1
837.197	56.28
837.493	55.46
837.789	56.94
838.085	54.52
838.381	55.31
838.677	51.83
838.972	59.71
839.268	55.79
839.564	60.78
839.86	59.51
840.155	62.63
840.451	55.69
840.746	51.97
841.042	61.18
841.337	60.21
841.632	59.47
841.928	57.78
842.223	55.94
842.518	58.09
842.813	57.43
843.108	50.84
843.403	51.11
843.698	52.66
843.993	59.3
844.287	59.25
844.582	46.67
844.877	51.54
845.171	63.95
845.466	55.18
845.761	50.66
846.055	53.48
846.349	54.81
846.644	57.56
846.938	51.04
847.232	56.55
847.526	65.7
847.82	51.12
848.114	52.89
848.408	62.99
848.702	57.9
848.996	56.3
849.29	66.37
849.584	51.63
849.877	50.24
850.171	49.62
850.465	55.58
850.758	57.55
851.052	53.63
851.345	58.31
851.638	75.57
851.932	58.07
852.225	63.16
852.518	46.23
852.811	48.74
853.104	65.04
853.397	50.32
853.69	56.38
853.983	48.07
854.276	60.81
854.569	52.95
854.861	56.96
855.154	61.44
855.447	57.62
855.739	46.23
856.032	81.93
856.324	57.96
856.616	78.64
856.909	50.21
857.201	57
857.493	66.45
857.785	44.24
858.077	66.56
858.369	49.42
858.661	61.95
858.953	61.6
859.245	65.15
859.537	68.22
859.829	67.62
860.12	58.05
860.412	71.7
860.703	52.14
860.995	67.54
861.286	52.44
861.578	20.66
861.869	80.31
862.16	50.79
862.452	64.59
862.743	64.75
863.034	50.23
863.325	56.87
863.616	49.43
863.907	49.54
864.198	40.15
864.488	60.71
864.779	57.91
865.07	36.39
865.36	60.3
865.651	45.68
865.941	39.52
866.232	61.22
866.522	76.4
866.813	73.83
867.103	76.92
867.393	72.31
867.683	62.01
867.973	57.34
868.263	73.9
868.553	48.8
868.843	56.82
869.133	53.16
869.423	72.76
869.713	66.36
870.002	34.46
870.292	49.48
870.582	60.62
870.871	69.14
871.161	65.42
871.45	51.54
871.739	53.72
872.029	45.98
872.318	57.93
872.607	53.12
872.896	63.05
873.185	68.75
873.474	51.78
873.763	63.58
874.052	55.68
874.341	64.5
874.63	55.99
874.918	42.96
875.207	53.78
875.496	58.28
875.784	71.69
876.073	60.13
876.361	92.53
876.649	70.55
876.938	62.01
877.226	56.09
877.514	31.85
877.802	34.27
878.09	50.74
878.378	59.41
878.666	59.75
878.954	65.5
879.242	56.4
879.53	45.04
879.817	50.37
880.105	70.29
880.392	79.27
880.68	63.53
880.967	49.21
881.255	52.24
881.542	21.58
881.83	48.21
882.117	41.71
882.404	53.44
882.691	51.88
882.978	53.31
883.265	62.92
883.552	74.85
883.839	63.77
884.126	50.74
884.413	49.46
884.699	62.11
884.986	53.24
885.273	58.06
885.559	58.06
885.846	58.06
