Data from 21-6_crown_Reflection__0__100.txt Node

Date: Thu Dec 15 17:15:33 CST 2022
User: ToomeyLab
Spectrometer: FLMS14357
Trigger mode: 0
Integration Time (sec): 1.000000E-2
Scans to average: 100
Electric dark correction enabled: true
Nonlinearity correction enabled: false
Boxcar width: 0
XAxis mode: Wavelengths
Number of Pixels in Spectrum: 2048
>>>>>Begin Spectral Data<<<<<
189.047	-49.89
189.435	-49.89
189.823	-49.89
190.211	18.21
190.599	63.67
190.987	79.64
191.375	-180.05
191.763	-733.85
192.151	100.93
192.538	62.24
192.926	508.03
193.314	11850
193.702	-307.25
194.089	-185.39
194.477	138.58
194.864	140.63
195.252	870.36
195.639	221.46
196.027	-160.16
196.414	124.44
196.801	92.99
197.189	-1459.32
197.576	-127.47
197.963	9.43
198.351	-4.16
198.738	-60.37
199.125	-109.71
199.512	25.54
199.899	-42.05
200.286	2.53
200.673	0.38
201.06	0.2
201.447	-9.88
201.833	-5.44
202.22	-35.2
202.607	466.52
202.994	-45.42
203.38	30.66
203.767	29.98
204.154	51.68
204.54	13.46
204.927	21.3
205.313	12.26
205.699	41.76
206.086	39.17
206.472	31.98
206.858	18.32
207.245	38.49
207.631	-23.15
208.017	41.81
208.403	-14.03
208.789	5.88
209.175	-28.68
209.561	-16.09
209.947	30.62
210.333	12.73
210.719	18.57
211.105	34.36
211.491	-23.33
211.876	-11.42
212.262	6.6
212.648	31.42
213.034	-3.31
213.419	3.33
213.805	-20.86
214.19	-75.95
214.576	7.65
214.961	-0.57
215.346	3.92
215.732	9.34
216.117	-11.31
216.502	-0.42
216.888	20.55
217.273	15.65
217.658	11.2
218.043	-7.31
218.428	-7.78
218.813	13.65
219.198	-32.29
219.583	-16.47
219.968	7.14
220.353	-2.01
220.738	-12.58
221.122	0.64
221.507	-8.39
221.892	-22.05
222.276	-30.62
222.661	-17.18
223.046	-10.78
223.43	8.57
223.815	-1.42
224.199	-11.12
224.583	-6.24
224.968	-4.32
225.352	-9.52
225.736	12.62
226.121	-2.22
226.505	0.59
226.889	4.04
227.273	-1.53
227.657	2.47
228.041	0.76
228.425	-1.73
228.809	-3.87
229.193	1.9
229.577	1.78
229.961	0.74
230.344	1.7
230.728	2.01
231.112	1.69
231.495	0.37
231.879	1.82
232.263	1.66
232.646	1.32
233.03	4.26
233.413	0.46
233.797	1.62
234.18	2.61
234.563	0.75
234.946	1.03
235.33	1.55
235.713	1.15
236.096	2.1
236.479	3.37
236.862	0.05
237.245	-0.33
237.628	2.05
238.011	1.17
238.394	1.94
238.777	1.7
239.16	0.83
239.543	2.45
239.925	-0.33
240.308	1.18
240.691	1.48
241.073	0.49
241.456	2.31
241.838	0.8
242.221	1.11
242.603	1.51
242.986	2.06
243.368	1.56
243.75	1.69
244.133	2.16
244.515	1.22
244.897	1.68
245.279	1.53
245.661	0.67
246.043	1.07
246.425	1.8
246.807	1.44
247.189	1.38
247.571	1.44
247.953	1.47
248.335	1.67
248.717	1.66
249.098	1.72
249.48	1.35
249.862	1.7
250.243	1.81
250.625	1.62
251.006	2.62
251.388	1.82
251.769	1.49
252.151	1.06
252.532	0.67
252.913	1.41
253.295	1.38
253.676	1.8
254.057	1.46
254.438	0.88
254.819	1.89
255.2	1.32
255.581	2.71
255.962	1.57
256.343	1.69
256.724	0.93
257.105	2.08
257.486	1.07
257.867	0.88
258.247	0.81
258.628	1.6
259.009	1.1
259.389	0.67
259.77	0.99
260.15	1.98
260.531	1.96
260.911	1.65
261.292	1.68
261.672	1.61
262.052	1.51
262.432	1.18
262.813	1.66
263.193	1.47
263.573	1.21
263.953	1.3
264.333	1.76
264.713	1.86
265.093	1.23
265.473	0.92
265.853	1.52
266.233	1.18
266.612	0.68
266.992	1.92
267.372	1.9
267.752	1.51
268.131	1.4
268.511	1.72
268.89	2.03
269.27	0.73
269.649	1.52
270.029	1.01
270.408	0.75
270.787	1.75
271.167	1.45
271.546	1.9
271.925	1.42
272.304	1.27
272.683	1.3
273.062	1.31
273.441	1.05
273.82	1.27
274.199	1.41
274.578	1.41
274.957	1.54
275.336	1.83
275.715	1.95
276.093	1.38
276.472	0.9
276.851	1.72
277.229	1.13
277.608	0.82
277.986	1.78
278.365	2.26
278.743	1.17
279.122	1.52
279.5	1.14
279.878	0.9
280.257	1.66
280.635	1.56
281.013	0.84
281.391	0.75
281.769	1.87
282.147	1.77
282.525	0.79
282.903	1.37
283.281	1.9
283.659	1.44
284.037	1.59
284.415	1.17
284.792	1.53
285.17	1.54
285.548	1.15
285.925	1.26
286.303	2.07
286.68	1.5
287.058	1.56
287.435	1.32
287.813	1.51
288.19	1.3
288.567	1.65
288.945	0.91
289.322	1.65
289.699	1.66
290.076	1.58
290.453	1.15
290.83	1.75
291.207	1.48
291.584	1.48
291.961	1.34
292.338	1.43
292.715	1.49
293.092	1.77
293.469	1.4
293.845	1.37
294.222	2.21
294.599	1.14
294.975	1.16
295.352	1.49
295.728	1.71
296.105	1.69
296.481	1.58
296.858	1.76
297.234	1.26
297.61	1.71
297.986	1.9
298.363	1.9
298.739	2.23
299.115	1.8
299.491	2.01
299.867	1.3
300.243	1.78
300.619	1.52
300.995	1.91
301.371	1.8
301.746	1.81
302.122	1.25
302.498	1.55
302.874	1.96
303.249	1.45
303.625	1.04
304	1.88
304.376	2.39
304.751	1.74
305.127	1.38
305.502	1.93
305.878	2.07
306.253	1.41
306.628	1.82
307.003	2.13
307.378	1.82
307.754	1.2
308.129	1.35
308.504	1.68
308.879	1.8
309.254	2.02
309.629	1.94
310.003	1.8
310.378	1.95
310.753	1.72
311.128	1.36
311.502	1.85
311.877	1.46
312.252	1.85
312.626	1.87
313.001	1.76
313.375	1.88
313.75	1.76
314.124	1.82
314.498	2.11
314.873	1.75
315.247	1.79
315.621	1.62
315.995	1.47
316.369	1.44
316.743	1.35
317.117	1.51
317.491	2.04
317.865	1.16
318.239	2.04
318.613	2.07
318.987	1.27
319.361	1.79
319.734	1.91
320.108	2.06
320.482	2.3
320.855	1.54
321.229	1.4
321.602	1.71
321.976	1.32
322.349	2.36
322.723	1.54
323.096	1.84
323.469	1.83
323.843	1.78
324.216	1.73
324.589	1.92
324.962	1.36
325.335	1.7
325.708	1.63
326.081	1.81
326.454	1.92
326.827	1.67
327.2	1.61
327.573	1.99
327.945	1.64
328.318	1.68
328.691	1.96
329.063	1.41
329.436	1.07
329.809	2.38
330.181	2.31
330.553	1.98
330.926	2.38
331.298	1.61
331.671	2.04
332.043	1.56
332.415	1.23
332.787	2.11
333.159	1.49
333.532	2.16
333.904	1.71
334.276	2.13
334.648	1.79
335.02	1.7
335.391	1.99
335.763	2
336.135	2.25
336.507	1.8
336.879	1.81
337.25	2.3
337.622	2.34
337.993	1.92
338.365	1.88
338.736	1.75
339.108	2.42
339.479	1.84
339.851	1.94
340.222	2.16
340.593	1.65
340.964	2.01
341.336	1.85
341.707	1.72
342.078	2.03
342.449	1.85
342.82	1.97
343.191	1.96
343.562	2.03
343.933	1.47
344.303	1.95
344.674	2.18
345.045	1.69
345.416	1.84
345.786	1.75
346.157	1.72
346.527	1.82
346.898	1.54
347.268	1.91
347.639	1.77
348.009	1.91
348.38	1.69
348.75	1.81
349.12	1.99
349.49	1.61
349.861	1.75
350.231	1.94
350.601	1.75
350.971	1.76
351.341	2.02
351.711	2.06
352.081	1.63
352.45	1.06
352.82	1.17
353.19	1.63
353.56	1.77
353.929	1.88
354.299	1.77
354.669	2
355.038	2.33
355.408	1.86
355.777	1.95
356.147	1.9
356.516	1.76
356.885	1.76
357.254	1.4
357.624	1.52
357.993	2.12
358.362	2.03
358.731	2.01
359.1	1.69
359.469	1.97
359.838	1.87
360.207	1.76
360.576	1.71
360.945	1.89
361.314	1.84
361.682	1.65
362.051	1.81
362.42	1.81
362.788	1.91
363.157	1.74
363.525	1.83
363.894	1.55
364.262	1.92
364.631	2.06
364.999	1.98
365.367	1.63
365.735	1.83
366.104	1.45
366.472	1.7
366.84	2.07
367.208	2.06
367.576	1.9
367.944	1.76
368.312	1.66
368.68	1.99
369.048	1.83
369.416	1.71
369.783	1.74
370.151	2.06
370.519	2.28
370.886	2.04
371.254	2
371.621	2.15
371.989	2.01
372.356	2.03
372.724	1.66
373.091	1.46
373.458	1.78
373.826	1.95
374.193	1.95
374.56	1.97
374.927	1.58
375.294	2.13
375.661	1.91
376.028	1.88
376.395	1.9
376.762	1.68
377.129	1.81
377.496	1.83
377.863	2.09
378.229	2.02
378.596	1.91
378.963	2.06
379.329	1.98
379.696	1.88
380.062	1.87
380.429	1.67
380.795	2.22
381.161	1.84
381.528	1.66
381.894	1.61
382.26	2.19
382.626	2.03
382.993	1.98
383.359	1.75
383.725	1.6
384.091	1.93
384.457	1.94
384.823	1.84
385.188	1.88
385.554	1.98
385.92	1.73
386.286	1.86
386.651	1.85
387.017	2.29
387.383	1.94
387.748	2.01
388.114	1.92
388.479	1.86
388.845	1.88
389.21	2.17
389.575	2.25
389.94	2.06
390.306	1.99
390.671	2.01
391.036	2.03
391.401	2.19
391.766	2.04
392.131	2.27
392.496	2.03
392.861	1.74
393.226	1.78
393.591	1.81
393.956	1.9
394.32	2.1
394.685	2.11
395.05	2.02
395.414	2.1
395.779	2.09
396.143	1.99
396.508	1.88
396.872	1.83
397.236	2.25
397.601	2.08
397.965	2.1
398.329	1.88
398.694	1.69
399.058	1.97
399.422	1.92
399.786	1.83
400.15	1.95
400.514	1.9
400.878	2.08
401.242	2.16
401.605	1.89
401.969	2.04
402.333	1.96
402.697	2.15
403.06	1.91
403.424	2.14
403.787	1.94
404.151	1.97
404.514	2.1
404.878	2.11
405.241	1.95
405.604	2.07
405.968	2
406.331	2.14
406.694	2.12
407.057	1.75
407.42	1.98
407.783	2.19
408.146	1.98
408.509	1.98
408.872	1.89
409.235	1.98
409.598	2.06
409.961	2.17
410.323	1.83
410.686	2.05
411.049	2.09
411.411	1.95
411.774	2
412.136	1.92
412.499	2.15
412.861	1.89
413.223	1.94
413.586	1.98
413.948	2.02
414.31	1.98
414.672	1.76
415.035	2.18
415.397	1.9
415.759	1.76
416.121	2.2
416.483	1.97
416.845	2.03
417.206	2.06
417.568	1.99
417.93	1.94
418.292	2.06
418.653	1.66
419.015	1.84
419.377	2.06
419.738	2.04
420.1	1.95
420.461	1.89
420.822	2.02
421.184	1.99
421.545	1.98
421.906	1.99
422.267	1.99
422.629	1.96
422.99	1.9
423.351	1.92
423.712	2.03
424.073	2.07
424.434	2.01
424.795	1.87
425.155	1.87
425.516	1.97
425.877	2
426.238	1.97
426.598	1.91
426.959	1.99
427.32	1.86
427.68	1.96
428.041	2.14
428.401	2.02
428.761	2.13
429.122	1.99
429.482	2.04
429.842	2.12
430.202	2.08
430.563	1.92
430.923	1.97
431.283	2.05
431.643	2.17
432.003	2.22
432.363	2.13
432.722	2.02
433.082	1.96
433.442	2.08
433.802	1.96
434.161	1.96
434.521	2
434.881	2.17
435.24	2.13
435.6	1.98
435.959	2.08
436.319	2.06
436.678	2.16
437.037	2.04
437.396	2.02
437.756	1.88
438.115	2.02
438.474	2.16
438.833	1.93
439.192	1.98
439.551	2
439.91	2.11
440.269	2.09
440.628	2.08
440.987	2.15
441.345	2.05
441.704	2.01
442.063	1.97
442.421	2.01
442.78	2.09
443.138	2.13
443.497	2.02
443.855	2.15
444.214	1.99
444.572	2.29
444.93	2.09
445.288	2.02
445.647	1.98
446.005	2.1
446.363	2.05
446.721	2
447.079	1.99
447.437	2.07
447.795	2.11
448.153	2.05
448.51	2.09
448.868	1.96
449.226	2.07
449.584	2
449.941	2.07
450.299	2.08
450.656	2.03
451.014	2.16
451.371	2.23
451.729	2.14
452.086	2.04
452.443	2.11
452.801	2.05
453.158	2.32
453.515	2.02
453.872	2.13
454.229	1.88
454.586	2.02
454.943	2.15
455.3	2.1
455.657	2.13
456.014	2.05
456.371	2.1
456.727	2.24
457.084	2.29
457.441	2.21
457.797	2.17
458.154	2.21
458.51	2
458.867	2.12
459.223	2.11
459.58	2.14
459.936	2.11
460.292	2.07
460.648	2.07
461.005	2.01
461.361	2.03
461.717	2.02
462.073	2.11
462.429	2.1
462.785	2.25
463.141	2.09
463.496	2.12
463.852	2.26
464.208	2.18
464.564	2.07
464.919	2.12
465.275	2.11
465.631	2.4
465.986	2.3
466.342	2.07
466.697	2.13
467.052	2.13
467.408	2.27
467.763	2.08
468.118	2.23
468.473	2.27
468.829	2.01
469.184	2.06
469.539	1.97
469.894	2.13
470.249	2.14
470.603	2.41
470.958	2.21
471.313	2.07
471.668	2.17
472.023	2.25
472.377	2.22
472.732	2.19
473.086	2.03
473.441	2.17
473.795	2.39
474.15	2.14
474.504	2.16
474.859	2.05
475.213	2.28
475.567	2.06
475.921	2.2
476.275	2.29
476.63	2.28
476.984	2.03
477.338	2.16
477.692	2.21
478.045	2.16
478.399	2.15
478.753	2.09
479.107	2.28
479.461	2.09
479.814	2.1
480.168	2.15
480.521	2.35
480.875	2.19
481.228	2.27
481.582	2.16
481.935	2.23
482.289	2.22
482.642	2.27
482.995	2.16
483.348	2.18
483.701	2.22
484.055	2.12
484.408	2.12
484.761	2.12
485.114	2.06
485.466	2.03
485.819	2.03
486.172	2.07
486.525	2.07
486.878	2.13
487.23	2.11
487.583	2.21
487.936	2.05
488.288	2.13
488.641	2.14
488.993	2.12
489.345	2.09
489.698	2.05
490.05	2.08
490.402	2.12
490.754	2.14
491.107	2.08
491.459	2.21
491.811	2.24
492.163	2.25
492.515	2.17
492.866	2.11
493.218	2.1
493.57	2.15
493.922	2.15
494.274	2.21
494.625	2.26
494.977	2.21
495.328	2.27
495.68	2.26
496.031	2.27
496.383	2.21
496.734	2.25
497.086	2.38
497.437	2.33
497.788	2.31
498.139	2.25
498.49	2.26
498.842	2.24
499.193	2.12
499.544	2.24
499.894	2.21
500.245	2.3
500.596	2.33
500.947	2.21
501.298	2.31
501.648	2.25
501.999	2.27
502.35	2.13
502.7	2.32
503.051	2.17
503.401	2.4
503.752	2.3
504.102	2.21
504.452	2.18
504.803	2.32
505.153	2.36
505.503	2.21
505.853	2.23
506.203	2.32
506.553	2.3
506.903	2.36
507.253	2.26
507.603	2.36
507.953	2.25
508.303	2.3
508.652	2.13
509.002	2.39
509.352	2.24
509.701	2.16
510.051	2.38
510.4	2.33
510.75	2.26
511.099	2.18
511.449	2.28
511.798	2.14
512.147	2.21
512.496	2.31
512.846	2.23
513.195	2.3
513.544	2.39
513.893	2.29
514.242	2.23
514.591	2.29
514.939	2.37
515.288	2.31
515.637	2.32
515.986	2.32
516.334	2.42
516.683	2.31
517.032	2.33
517.38	2.24
517.729	2.27
518.077	2.32
518.426	2.44
518.774	2.3
519.122	2.31
519.47	2.27
519.819	2.26
520.167	2.31
520.515	2.27
520.863	2.22
521.211	2.28
521.559	2.27
521.907	2.39
522.255	2.25
522.602	2.36
522.95	2.33
523.298	2.41
523.645	2.31
523.993	2.28
524.341	2.23
524.688	2.22
525.036	2.33
525.383	2.3
525.73	2.22
526.078	2.37
526.425	2.41
526.772	2.31
527.119	2.34
527.466	2.38
527.814	2.25
528.161	2.32
528.508	2.39
528.854	2.33
529.201	2.28
529.548	2.24
529.895	2.25
530.242	2.22
530.588	2.21
530.935	2.24
531.282	2.23
531.628	2.33
531.975	2.3
532.321	2.37
532.667	2.35
533.014	2.4
533.36	2.3
533.706	2.32
534.052	2.35
534.399	2.4
534.745	2.32
535.091	2.26
535.437	2.28
535.783	2.35
536.129	2.38
536.474	2.35
536.82	2.48
537.166	2.37
537.512	2.37
537.857	2.36
538.203	2.37
538.549	2.36
538.894	2.41
539.239	2.34
539.585	2.43
539.93	2.46
540.276	2.35
540.621	2.5
540.966	2.48
541.311	2.44
541.656	2.26
542.001	2.35
542.346	2.34
542.691	2.35
543.036	2.33
543.381	2.29
543.726	2.41
544.071	2.36
544.415	2.35
544.76	2.42
545.105	2.35
545.449	2.37
545.794	2.34
546.138	2.37
546.483	2.42
546.827	2.33
547.171	2.47
547.516	2.47
547.86	2.5
548.204	2.44
548.548	2.35
548.892	2.43
549.236	2.39
549.58	2.47
549.924	2.61
550.268	2.63
550.612	2.58
550.956	2.58
551.3	2.69
551.643	2.68
551.987	2.54
552.33	2.64
552.674	2.55
553.017	2.59
553.361	2.63
553.704	2.64
554.048	2.44
554.391	2.63
554.734	2.48
555.077	2.53
555.42	2.44
555.764	2.51
556.107	2.51
556.45	2.44
556.793	2.6
557.135	2.57
557.478	2.59
557.821	2.55
558.164	2.56
558.507	2.53
558.849	2.77
559.192	2.53
559.534	2.54
559.877	2.46
560.219	2.62
560.562	2.52
560.904	2.8
561.246	2.45
561.589	2.7
561.931	2.5
562.273	2.61
562.615	2.53
562.957	2.47
563.299	2.57
563.641	2.61
563.983	2.43
564.325	2.46
564.667	2.53
565.008	2.56
565.35	2.48
565.692	2.51
566.033	2.53
566.375	2.67
566.716	2.53
567.058	2.63
567.399	2.54
567.741	2.57
568.082	2.48
568.423	2.47
568.764	2.65
569.105	2.53
569.447	2.61
569.788	2.52
570.129	2.58
570.47	2.64
570.811	2.57
571.151	2.6
571.492	2.62
571.833	2.62
572.174	2.71
572.514	2.65
572.855	2.68
573.195	2.56
573.536	2.55
573.876	2.66
574.217	2.63
574.557	2.68
574.898	2.51
575.238	2.81
575.578	2.68
575.918	2.72
576.258	2.78
576.598	2.51
576.938	2.56
577.278	2.68
577.618	2.58
577.958	2.59
578.298	2.7
578.638	2.59
578.977	2.81
579.317	2.88
579.657	2.57
579.996	2.66
580.336	2.77
580.675	2.61
581.014	2.64
581.354	2.52
581.693	2.72
582.032	2.88
582.372	2.68
582.711	2.65
583.05	2.72
583.389	2.64
583.728	2.84
584.067	2.65
584.406	2.66
584.745	2.65
585.083	2.68
585.422	2.66
585.761	2.84
586.1	2.72
586.438	2.53
586.777	2.63
587.115	3.09
587.454	2.49
587.792	2.79
588.13	2.81
588.469	2.66
588.807	2.91
589.145	2.67
589.483	2.57
589.821	2.81
590.159	2.72
590.497	2.8
590.835	2.89
591.173	2.78
591.511	2.72
591.849	2.85
592.187	2.5
592.524	2.67
592.862	2.65
593.2	2.77
593.537	3.06
593.875	2.8
594.212	2.8
594.55	2.79
594.887	2.86
595.224	2.82
595.561	2.73
595.899	2.81
596.236	2.86
596.573	2.5
596.91	2.69
597.247	2.98
597.584	2.8
597.921	2.73
598.258	2.95
598.594	2.7
598.931	2.57
599.268	2.57
599.604	2.96
599.941	2.71
600.277	2.84
600.614	2.82
600.95	2.55
601.287	2.39
601.623	2.61
601.959	3.13
602.296	3.05
602.632	2.89
602.968	2.95
603.304	2.78
603.64	2.73
603.976	2.62
604.312	2.65
604.648	2.82
604.984	2.86
605.319	2.85
605.655	2.8
605.991	2.76
606.326	2.91
606.662	2.66
606.998	2.89
607.333	2.82
607.668	2.83
608.004	2.74
608.339	2.99
608.674	2.85
609.01	3.12
609.345	2.97
609.68	2.84
610.015	3
610.35	2.97
610.685	2.6
611.02	2.76
611.355	2.87
611.689	2.88
612.024	2.78
612.359	3
612.694	3.18
613.028	3.02
613.363	2.76
613.697	2.89
614.032	2.86
614.366	2.63
614.7	3.05
615.035	2.8
615.369	2.98
615.703	2.91
616.037	2.85
616.371	2.89
616.705	3.04
617.039	2.59
617.373	3.29
617.707	3.05
618.041	2.52
618.375	2.47
618.709	2.84
619.042	2.95
619.376	2.9
619.71	3.09
620.043	3.16
620.377	2.78
620.71	2.81
621.043	3.31
621.377	3.11
621.71	3.47
622.043	2.87
622.376	2.94
622.709	3.36
623.043	3.05
623.376	2.97
623.709	3.27
624.041	2.73
624.374	2.85
624.707	2.76
625.04	2.96
625.373	3.51
625.705	3
626.038	3.06
626.37	3.03
626.703	3.18
627.035	2.96
627.368	3.28
627.7	3.06
628.032	3.08
628.365	3.02
628.697	3.12
629.029	3
629.361	3.31
629.693	2.99
630.025	2.9
630.357	3.25
630.689	3.13
631.021	3.21
631.353	3.34
631.684	2.92
632.016	2.77
632.348	3.05
632.679	3.04
633.011	3.02
633.342	3.29
633.674	3.14
634.005	2.89
634.336	3.31
634.668	2.99
634.999	2.57
635.33	3.05
635.661	3.09
635.992	3.02
636.323	2.81
636.654	3.06
636.985	2.88
637.316	2.9
637.647	3.32
637.977	3.01
638.308	3.25
638.639	2.98
638.969	3.07
639.3	3.07
639.63	3.25
639.961	3.09
640.291	3.02
640.622	3.33
640.952	3.18
641.282	2.86
641.612	3.28
641.943	3.26
642.273	3.08
642.603	3.46
642.933	3.15
643.263	3.22
643.592	3.39
643.922	3.63
644.252	3.23
644.582	3.15
644.911	3.07
645.241	3.16
645.571	3.09
645.9	3.22
646.23	3.57
646.559	2.82
646.888	3.27
647.218	3.1
647.547	2.89
647.876	3
648.205	2.92
648.534	3.11
648.863	3.17
649.192	3.16
649.521	3.08
649.85	3.45
650.179	3.31
650.508	3.09
650.837	3.47
651.165	3.62
651.494	2.99
651.822	3.37
652.151	3.37
652.479	3.46
652.808	3.27
653.136	2.73
653.465	3.2
653.793	3.27
654.121	3.28
654.449	2.89
654.777	3.02
655.105	2.8
655.433	3.35
655.761	3.02
656.089	3.32
656.417	3.8
656.745	3.55
657.073	3.05
657.4	3.49
657.728	2.4
658.056	2.84
658.383	3.2
658.711	3.79
659.038	3.35
659.365	3.41
659.693	3.17
660.02	3.44
660.347	3.46
660.674	3.02
661.001	3.22
661.329	3.32
661.656	3.3
661.982	3.25
662.309	3.39
662.636	3.39
662.963	3.24
663.29	3.59
663.616	3.2
663.943	3.3
664.27	3.45
664.596	3.19
664.923	3.65
665.249	3.33
665.576	2.88
665.902	3.07
666.228	3.53
666.554	3.58
666.881	3.07
667.207	3.63
667.533	3.12
667.859	3.08
668.185	3.5
668.511	3.85
668.837	3.59
669.162	3.6
669.488	3.01
669.814	3.29
670.139	2.84
670.465	3.89
670.791	2.85
671.116	3.08
671.442	2.49
671.767	3.38
672.092	3
672.418	3.49
672.743	3.6
673.068	3.53
673.393	3.89
673.718	3.05
674.043	3.56
674.368	2.59
674.693	3.62
675.018	3.59
675.343	3.75
675.667	3.22
675.992	3.67
676.317	2.67
676.641	3.68
676.966	3.25
677.29	2.9
677.615	3.09
677.939	3.88
678.264	2.82
678.588	3.64
678.912	3.99
679.236	3.31
679.56	3.34
679.885	3.72
680.209	3.85
680.532	3.67
680.856	3.74
681.18	3.87
681.504	3.48
681.828	3.11
682.152	3.37
682.475	3.44
682.799	3.38
683.122	3.77
683.446	3.03
683.769	3.48
684.093	3.59
684.416	3.03
684.739	3.24
685.062	3.61
685.386	3.43
685.709	3.56
686.032	3.85
686.355	3.48
686.678	3.96
687.001	3.88
687.324	3.61
687.646	3.35
687.969	3.43
688.292	3.78
688.614	3.74
688.937	3.37
689.26	3.93
689.582	3.75
689.904	3.66
690.227	4.02
690.549	3.81
690.871	3.61
691.194	3.23
691.516	3.58
691.838	3.71
692.16	3.13
692.482	3.72
692.804	3.95
693.126	2.98
693.448	3.84
693.769	3.17
694.091	3.42
694.413	3.67
694.735	2.76
695.056	3.66
695.378	3.46
695.699	3.53
696.021	3.64
696.342	2.94
696.663	3.64
696.984	2.58
697.306	3.22
697.627	3.75
697.948	3.53
698.269	3.71
698.59	3.67
698.911	3.35
699.232	3.74
699.553	3.97
699.873	3.38
700.194	3.91
700.515	3.39
700.835	3.75
701.156	4.06
701.477	3.46
701.797	3.86
702.117	3.53
702.438	3.65
702.758	3.19
703.078	4.39
703.398	3.42
703.719	3.99
704.039	4.1
704.359	3.57
704.679	2.88
704.999	4.08
705.319	2.63
705.638	3.14
705.958	3.56
706.278	3.71
706.597	3.4
706.917	3.7
707.237	3.46
707.556	3.94
707.876	4.1
708.195	3.7
708.514	4.01
708.834	3.72
709.153	4.48
709.472	4.36
709.791	3.19
710.11	3.28
710.429	3.5
710.748	4.1
711.067	4.54
711.386	4.02
711.705	4.36
712.023	4.52
712.342	3.1
712.661	4.21
712.979	3.95
713.298	3.74
713.616	4.54
713.935	4.13
714.253	3.83
714.572	2.41
714.89	4.65
715.208	3.73
715.526	4.05
715.844	4.36
716.162	4.56
716.48	3.5
716.798	3.21
717.116	3.6
717.434	3.57
717.752	3.9
718.069	3.95
718.387	4.41
718.705	3.79
719.022	4.74
719.34	3.23
719.657	3.58
719.975	3.31
720.292	3.74
720.609	1.94
720.927	5.12
721.244	5.28
721.561	2.85
721.878	4.42
722.195	3.8
722.512	4.44
722.829	3.81
723.146	4.39
723.463	4.28
723.779	3.13
724.096	4.22
724.413	4.74
724.729	4.88
725.046	3.81
725.362	4.16
725.679	4.75
725.995	2.89
726.311	4.48
726.628	4.46
726.944	5.23
727.26	3.43
727.576	4.74
727.892	3.77
728.208	4.4
728.524	2.57
728.84	3.78
729.156	3.63
729.472	3.11
729.787	4.03
730.103	3.29
730.419	4.47
730.734	3.04
731.05	4.3
731.365	5.2
731.681	4.56
731.996	4.03
732.311	2.73
732.626	4.18
732.942	3.42
733.257	3.8
733.572	2.88
733.887	3.99
734.202	4.56
734.517	3.53
734.832	3.31
735.146	4.3
735.461	4.38
735.776	4.82
736.091	5.88
736.405	4.28
736.72	3.49
737.034	4.5
737.349	4.01
737.663	5.3
737.977	5.46
738.292	1.39
738.606	4.77
738.92	3.93
739.234	3.83
739.548	4.24
739.862	4.58
740.176	4.42
740.49	4.39
740.804	5.1
741.117	2.84
741.431	2.86
741.745	3.89
742.058	2.95
742.372	4.37
742.685	5.74
742.999	4.2
743.312	3.03
743.626	5.3
743.939	3.8
744.252	4.81
744.565	4.12
744.878	3.11
745.191	3.88
745.505	3.05
745.817	3.43
746.13	5.52
746.443	3.16
746.756	5.21
747.069	4.86
747.381	3.53
747.694	5.23
748.007	3.88
748.319	3.73
748.632	4.89
748.944	2.66
749.256	5.46
749.569	3.2
749.881	5.17
750.193	4.22
750.505	5.2
750.817	4.73
751.129	3.96
751.441	5.33
751.753	4.86
752.065	4.72
752.377	4.36
752.689	3.18
753	4.51
753.312	5.48
753.624	3.05
753.935	4.18
754.247	3.79
754.558	4.01
754.869	6.49
755.181	3.62
755.492	4.19
755.803	5.96
756.114	4.72
756.425	2.87
756.736	4.78
757.047	5.58
757.358	4.38
757.669	4.04
757.98	3.94
758.291	4.98
758.601	3
758.912	3.9
759.223	3.73
759.533	5.31
759.844	3.65
760.154	4.2
760.464	6.2
760.775	5.8
761.085	4.55
761.395	3.67
761.705	5.75
762.016	3.77
762.326	6.93
762.636	4.92
762.945	4.82
763.255	3.39
763.565	4.62
763.875	3.39
764.185	5.6
764.494	4.24
764.804	3.63
765.113	4.16
765.423	4.61
765.732	4.94
766.042	4.97
766.351	4.35
766.66	3.99
766.97	3.98
767.279	3.39
767.588	4.14
767.897	3.47
768.206	4.71
768.515	4.15
768.824	6.08
769.133	2.89
769.441	2.19
769.75	2.59
770.059	3
770.367	4.26
770.676	3.4
770.984	1.48
771.293	5.27
771.601	3.36
771.91	3.62
772.218	4.56
772.526	3.42
772.834	2.02
773.142	4.18
773.45	5.04
773.758	6.03
774.066	1.94
774.374	5.17
774.682	3.76
774.99	3.59
775.298	3.04
775.605	2.2
775.913	2
776.22	2.42
776.528	3.53
776.835	5.14
777.143	7.44
777.45	2.75
777.757	5.88
778.065	2.99
778.372	6.49
778.679	7.83
778.986	7.55
779.293	3.65
779.6	5.47
779.907	6.23
780.214	5.75
780.52	5.2
780.827	3.54
781.134	5.04
781.44	6.21
781.747	5.68
782.053	3.89
782.36	3.45
782.666	3.42
782.973	2.46
783.279	4.82
783.585	4.97
783.891	5.35
784.197	5.17
784.503	5.29
784.809	5.38
785.115	7.4
785.421	5.64
785.727	6.6
786.033	2.35
786.339	5.76
786.644	2
786.95	2.8
787.255	-0.34
787.561	3.57
787.866	3.35
788.172	6.85
788.477	1.68
788.782	2.79
789.088	-3.09
789.393	6.11
789.698	3.27
790.003	2.96
790.308	4.15
790.613	4.58
790.918	4.17
791.223	5.35
791.527	9.18
791.832	4.91
792.137	8.86
792.441	4.12
792.746	6.75
793.05	4.04
793.355	4.86
793.659	6.93
793.963	1.84
794.268	6.38
794.572	5.26
794.876	3.53
795.18	8.51
795.484	6.76
795.788	5.36
796.092	2.68
796.396	4.16
796.7	3.18
797.004	2.95
797.307	3.27
797.611	4.22
797.915	3.63
798.218	6.43
798.522	3.04
798.825	9.19
799.128	8.48
799.432	3.52
799.735	4.27
800.038	5.76
800.341	8.22
800.644	-0.83
800.947	6.34
801.25	1
801.553	5.24
801.856	7.35
802.159	0.42
802.462	1.85
802.764	6.61
803.067	8.09
803.37	4.35
803.672	1.8
803.975	6.24
804.277	5.04
804.579	5.28
804.882	7.39
805.184	3.15
805.486	8.56
805.788	8.73
806.09	3.72
806.392	3.87
806.694	4.49
806.996	7.48
807.298	-2.21
807.6	9.4
807.902	1.91
808.203	2.48
808.505	2.64
808.807	6.01
809.108	5.6
809.409	5.75
809.711	1.64
810.012	4.05
810.313	4.36
810.615	2.33
810.916	8.41
811.217	2.74
811.518	0.2
811.819	8.7
812.12	10.1
812.421	-1.11
812.722	0.38
813.023	4.43
813.323	2.15
813.624	8
813.925	3.59
814.225	6.54
814.526	-0.19
814.826	1.55
815.126	3.14
815.427	-0.65
815.727	1.02
816.027	9.73
816.327	9.59
816.627	4.96
816.927	6.76
817.227	4.58
817.527	7.6
817.827	2.64
818.127	-2.33
818.427	1.12
818.727	-2.69
819.026	10.1
819.326	3.1
819.625	1.16
819.925	5.18
820.224	7
820.524	0.04
820.823	4.22
821.122	-2.12
821.421	5.61
821.72	4.16
822.019	2.69
822.318	2.16
822.617	5.43
822.916	0.87
823.215	8.11
823.514	5.2
823.813	4.8
824.111	4.81
824.41	5.58
824.709	4.37
825.007	5.25
825.306	6.18
825.604	5.82
825.902	6.42
826.201	5.19
826.499	5.66
826.797	5.56
827.095	6.3
827.393	7.11
827.691	8.04
827.989	5.89
828.287	5.46
828.585	4.74
828.882	5.13
829.18	6.03
829.478	6.75
829.775	7.85
830.073	5
830.37	4.9
830.668	6.02
830.965	7.32
831.263	5.94
831.56	4.5
831.857	8.52
832.154	4.85
832.451	9.15
832.748	5.5
833.045	5.15
833.342	5.58
833.639	8.44
833.936	2.47
834.232	0.91
834.529	2.79
834.826	8.19
835.122	2.61
835.419	8.84
835.715	2.37
836.012	8.11
836.308	9.12
836.604	3.05
836.901	2.07
837.197	6.42
837.493	6.83
837.789	8.25
838.085	3.71
838.381	3.05
838.677	5.89
838.972	2.03
839.268	0.91
839.564	1.62
839.86	4.58
840.155	5.31
840.451	9.72
840.746	5.58
841.042	-3.83
841.337	8.51
841.632	8.25
841.928	5.78
842.223	-0.43
842.518	11.66
842.813	1.21
843.108	2.05
843.403	6.07
843.698	1.18
843.993	14.86
844.287	2.33
844.582	3.33
844.877	5.74
845.171	2.9
845.466	10.79
845.761	-0.63
846.055	5.19
846.349	5.77
846.644	-7.1
846.938	13.54
847.232	3.36
847.526	9.44
847.82	5.75
848.114	11.09
848.408	-6.39
848.702	14.99
848.996	5.3
849.29	12.68
849.584	-1
849.877	6.89
850.171	11.34
850.465	17.12
850.758	-20.62
851.052	-2.2
851.345	-8.45
851.638	-6.06
851.932	8.35
852.225	13.21
852.518	0.35
852.811	-12.46
853.104	0.2
853.397	-0.64
853.69	6.06
853.983	-9.5
854.276	4.88
854.569	-13.32
854.861	-22.77
855.154	25.37
855.447	4.03
855.739	-29.88
856.032	9.09
856.324	1.58
856.616	5.3
856.909	-1.33
857.201	-0.68
857.493	-1.38
857.785	23.63
858.077	4.01
858.369	8.83
858.661	-1.16
858.953	-8.16
859.245	2.3
859.537	-2.78
859.829	4.41
860.12	-5.77
860.412	-22.19
860.703	23.4
860.995	16.96
861.286	-18.38
861.578	9.96
861.869	24.59
862.16	6.32
862.452	-3.64
862.743	6.33
863.034	6.52
863.325	6
863.616	5.45
863.907	20.45
864.198	-15.68
864.488	20.25
864.779	-14.81
865.07	2.45
865.36	20.36
865.651	12.43
865.941	-8.01
866.232	20.41
866.522	9.95
866.813	15.77
867.103	-20.49
867.393	6.73
867.683	-18.93
867.973	-9.15
868.263	-2.05
868.553	4.72
868.843	13.29
869.133	16.77
869.423	10.98
869.713	-6.29
870.002	16.58
870.292	-3.61
870.582	3.87
870.871	18.56
871.161	0.9
871.45	-24.38
871.739	19.93
872.029	-5.65
872.318	9.22
872.607	22.98
872.896	-13.34
873.185	12.96
873.474	-15.37
873.763	12.14
874.052	39.97
874.341	15.48
874.63	12.71
874.918	21.05
875.207	-17.98
875.496	32.01
875.784	-41.26
876.073	-9.17
876.361	3.66
876.649	-4.51
876.938	-11.31
877.226	14.47
877.514	17.08
877.802	-0.57
878.09	0.94
878.378	-16.91
878.666	11.57
878.954	21.45
879.242	-4.07
879.53	3.25
879.817	-8.4
880.105	25.98
880.392	-4.77
880.68	6.74
880.967	-5
881.255	5.45
881.542	-17.43
881.83	23.22
882.117	9.37
882.404	-21.14
882.691	6.8
882.978	10.63
883.265	13.42
883.552	-0.56
883.839	-4.6
884.126	11.44
884.413	8.49
884.699	5.16
884.986	10.56
885.273	11.07
885.559	11.07
885.846	11.07
